timestamps,TP9,Fp1,Fp2,TP10,stim
1676923574.317717,13.18359375,16.11328125,-19.53125,-32.71484375,0.0
1676923574.322717,-30.76171875,9.27734375,-15.625,-16.6015625,0.0
1676923574.3277168,-46.38671875,-18.5546875,-45.41015625,-3.90625,0.0
1676923574.3327167,0.9765625,-29.78515625,-67.3828125,-10.25390625,0.0
1676923574.3353415,23.4375,-30.2734375,-56.640625,-26.85546875,0.0
1676923574.3379664,-19.53125,-36.1328125,-47.8515625,-20.99609375,0.0
1676923574.3405912,-46.875,-28.3203125,-44.43359375,-3.41796875,0.0
1676923574.343216,-14.6484375,-16.11328125,-56.640625,-7.32421875,0.0
1676923574.3458407,19.04296875,-5.37109375,-66.40625,-26.3671875,0.0
1676923574.3484654,-2.44140625,-22.4609375,-65.4296875,-20.01953125,0.0
1676923574.3510904,-45.41015625,-35.15625,-73.2421875,-0.48828125,0.0
1676923574.3537152,-20.5078125,-33.203125,-63.96484375,-4.8828125,0.0
1676923574.35634,37.109375,-42.48046875,-49.31640625,-11.23046875,0.0
1676923574.358965,28.3203125,-31.25,-47.36328125,-5.859375,0.0
1676923574.3615897,-30.76171875,-13.671875,-36.62109375,7.32421875,0.0
1676923574.3642144,-33.203125,-24.90234375,-30.2734375,0.9765625,0.0
1676923574.3678505,21.97265625,-23.92578125,-48.828125,-17.08984375,0.0
1676923574.3714867,31.25,-0.9765625,-44.43359375,-13.18359375,0.0
1676923574.3751228,-23.92578125,-3.90625,-35.15625,5.859375,0.0
1676923574.378759,-43.9453125,-12.20703125,-42.48046875,6.8359375,0.0
1676923574.382395,7.8125,-28.3203125,-44.921875,-4.39453125,0.0
1676923574.3860312,31.25,-66.89453125,-60.05859375,-14.6484375,0.0
1676923574.3896673,-9.765625,-48.828125,-69.3359375,0.9765625,0.0
1676923574.3933034,-40.52734375,-29.78515625,-54.19921875,13.671875,0.0
1676923574.3969395,-4.39453125,-44.43359375,-51.26953125,4.39453125,0.0
1676923574.4005756,35.15625,-28.3203125,-57.12890625,-9.765625,0.0
1676923574.4042118,5.859375,-2.44140625,-47.8515625,-10.7421875,0.0
1676923574.407848,-43.9453125,6.34765625,-42.48046875,4.39453125,0.0
1676923574.412834,-22.94921875,-3.90625,-45.41015625,3.90625,0.0
1676923574.41782,34.66796875,-37.59765625,-64.94140625,-7.8125,0.0
1676923574.422806,26.85546875,-49.8046875,-56.15234375,-1.953125,0.0
1676923574.427792,-29.78515625,-20.5078125,-38.0859375,9.27734375,0.0
1676923574.4327781,-38.57421875,-21.97265625,-48.33984375,12.20703125,0.0
1676923574.4377642,4.39453125,-46.38671875,-54.6875,-8.7890625,0.0
1676923574.4427505,19.53125,-45.8984375,-62.5,-31.73828125,0.0
1676923574.4477365,-30.76171875,-30.2734375,-53.7109375,-9.27734375,0.0
1676923574.4527225,-59.08203125,-16.6015625,-46.38671875,-4.39453125,0.0
1676923574.4577086,-15.625,-8.7890625,-48.33984375,-13.18359375,0.0
1676923574.4626946,7.32421875,-22.94921875,-58.59375,-30.76171875,0.0
1676923574.4676807,-26.85546875,-46.875,-63.4765625,-35.15625,0.0
1676923574.4714386,-68.84765625,-53.7109375,-58.10546875,-16.11328125,0.0
1676923574.4751964,-31.25,-61.5234375,-65.4296875,-11.23046875,0.0
1676923574.4789543,23.4375,-82.03125,-88.8671875,-22.4609375,0.0
1676923574.4827123,-12.6953125,-63.4765625,-82.51953125,-26.3671875,0.0
1676923574.48647,-72.265625,-34.66796875,-61.5234375,-16.11328125,0.0
1676923574.490228,-58.59375,-19.53125,-59.5703125,-20.01953125,0.0
1676923574.493986,-5.859375,-14.6484375,-52.734375,-43.45703125,0.0
1676923574.4977436,-4.39453125,-24.90234375,-49.31640625,-49.31640625,0.0
1676923574.5015016,-61.03515625,-33.203125,-58.59375,-25.390625,0.0
1676923574.5052595,-84.47265625,-31.73828125,-59.08203125,-18.5546875,0.0
1676923574.5090172,-36.1328125,-39.0625,-52.24609375,-41.50390625,0.0
1676923574.5127752,-4.39453125,-40.52734375,-55.17578125,-50.29296875,0.0
1676923574.5165076,-49.31640625,-38.0859375,-64.453125,-31.73828125,0.0
1676923574.5202398,-84.47265625,-46.875,-73.2421875,-26.85546875,0.0
1676923574.5239723,-42.48046875,-54.19921875,-81.0546875,-41.9921875,0.0
1676923574.5277047,-9.27734375,-53.22265625,-88.37890625,-50.78125,0.0
1676923574.5314372,-49.8046875,-59.5703125,-66.40625,-44.921875,0.0
1676923574.5351696,-94.23828125,-34.66796875,-45.8984375,-40.0390625,0.0
1676923574.5389018,-80.56640625,-14.6484375,-59.5703125,-62.5,0.0
1676923574.5426342,-55.6640625,-35.15625,-76.66015625,-97.16796875,0.0
1676923574.5463667,-79.1015625,-30.2734375,-55.17578125,-105.95703125,0.0
1676923574.550099,-128.90625,-32.71484375,-38.57421875,-96.19140625,0.0
1676923574.5538313,-138.18359375,-38.57421875,-51.7578125,-114.2578125,0.0
1676923574.5575638,-106.93359375,-17.08984375,-49.8046875,-140.625,0.0
1676923574.5614247,-128.41796875,-18.5546875,-50.78125,-154.296875,0.0
1676923574.565286,-195.3125,-30.76171875,-46.38671875,-155.76171875,0.0
1676923574.5691469,-208.49609375,-12.6953125,-43.9453125,-155.76171875,0.0
1676923574.573008,-172.36328125,-13.18359375,-55.6640625,-176.26953125,0.0
1676923574.576869,-161.62109375,-19.53125,-60.546875,-189.453125,0.0
1676923574.58073,-197.75390625,-7.8125,-57.12890625,-171.875,0.0
1676923574.5845912,-235.3515625,-18.5546875,-46.38671875,-171.38671875,0.0
1676923574.588452,-204.58984375,-6.8359375,-35.64453125,-185.546875,0.0
1676923574.5923133,-156.25,15.13671875,-23.4375,-190.91796875,0.0
1676923574.5961742,-180.6640625,1.953125,-23.4375,-193.359375,0.0
1676923574.6000354,-229.98046875,13.18359375,-24.4140625,-180.6640625,0.0
1676923574.6038964,-217.7734375,24.4140625,-22.4609375,-180.6640625,0.0
1676923574.607561,-165.52734375,-11.23046875,-29.78515625,-187.98828125,0.0
1676923574.6112256,-163.0859375,-34.1796875,-32.71484375,-186.03515625,0.0
1676923574.6148903,-206.54296875,-13.18359375,-34.66796875,-175.29296875,0.0
1676923574.618555,-206.54296875,17.578125,-50.29296875,-162.59765625,0.0
1676923574.6222196,-146.97265625,12.20703125,-63.4765625,-173.828125,0.0
1676923574.6258843,-117.67578125,-14.16015625,-49.31640625,-172.8515625,0.0
1676923574.629549,-161.1328125,-19.53125,-33.203125,-158.203125,0.0
1676923574.6332135,-188.4765625,-23.4375,-33.203125,-144.53125,0.0
1676923574.6368783,-143.5546875,-30.76171875,-24.4140625,-148.4375,0.0
1676923574.640543,-95.703125,-19.04296875,-17.578125,-154.78515625,0.0
1676923574.6442075,-121.09375,0.9765625,-28.80859375,-122.0703125,0.0
1676923574.6478722,-144.53125,-8.30078125,-36.1328125,-96.19140625,1.0
1676923574.651656,-99.12109375,-16.6015625,-47.8515625,-93.75,0.0
1676923574.6554399,-41.9921875,-5.859375,-73.73046875,-94.7265625,0.0
1676923574.6592236,-48.33984375,-20.01953125,-68.84765625,-78.125,0.0
1676923574.6630073,-89.35546875,-23.92578125,-52.24609375,-54.19921875,0.0
1676923574.6667912,-64.453125,-15.13671875,-72.75390625,-48.828125,0.0
1676923574.670575,0.0,-34.66796875,-89.84375,-51.26953125,0.0
1676923574.6743586,13.18359375,-58.10546875,-74.70703125,-26.85546875,0.0
1676923574.6781425,-26.85546875,-68.359375,-67.3828125,-1.46484375,0.0
1676923574.6819263,-32.2265625,-67.87109375,-64.453125,-12.20703125,0.0
1676923574.68571,20.01953125,-49.8046875,-66.89453125,-26.85546875,0.0
1676923574.689494,44.921875,-34.1796875,-76.66015625,-22.94921875,0.0
1676923574.6932776,-3.90625,-55.17578125,-77.1484375,-0.48828125,0.0
1676923574.6982892,-30.76171875,-70.3125,-84.9609375,14.16015625,0.0
1676923574.7033005,22.94921875,-54.6875,-86.9140625,7.32421875,0.0
1676923574.708312,57.6171875,-45.41015625,-83.0078125,1.46484375,0.0
1676923574.7133236,20.5078125,-71.2890625,-99.609375,21.97265625,0.0
1676923574.7183352,-17.08984375,-94.7265625,-102.05078125,37.59765625,0.0
1676923574.7233467,14.6484375,-77.1484375,-83.0078125,29.78515625,0.0
1676923574.728358,61.03515625,-62.98828125,-85.44921875,24.4140625,0.0
1676923574.7333696,40.52734375,-68.84765625,-90.8203125,30.2734375,0.0
1676923574.7383811,-8.7890625,-58.59375,-90.8203125,38.57421875,0.0
1676923574.7433925,4.8828125,-52.24609375,-88.37890625,44.43359375,0.0
1676923574.748404,59.5703125,-51.7578125,-71.77734375,41.015625,0.0
1676923574.7534156,61.5234375,-60.05859375,-67.87109375,35.15625,0.0
1676923574.755954,22.4609375,-67.87109375,-87.890625,52.24609375,0.0
1676923574.7584925,13.18359375,-79.1015625,-99.12109375,64.453125,0.0
1676923574.7610307,51.7578125,-75.1953125,-87.890625,48.828125,0.0
1676923574.763569,74.21875,-53.7109375,-83.0078125,37.59765625,0.0
1676923574.7661076,23.4375,-52.24609375,-84.47265625,48.828125,0.0
1676923574.768646,-12.6953125,-51.7578125,-72.265625,57.6171875,0.0
1676923574.7711844,41.015625,-54.6875,-62.5,44.921875,0.0
1676923574.773723,84.47265625,-76.171875,-62.98828125,28.3203125,0.0
1676923574.7762613,45.41015625,-84.47265625,-65.4296875,38.0859375,0.0
1676923574.7787995,0.48828125,-89.84375,-63.4765625,62.01171875,0.0
1676923574.781338,31.73828125,-75.68359375,-80.078125,57.6171875,0.0
1676923574.7838764,79.1015625,-45.41015625,-94.23828125,19.04296875,0.0
1676923574.7889385,56.640625,-37.109375,-82.51953125,15.13671875,0.0
1676923574.7940006,10.25390625,-34.1796875,-74.70703125,39.55078125,0.0
1676923574.7990627,10.25390625,-43.9453125,-71.77734375,40.0390625,0.0
1676923574.8041246,55.17578125,-54.19921875,-68.359375,14.6484375,0.0
1676923574.8091867,62.01171875,-60.546875,-68.84765625,3.90625,0.0
1676923574.8142488,13.18359375,-67.3828125,-57.6171875,35.64453125,0.0
1676923574.819311,-1.46484375,-55.17578125,-50.29296875,34.1796875,0.0
1676923574.824373,50.78125,-37.109375,-57.6171875,1.953125,0.0
1676923574.8294349,66.89453125,-39.55078125,-63.4765625,-1.46484375,0.0
1676923574.834497,24.4140625,-49.8046875,-71.77734375,15.625,0.0
1676923574.839559,-10.7421875,-52.734375,-79.58984375,17.578125,0.0
1676923574.8446212,14.6484375,-60.05859375,-83.0078125,0.48828125,0.0
1676923574.8482141,50.29296875,-70.3125,-76.171875,-8.7890625,0.0
1676923574.8518069,14.16015625,-65.4296875,-61.03515625,-6.8359375,0.0
1676923574.8553996,-36.1328125,-53.22265625,-58.59375,5.859375,0.0
1676923574.8589926,-16.11328125,-35.64453125,-60.546875,1.953125,0.0
1676923574.8625855,33.203125,-41.015625,-62.5,-12.6953125,0.0
1676923574.8661783,20.99609375,-45.41015625,-74.70703125,-13.18359375,0.0
1676923574.869771,-28.80859375,-54.6875,-85.44921875,1.953125,0.0
1676923574.873364,-24.4140625,-71.77734375,-76.171875,1.953125,0.0
1676923574.876957,26.3671875,-54.6875,-76.66015625,-4.39453125,0.0
1676923574.8805497,39.55078125,-50.78125,-93.75,-0.48828125,0.0
1676923574.8841424,-5.37109375,-83.49609375,-89.35546875,-4.8828125,0.0
1676923574.8877354,-36.1328125,-81.0546875,-69.82421875,-2.9296875,0.0
1676923574.8914878,5.859375,-52.24609375,-81.0546875,-12.20703125,0.0
1676923574.8952403,34.1796875,-36.1328125,-97.65625,-26.3671875,0.0
1676923574.8989928,-13.18359375,-20.99609375,-78.125,-19.53125,0.0
1676923574.9027452,-48.828125,-42.48046875,-54.6875,-5.37109375,0.0
1676923574.9064977,-8.7890625,-62.5,-52.24609375,-16.11328125,0.0
1676923574.9102502,32.71484375,-38.57421875,-77.1484375,-29.78515625,0.0
1676923574.914003,6.34765625,-25.390625,-86.42578125,-15.13671875,0.0
1676923574.9177554,-39.55078125,-25.390625,-60.546875,-8.30078125,0.0
1676923574.9215078,-28.3203125,-33.203125,-49.31640625,-11.71875,0.0
1676923574.9252603,14.6484375,-52.24609375,-60.546875,-20.99609375,0.0
1676923574.9290128,8.30078125,-60.05859375,-65.91796875,-23.4375,0.0
1676923574.9327652,-33.69140625,-59.5703125,-62.98828125,-5.37109375,0.0
1676923574.9365191,-43.9453125,-57.12890625,-65.4296875,-5.37109375,0.0
1676923574.9402728,-2.44140625,-46.38671875,-71.2890625,-25.87890625,0.0
1676923574.9440267,20.5078125,-38.57421875,-70.80078125,-29.78515625,0.0
1676923574.9477806,-25.390625,-43.9453125,-71.2890625,-9.27734375,0.0
1676923574.9515345,-57.12890625,-57.12890625,-78.61328125,-9.765625,0.0
1676923574.9552884,-12.6953125,-74.70703125,-75.68359375,-24.4140625,0.0
1676923574.959042,18.06640625,-58.10546875,-61.03515625,-32.71484375,0.0
1676923574.962796,-22.4609375,-45.41015625,-41.015625,-18.06640625,0.0
1676923574.9665499,-59.5703125,-49.31640625,-35.15625,-5.859375,0.0
1676923574.9703035,-27.34375,-32.71484375,-61.5234375,-22.94921875,0.0
1676923574.9740574,17.578125,-40.52734375,-58.59375,-34.1796875,0.0
1676923574.9778113,0.0,-48.33984375,-48.828125,-23.4375,0.0
1676923574.9817364,-52.24609375,-34.1796875,-57.12890625,-9.27734375,0.0
1676923574.9856613,-46.38671875,-38.0859375,-62.01171875,-14.6484375,0.0
1676923574.9895864,5.37109375,-53.7109375,-58.10546875,-28.3203125,0.0
1676923574.9935114,8.30078125,-58.59375,-55.6640625,-27.34375,0.0
1676923574.9974363,-40.0390625,-61.03515625,-61.03515625,-0.48828125,0.0
1676923575.0013614,-50.29296875,-71.77734375,-61.03515625,14.16015625,0.0
1676923575.0052865,0.0,-59.5703125,-73.73046875,-13.671875,0.0
1676923575.0092113,13.18359375,-32.2265625,-77.1484375,-25.87890625,0.0
1676923575.0131364,-28.3203125,-32.71484375,-51.7578125,2.44140625,0.0
1676923575.0170615,-45.8984375,-36.62109375,-46.38671875,7.32421875,0.0
1676923575.0209863,-9.27734375,-51.26953125,-67.3828125,-19.04296875,0.0
1676923575.0249114,19.53125,-58.10546875,-61.5234375,-33.69140625,0.0
1676923575.0284972,-15.625,-39.0625,-43.9453125,-23.4375,0.0
1676923575.0320828,-54.6875,-40.0390625,-48.828125,-8.30078125,0.0
1676923575.0356684,-29.296875,-60.546875,-53.7109375,-19.04296875,0.0
1676923575.0392542,9.765625,-43.45703125,-54.19921875,-43.45703125,0.0
1676923575.04284,-7.32421875,-20.5078125,-65.4296875,-39.55078125,0.0
1676923575.0464256,-57.6171875,-23.4375,-67.87109375,-13.18359375,0.0
1676923575.0500112,-57.6171875,-25.87890625,-54.6875,-7.8125,0.0
1676923575.053597,-1.46484375,-28.3203125,-53.22265625,-10.7421875,0.0
1676923575.0571828,9.27734375,-39.0625,-61.5234375,-20.99609375,0.0
1676923575.0607684,-43.9453125,-56.640625,-66.40625,-17.578125,0.0
1676923575.064354,-58.59375,-65.91796875,-57.12890625,-0.9765625,0.0
1676923575.0679398,-6.34765625,-62.98828125,-54.19921875,-14.16015625,0.0
1676923575.0717008,18.5546875,-62.01171875,-62.98828125,-29.296875,0.0
1676923575.0754619,-20.01953125,-66.40625,-52.734375,-8.30078125,0.0
1676923575.0792232,-46.875,-72.265625,-45.8984375,5.37109375,0.0
1676923575.0829842,-15.13671875,-71.2890625,-65.4296875,-31.25,0.0
1676923575.0867453,11.71875,-50.78125,-78.61328125,-50.78125,0.0
1676923575.0905063,-15.13671875,-42.96875,-78.61328125,-24.4140625,0.0
1676923575.0942674,-52.24609375,-27.34375,-61.03515625,-3.41796875,0.0
1676923575.0980284,-38.57421875,-22.94921875,-43.45703125,-22.4609375,0.0
1676923575.1017895,11.23046875,-31.73828125,-48.828125,-44.921875,0.0
1676923575.1055508,2.44140625,-32.2265625,-48.828125,-35.64453125,0.0
1676923575.1093118,-53.7109375,-33.69140625,-53.7109375,-17.08984375,0.0
1676923575.1130729,-53.22265625,-32.2265625,-73.2421875,-20.01953125,0.0
1676923575.1170044,2.9296875,-41.015625,-78.61328125,-37.59765625,0.0
1676923575.1209362,17.578125,-40.52734375,-67.87109375,-30.2734375,0.0
1676923575.1248677,-30.2734375,-48.828125,-57.12890625,-9.27734375,0.0
1676923575.1287992,-48.828125,-64.94140625,-51.26953125,-12.20703125,0.0
1676923575.132731,-2.9296875,-49.8046875,-56.640625,-29.78515625,0.0
1676923575.1366625,19.53125,-31.73828125,-64.453125,-29.78515625,0.0
1676923575.140594,-20.99609375,-38.57421875,-68.84765625,-8.30078125,0.0
1676923575.1445258,-46.875,-59.08203125,-67.87109375,-1.953125,0.0
1676923575.1484573,-4.8828125,-48.33984375,-60.05859375,-15.13671875,0.0
1676923575.1523888,34.66796875,-14.16015625,-49.8046875,-27.34375,0.0
1676923575.1563206,0.9765625,-26.85546875,-62.5,-22.94921875,0.0
1676923575.160252,-47.8515625,-47.36328125,-78.125,-6.8359375,0.0
1676923575.165069,-41.50390625,-38.0859375,-67.3828125,-14.16015625,0.0
1676923575.169886,5.859375,-29.296875,-51.7578125,-34.1796875,0.0
1676923575.1747031,3.90625,-43.45703125,-44.921875,-36.62109375,0.0
1676923575.1795201,-51.7578125,-44.921875,-48.33984375,-19.04296875,0.0
1676923575.1843371,-64.453125,-30.76171875,-62.01171875,-12.20703125,0.0
1676923575.1891541,-17.578125,-44.43359375,-68.359375,-27.83203125,0.0
1676923575.1939714,6.34765625,-49.8046875,-62.01171875,-37.59765625,0.0
1676923575.1987884,-42.96875,-50.29296875,-64.453125,-25.87890625,0.0
1676923575.2036054,-77.63671875,-46.38671875,-67.87109375,-18.5546875,0.0
1676923575.2084224,-33.203125,-27.34375,-76.66015625,-36.62109375,0.0
1676923575.2132394,11.71875,-41.50390625,-84.47265625,-43.9453125,0.0
1676923575.2180564,-24.90234375,-63.96484375,-75.1953125,-31.25,0.0
1676923575.2218366,-66.89453125,-39.0625,-68.359375,-26.3671875,0.0
1676923575.2256167,-33.69140625,-40.52734375,-66.40625,-33.203125,0.0
1676923575.2293968,6.34765625,-55.17578125,-60.05859375,-48.33984375,0.0
1676923575.2331767,-16.11328125,-34.66796875,-61.5234375,-44.921875,0.0
1676923575.2369568,-57.6171875,-34.1796875,-67.87109375,-23.92578125,0.0
1676923575.240737,-51.26953125,-39.55078125,-58.10546875,-28.3203125,0.0
1676923575.244517,-6.34765625,-24.90234375,-62.5,-53.7109375,0.0
1676923575.2482972,-5.37109375,-28.3203125,-74.21875,-53.7109375,0.0
1676923575.252077,-53.7109375,-49.8046875,-76.171875,-26.85546875,0.0
1676923575.2558572,-62.98828125,-49.31640625,-78.125,-19.53125,0.0
1676923575.2596374,-11.71875,-43.9453125,-69.82421875,-44.921875,0.0
1676923575.2634175,11.71875,-50.78125,-57.6171875,-57.6171875,0.0
1676923575.267143,-28.3203125,-81.54296875,-62.01171875,-31.25,0.0
1676923575.2708685,-59.5703125,-86.9140625,-70.3125,-17.08984375,0.0
1676923575.274594,-28.80859375,-40.52734375,-72.75390625,-39.0625,0.0
1676923575.2783196,6.8359375,-7.8125,-78.61328125,-54.6875,0.0
1676923575.2820451,-26.85546875,-12.6953125,-81.54296875,-40.0390625,0.0
1676923575.2857704,-67.87109375,-26.3671875,-69.3359375,-18.06640625,0.0
1676923575.289496,-38.0859375,-33.69140625,-57.6171875,-25.87890625,0.0
1676923575.2932215,9.27734375,-29.78515625,-65.4296875,-48.33984375,0.0
1676923575.296947,-3.41796875,-29.296875,-67.3828125,-30.2734375,0.0
1676923575.3006725,-54.6875,-35.15625,-62.5,-11.23046875,0.0
1676923575.304398,-57.12890625,-40.0390625,-63.4765625,-26.3671875,0.0
1676923575.3081236,-8.7890625,-41.50390625,-60.546875,-43.9453125,0.0
1676923575.3118682,3.41796875,-43.45703125,-64.94140625,-42.96875,0.0
1676923575.315613,-40.52734375,-51.7578125,-60.546875,-22.4609375,0.0
1676923575.3193576,-62.5,-61.03515625,-56.15234375,-15.625,0.0
1676923575.3231025,-14.16015625,-55.17578125,-65.91796875,-31.25,0.0
1676923575.326847,18.06640625,-28.3203125,-60.546875,-37.59765625,0.0
1676923575.3305917,-34.66796875,-10.25390625,-53.7109375,-22.4609375,0.0
1676923575.3343365,-69.3359375,-11.71875,-54.19921875,-17.578125,0.0
1676923575.3380811,-24.90234375,-30.2734375,-47.36328125,-31.73828125,0.0
1676923575.341826,17.08984375,-42.48046875,-47.36328125,-36.1328125,0.0
1676923575.3455706,-16.11328125,-48.33984375,-48.828125,-22.94921875,0.0
1676923575.3493154,-68.84765625,-33.69140625,-56.15234375,-22.94921875,0.0
1676923575.35306,-43.9453125,-20.99609375,-67.3828125,-24.4140625,0.0
1676923575.3567777,0.48828125,-22.94921875,-65.4296875,-27.34375,0.0
1676923575.3604953,-14.16015625,-13.671875,-70.80078125,-36.1328125,0.0
1676923575.364213,-66.89453125,-14.6484375,-82.51953125,-23.4375,0.0
1676923575.3679307,-67.3828125,-31.25,-82.51953125,-11.23046875,0.0
1676923575.3716483,-17.08984375,-40.52734375,-75.1953125,-31.25,0.0
1676923575.3753657,-9.27734375,-36.62109375,-76.66015625,-46.38671875,0.0
1676923575.3790834,-52.734375,-29.296875,-72.265625,-22.94921875,0.0
1676923575.382801,-71.77734375,-43.45703125,-62.5,-7.32421875,0.0
1676923575.3865187,-17.08984375,-57.6171875,-60.05859375,-19.04296875,0.0
1676923575.3902364,12.6953125,-36.62109375,-70.80078125,-40.0390625,0.0
1676923575.393954,-40.0390625,-21.484375,-72.265625,-30.76171875,0.0
1676923575.3976717,-71.77734375,-35.64453125,-62.98828125,-9.765625,0.0
1676923575.402669,-29.78515625,-57.6171875,-79.1015625,-21.484375,0.0
1676923575.407666,13.671875,-59.5703125,-79.58984375,-34.66796875,0.0
1676923575.4126632,-8.7890625,-46.875,-62.01171875,-8.30078125,0.0
1676923575.4176602,-67.87109375,-31.73828125,-65.4296875,1.46484375,0.0
1676923575.4226575,-62.01171875,-17.08984375,-73.2421875,-24.90234375,0.0
1676923575.4276547,-4.39453125,-18.5546875,-67.87109375,-35.15625,0.0
1676923575.4326518,-9.765625,-29.78515625,-63.4765625,-19.53125,0.0
1676923575.437649,-59.08203125,-44.921875,-66.89453125,-11.23046875,0.0
1676923575.442646,-51.26953125,-42.48046875,-72.265625,-16.11328125,0.0
1676923575.4476433,0.48828125,-39.55078125,-74.21875,-33.69140625,0.0
1676923575.4526403,9.765625,-62.98828125,-76.66015625,-42.96875,0.0
1676923575.4576375,-37.109375,-87.890625,-78.61328125,-19.53125,0.0
1676923575.460242,-67.87109375,-67.87109375,-69.82421875,-15.13671875,0.0
1676923575.4628463,-20.99609375,-28.80859375,-72.75390625,-28.3203125,0.0
1676923575.4654508,14.16015625,-18.5546875,-72.265625,-31.25,0.0
1676923575.4680552,-31.73828125,-20.99609375,-72.265625,-19.04296875,0.0
1676923575.4706595,-73.73046875,-21.484375,-75.1953125,-17.08984375,0.0
1676923575.473264,-37.109375,-31.25,-63.4765625,-23.4375,0.0
1676923575.4758685,9.765625,-32.71484375,-65.91796875,-28.3203125,0.0
1676923575.4784727,-13.671875,-35.15625,-73.2421875,-26.3671875,0.0
1676923575.4810772,-62.01171875,-45.8984375,-62.98828125,-18.5546875,0.0
1676923575.4836817,-51.7578125,-85.9375,-62.01171875,-17.08984375,0.0
1676923575.486286,0.0,-109.86328125,-70.80078125,-21.97265625,0.0
1676923575.4888904,5.859375,-57.6171875,-76.66015625,-31.73828125,0.0
1676923575.4925528,-47.8515625,-4.39453125,-75.68359375,-26.85546875,0.0
1676923575.496215,-63.4765625,6.34765625,-72.75390625,-31.25,0.0
1676923575.4998775,-12.20703125,-10.25390625,-71.77734375,-43.9453125,0.0
1676923575.5035398,9.27734375,-24.90234375,-65.4296875,-47.8515625,0.0
1676923575.5072021,-42.96875,-26.85546875,-66.89453125,-43.9453125,0.0
1676923575.5108643,-73.73046875,-35.15625,-70.80078125,-35.64453125,0.0
1676923575.5145266,-30.2734375,-46.38671875,-66.89453125,-32.71484375,0.0
1676923575.518189,8.30078125,-41.015625,-68.359375,-46.875,0.0
1676923575.5218513,-22.4609375,-52.734375,-78.61328125,-33.69140625,0.0
1676923575.5255136,-69.3359375,-71.77734375,-77.1484375,-13.18359375,0.0
1676923575.529176,-49.8046875,-52.24609375,-71.2890625,-21.97265625,0.0
1676923575.5328383,-1.953125,-19.53125,-66.40625,-35.15625,1.0
1676923575.5378425,-12.6953125,-28.80859375,-57.6171875,-30.2734375,0.0
1676923575.5428467,-64.94140625,-34.1796875,-63.96484375,-21.484375,0.0
1676923575.5478508,-52.734375,-23.4375,-67.3828125,-20.5078125,0.0
1676923575.552855,2.44140625,-34.1796875,-58.10546875,-29.78515625,0.0
1676923575.5578592,6.8359375,-28.3203125,-53.22265625,-32.71484375,0.0
1676923575.5628633,-46.38671875,-32.71484375,-63.4765625,-17.08984375,0.0
1676923575.5678678,-64.453125,-54.19921875,-79.1015625,-19.04296875,0.0
1676923575.572872,-7.8125,-69.3359375,-66.89453125,-29.78515625,0.0
1676923575.577876,14.16015625,-77.63671875,-58.59375,-26.3671875,0.0
1676923575.5828803,-43.45703125,-50.78125,-66.40625,-13.18359375,0.0
1676923575.5878844,-81.0546875,-17.578125,-58.59375,-21.484375,0.0
1676923575.5928886,-30.76171875,-10.25390625,-55.17578125,-26.3671875,0.0
1676923575.5966532,13.671875,-20.5078125,-60.05859375,-21.97265625,0.0
1676923575.6004176,-25.87890625,-39.55078125,-56.640625,-20.5078125,0.0
1676923575.6041822,-72.265625,-41.50390625,-64.453125,-18.06640625,0.0
1676923575.6079466,-40.52734375,-41.015625,-77.1484375,-27.34375,0.0
1676923575.6117113,-3.90625,-59.08203125,-71.2890625,-38.57421875,0.0
1676923575.6154757,-22.4609375,-58.10546875,-69.3359375,-39.55078125,0.0
1676923575.6192403,-64.94140625,-57.6171875,-52.734375,-31.73828125,0.0
1676923575.623005,-55.6640625,-52.24609375,-41.9921875,-29.296875,0.0
1676923575.6267693,-3.90625,-26.3671875,-62.98828125,-36.62109375,0.0
1676923575.630534,4.8828125,-25.87890625,-60.05859375,-35.15625,0.0
1676923575.6342983,-45.41015625,-31.73828125,-36.62109375,-25.390625,0.0
1676923575.638063,-71.2890625,-28.3203125,-35.64453125,-21.484375,0.0
1676923575.6418269,-23.4375,-37.109375,-47.8515625,-26.85546875,0.0
1676923575.6455908,10.25390625,-36.1328125,-50.78125,-36.62109375,0.0
1676923575.6493545,-33.203125,-42.48046875,-56.15234375,-30.76171875,0.0
1676923575.6531184,-68.359375,-41.015625,-64.453125,-20.5078125,0.0
1676923575.6568823,-23.92578125,-46.38671875,-70.80078125,-27.83203125,0.0
1676923575.660646,18.5546875,-61.03515625,-64.94140625,-34.66796875,0.0
1676923575.6644099,-14.16015625,-46.875,-50.78125,-29.296875,0.0
1676923575.6681738,-56.15234375,-19.53125,-55.17578125,-13.18359375,0.0
1676923575.6719377,-41.50390625,-11.71875,-51.7578125,-11.23046875,0.0
1676923575.6757016,9.27734375,-34.66796875,-40.52734375,-32.2265625,0.0
1676923575.6794653,13.18359375,-42.48046875,-40.52734375,-36.62109375,0.0
1676923575.6832292,-47.36328125,-43.9453125,-52.734375,-25.390625,0.0
1676923575.6870341,-51.7578125,-62.5,-63.4765625,-21.484375,0.0
1676923575.6908393,5.859375,-57.12890625,-71.77734375,-26.3671875,0.0
1676923575.6946445,8.7890625,-27.83203125,-62.5,-40.0390625,0.0
1676923575.6984494,-41.015625,-14.6484375,-44.43359375,-25.87890625,0.0
1676923575.7022543,-71.2890625,-22.94921875,-46.875,-16.6015625,0.0
1676923575.7060595,-17.08984375,-26.3671875,-59.5703125,-24.90234375,0.0
1676923575.7098646,26.3671875,-24.90234375,-50.29296875,-27.83203125,0.0
1676923575.7136695,-19.53125,-23.92578125,-37.59765625,-13.18359375,0.0
1676923575.7174745,-55.6640625,-27.83203125,-43.45703125,-1.46484375,0.0
1676923575.7212796,-16.6015625,-44.43359375,-51.26953125,-11.23046875,0.0
1676923575.7250848,18.06640625,-57.6171875,-73.2421875,-21.484375,0.0
1676923575.7288897,-8.7890625,-46.38671875,-95.21484375,-28.3203125,0.0
1676923575.732536,-49.31640625,-40.0390625,-71.2890625,-13.18359375,0.0
1676923575.7361827,-35.64453125,-42.96875,-46.38671875,-9.765625,0.0
1676923575.739829,16.11328125,-24.90234375,-51.7578125,-13.671875,0.0
1676923575.7434754,7.32421875,-19.53125,-70.3125,-15.13671875,0.0
1676923575.7471218,-50.78125,-35.15625,-71.2890625,-10.25390625,0.0
1676923575.7507682,-53.22265625,-29.78515625,-54.6875,-0.48828125,0.0
1676923575.7544148,-6.8359375,-24.4140625,-53.7109375,-11.23046875,0.0
1676923575.7580612,11.23046875,-47.8515625,-58.59375,-20.01953125,0.0
1676923575.7617075,-34.1796875,-56.640625,-65.91796875,-14.16015625,0.0
1676923575.7653542,-64.453125,-48.828125,-66.89453125,-14.16015625,0.0
1676923575.7690005,-9.765625,-53.22265625,-65.4296875,-19.04296875,0.0
1676923575.772647,29.78515625,-31.73828125,-70.3125,-24.90234375,0.0
1676923575.7763963,-11.71875,-13.671875,-68.359375,-24.4140625,0.0
1676923575.7801454,-58.10546875,-40.52734375,-74.70703125,-15.13671875,0.0
1676923575.7838948,-25.87890625,-52.24609375,-73.2421875,-16.6015625,0.0
1676923575.7876441,16.11328125,-38.57421875,-62.98828125,-32.71484375,0.0
1676923575.7913933,-12.20703125,-33.203125,-53.7109375,-39.55078125,0.0
1676923575.7951427,-69.3359375,-31.73828125,-62.01171875,-31.73828125,0.0
1676923575.798892,-65.91796875,-25.87890625,-82.51953125,-34.1796875,0.0
1676923575.8026412,-12.6953125,-29.296875,-81.54296875,-50.78125,0.0
1676923575.8063905,-0.48828125,-50.29296875,-67.87109375,-50.78125,0.0
1676923575.81014,-42.48046875,-65.4296875,-62.5,-38.0859375,0.0
1676923575.813889,-62.01171875,-59.08203125,-74.70703125,-32.2265625,0.0
1676923575.8176384,-8.30078125,-48.33984375,-74.70703125,-38.0859375,0.0
1676923575.8213878,20.01953125,-49.8046875,-76.66015625,-42.48046875,0.0
1676923575.8251371,-29.78515625,-44.921875,-65.4296875,-23.92578125,0.0
1676923575.8288867,-66.40625,-21.484375,-54.19921875,-21.484375,0.0
1676923575.832636,-31.73828125,-28.3203125,-57.12890625,-31.25,0.0
1676923575.8363855,9.27734375,-41.015625,-45.41015625,-38.0859375,0.0
1676923575.840135,-15.13671875,-30.2734375,-46.38671875,-26.3671875,0.0
1676923575.8438845,-56.15234375,-31.73828125,-55.17578125,-9.765625,0.0
1676923575.8476338,-33.203125,-44.921875,-64.94140625,-22.4609375,0.0
1676923575.8513832,11.23046875,-48.33984375,-70.80078125,-34.1796875,0.0
1676923575.8551326,-1.46484375,-41.015625,-69.82421875,-25.87890625,0.0
1676923575.8588822,-50.78125,-41.9921875,-61.5234375,-12.6953125,0.0
1676923575.8626316,-45.41015625,-49.8046875,-73.73046875,-7.8125,0.0
1676923575.8665085,11.71875,-50.78125,-104.4921875,-14.16015625,0.0
1676923575.8703856,19.53125,-70.3125,-93.75,-23.92578125,0.0
1676923575.8742626,-36.62109375,-58.10546875,-71.77734375,-22.94921875,0.0
1676923575.8781395,-58.10546875,-17.578125,-62.5,-21.97265625,0.0
1676923575.8820167,-9.765625,-3.41796875,-62.98828125,-39.0625,0.0
1676923575.8858936,16.6015625,-33.203125,-61.5234375,-33.203125,0.0
1676923575.8897705,-29.78515625,-52.24609375,-60.546875,-21.484375,0.0
1676923575.8936477,-69.82421875,-24.90234375,-70.80078125,-28.80859375,0.0
1676923575.8975246,-26.85546875,-29.296875,-72.75390625,-29.296875,0.0
1676923575.9014015,21.484375,-34.1796875,-75.1953125,-33.203125,0.0
1676923575.9052787,-9.27734375,-36.1328125,-70.80078125,-22.94921875,0.0
1676923575.9091556,-56.640625,-59.08203125,-49.8046875,-18.06640625,0.0
1676923575.914064,-25.390625,-37.109375,-31.73828125,-16.6015625,0.0
1676923575.918972,21.97265625,-17.578125,-35.15625,-23.4375,0.0
1676923575.9238803,7.8125,-27.83203125,-44.43359375,-33.203125,0.0
1676923575.9287884,-42.96875,-27.34375,-43.45703125,-19.04296875,0.0
1676923575.9336967,-45.41015625,-31.25,-43.45703125,-13.18359375,0.0
1676923575.9386048,3.90625,-45.8984375,-45.8984375,-17.578125,0.0
1676923575.9435132,15.625,-59.08203125,-56.640625,-25.87890625,0.0
1676923575.9484215,-25.87890625,-44.921875,-63.96484375,-26.3671875,0.0
1676923575.9533296,-42.96875,-15.13671875,-50.78125,-16.11328125,0.0
1676923575.958238,-6.8359375,-18.06640625,-56.15234375,-36.1328125,0.0
1676923575.963146,17.08984375,-35.64453125,-60.05859375,-50.29296875,0.0
1676923575.9680543,-22.94921875,-33.203125,-47.8515625,-31.73828125,0.0
1676923575.9718022,-65.91796875,-30.76171875,-46.38671875,-28.80859375,0.0
1676923575.9755502,-30.2734375,-36.62109375,-51.26953125,-35.15625,0.0
1676923575.979298,28.80859375,-39.0625,-50.78125,-29.296875,0.0
1676923575.983046,0.9765625,-41.50390625,-43.9453125,-31.25,0.0
1676923575.986794,-56.640625,-36.1328125,-45.41015625,-25.390625,0.0
1676923575.990542,-41.015625,-41.9921875,-65.4296875,-21.97265625,0.0
1676923575.9942899,13.671875,-40.0390625,-66.89453125,-32.2265625,0.0
1676923575.9980378,15.625,-48.828125,-60.05859375,-32.2265625,0.0
1676923576.0017858,-42.48046875,-63.4765625,-71.2890625,-21.97265625,0.0
1676923576.0055337,-60.546875,-45.41015625,-71.2890625,-17.578125,0.0
1676923576.0092816,-6.8359375,-49.31640625,-55.17578125,-32.2265625,0.0
1676923576.0130296,15.625,-39.55078125,-58.59375,-33.69140625,0.0
1676923576.0167735,-35.64453125,-9.765625,-64.453125,-22.94921875,0.0
1676923576.0205173,-59.5703125,-19.53125,-59.5703125,-14.16015625,0.0
1676923576.0242612,-15.625,-29.78515625,-75.68359375,-19.53125,0.0
1676923576.0280051,17.08984375,-32.2265625,-78.61328125,-28.80859375,0.0
1676923576.031749,-18.5546875,-48.828125,-62.98828125,-18.5546875,0.0
1676923576.035493,-59.08203125,-51.26953125,-68.359375,-12.20703125,0.0
1676923576.0392365,-34.1796875,-43.45703125,-62.5,-20.99609375,0.0
1676923576.0429804,7.8125,-30.76171875,-42.48046875,-30.76171875,0.0
1676923576.0467243,-0.48828125,-36.1328125,-37.59765625,-16.6015625,0.0
1676923576.0504682,-49.31640625,-51.26953125,-37.109375,1.46484375,0.0
1676923576.054212,-52.734375,-33.69140625,-34.1796875,-5.37109375,0.0
1676923576.057956,2.44140625,-15.13671875,-41.50390625,-18.5546875,0.0
1676923576.0617013,9.765625,-15.13671875,-52.24609375,-19.53125,0.0
1676923576.0654464,-44.921875,-22.4609375,-51.26953125,-14.6484375,0.0
1676923576.0691915,-56.15234375,-43.9453125,-52.24609375,-14.6484375,0.0
1676923576.0729368,-1.953125,-64.94140625,-62.01171875,-19.53125,0.0
1676923576.076682,17.578125,-67.87109375,-53.22265625,-23.92578125,0.0
1676923576.0804272,-40.0390625,-56.640625,-43.9453125,-25.87890625,0.0
1676923576.0841722,-72.265625,-31.73828125,-54.19921875,-23.92578125,0.0
1676923576.0879176,-27.83203125,-33.203125,-57.6171875,-27.83203125,0.0
1676923576.091663,15.625,-52.24609375,-60.05859375,-27.34375,0.0
1676923576.095408,-12.20703125,-49.8046875,-72.265625,-21.97265625,0.0
1676923576.099153,-60.546875,-48.828125,-61.5234375,-16.11328125,0.0
1676923576.1028984,-43.45703125,-63.96484375,-52.24609375,-28.80859375,0.0
1676923576.1067553,6.34765625,-55.6640625,-64.94140625,-46.38671875,0.0
1676923576.1106124,2.9296875,-27.34375,-57.6171875,-36.62109375,0.0
1676923576.1144693,-52.24609375,-26.85546875,-57.12890625,-27.34375,0.0
1676923576.1183264,-53.22265625,-33.203125,-67.3828125,-30.2734375,0.0
1676923576.1221833,5.859375,-43.45703125,-62.5,-30.2734375,0.0
1676923576.1260405,16.6015625,-52.734375,-62.5,-33.69140625,0.0
1676923576.1298974,-41.015625,-42.96875,-59.08203125,-20.5078125,0.0
1676923576.1337543,-68.84765625,-44.921875,-50.29296875,-15.13671875,0.0
1676923576.1376114,-23.4375,-49.31640625,-50.78125,-36.1328125,0.0
1676923576.1414683,8.30078125,-62.98828125,-56.640625,-40.52734375,0.0
1676923576.1453254,-41.9921875,-67.87109375,-60.05859375,-34.1796875,0.0
1676923576.1491823,-83.984375,-45.8984375,-71.77734375,-34.1796875,0.0
1676923576.1528137,-42.48046875,-32.2265625,-73.2421875,-35.15625,0.0
1676923576.1564453,0.0,-24.90234375,-80.56640625,-44.921875,0.0
1676923576.1600766,-33.69140625,-32.2265625,-84.47265625,-45.41015625,0.0
1676923576.163708,-81.0546875,-45.41015625,-64.453125,-35.64453125,0.0
1676923576.1673396,-61.5234375,-50.78125,-56.15234375,-41.50390625,0.0
1676923576.170971,-13.18359375,-41.9921875,-60.546875,-57.6171875,0.0
1676923576.1746023,-13.18359375,-42.48046875,-67.87109375,-49.8046875,0.0
1676923576.1782339,-61.03515625,-53.7109375,-59.5703125,-22.94921875,0.0
1676923576.1818652,-65.91796875,-62.5,-64.94140625,-28.3203125,0.0
1676923576.1854966,-1.46484375,-68.359375,-81.54296875,-35.15625,0.0
1676923576.1891282,20.5078125,-48.828125,-75.1953125,-34.1796875,0.0
1676923576.1927595,-41.015625,-30.2734375,-56.15234375,-27.34375,0.0
1676923576.1965048,-67.87109375,-36.1328125,-49.31640625,-17.578125,0.0
1676923576.2002501,-15.625,-32.2265625,-58.10546875,-25.87890625,0.0
1676923576.2039955,14.6484375,-27.34375,-54.19921875,-31.73828125,0.0
1676923576.2077408,-27.83203125,-39.55078125,-45.8984375,-27.34375,0.0
1676923576.211486,-73.2421875,-47.8515625,-52.24609375,-29.296875,0.0
1676923576.2152314,-42.48046875,-65.91796875,-66.40625,-27.83203125,0.0
1676923576.218977,6.34765625,-64.94140625,-80.078125,-20.99609375,0.0
1676923576.2227223,-19.04296875,-50.78125,-80.56640625,-21.97265625,0.0
1676923576.2264676,-65.4296875,-33.203125,-85.9375,-24.4140625,0.0
1676923576.230213,-44.43359375,-20.5078125,-77.1484375,-17.578125,0.0
1676923576.2339582,6.34765625,-32.2265625,-47.36328125,-14.16015625,0.0
1676923576.2377036,0.48828125,-32.71484375,-54.19921875,-23.92578125,0.0
1676923576.2414584,-51.26953125,-34.66796875,-70.80078125,-27.34375,0.0
1676923576.2452133,-61.5234375,-52.24609375,-60.546875,-30.2734375,0.0
1676923576.2489681,-8.30078125,-50.78125,-49.31640625,-40.0390625,0.0
1676923576.252723,13.18359375,-38.0859375,-50.29296875,-40.52734375,0.0
1676923576.2564778,-34.1796875,-61.5234375,-66.40625,-31.25,0.0
1676923576.2602324,-67.87109375,-62.98828125,-74.21875,-27.34375,0.0
1676923576.2639873,-31.25,-28.3203125,-61.5234375,-37.109375,0.0
1676923576.2677422,9.27734375,-16.6015625,-57.6171875,-49.31640625,0.0
1676923576.271497,-35.64453125,-29.296875,-64.453125,-48.33984375,0.0
1676923576.2752519,-72.75390625,-48.828125,-61.5234375,-32.2265625,0.0
1676923576.2790067,-28.3203125,-46.875,-63.96484375,-31.25,0.0
1676923576.2827616,3.90625,-30.2734375,-67.87109375,-51.7578125,0.0
1676923576.2877498,-14.6484375,-30.2734375,-61.5234375,-36.62109375,0.0
1676923576.292738,-52.24609375,-40.52734375,-71.2890625,-13.671875,0.0
1676923576.297726,-56.15234375,-39.0625,-81.0546875,-25.390625,0.0
1676923576.302714,-9.765625,-42.96875,-78.125,-41.50390625,0.0
1676923576.3077023,7.8125,-46.875,-67.3828125,-32.2265625,0.0
1676923576.3126903,-54.19921875,-37.59765625,-55.6640625,-17.08984375,0.0
1676923576.3176785,-70.80078125,-23.4375,-52.24609375,-15.625,0.0
1676923576.3226666,-10.25390625,-34.1796875,-53.22265625,-28.3203125,0.0
1676923576.3276548,11.71875,-58.10546875,-56.15234375,-30.76171875,0.0
1676923576.332643,-30.76171875,-53.22265625,-59.08203125,-16.6015625,0.0
1676923576.337631,-63.96484375,-35.64453125,-63.4765625,-18.5546875,0.0
1676923576.3426192,-20.01953125,-30.76171875,-69.82421875,-24.90234375,2.0
1676923576.346422,17.08984375,-25.87890625,-71.2890625,-31.25,0.0
1676923576.3502247,-20.99609375,-33.69140625,-71.2890625,-28.3203125,0.0
1676923576.3540275,-60.546875,-71.2890625,-73.2421875,-12.6953125,0.0
1676923576.3578303,-33.203125,-54.19921875,-62.01171875,-20.01953125,0.0
1676923576.361633,14.6484375,-10.7421875,-50.78125,-22.4609375,0.0
1676923576.3654356,6.34765625,-22.4609375,-49.8046875,-15.625,0.0
1676923576.3692384,-45.8984375,-35.64453125,-50.78125,-16.11328125,0.0
1676923576.3730412,-52.734375,-29.78515625,-53.22265625,-10.25390625,0.0
1676923576.376844,-1.46484375,-34.1796875,-59.5703125,-1.46484375,0.0
1676923576.3806467,17.578125,-28.80859375,-76.171875,-10.25390625,0.0
1676923576.3844495,-36.1328125,-24.90234375,-73.2421875,-17.578125,0.0
1676923576.3882523,-59.08203125,-35.64453125,-62.98828125,-14.16015625,0.0
1676923576.391996,-3.90625,-42.48046875,-56.15234375,-14.6484375,0.0
1676923576.3957396,14.6484375,-39.55078125,-41.9921875,-23.92578125,0.0
1676923576.3994832,-29.78515625,-32.2265625,-55.17578125,-24.90234375,0.0
1676923576.4032269,-60.546875,-30.76171875,-77.1484375,-18.06640625,0.0
1676923576.4069705,-24.4140625,-37.109375,-64.94140625,-21.97265625,0.0
1676923576.4107141,18.5546875,-41.9921875,-54.6875,-31.25,0.0
1676923576.414458,-14.6484375,-38.0859375,-67.3828125,-27.83203125,0.0
1676923576.4182017,-62.5,-32.2265625,-61.5234375,-24.90234375,0.0
1676923576.4219453,-28.3203125,-51.26953125,-61.5234375,-17.08984375,0.0
1676923576.425689,28.80859375,-57.6171875,-74.21875,-15.625,0.0
1676923576.4294326,12.20703125,-34.1796875,-67.87109375,-27.34375,0.0
1676923576.4331763,-48.828125,-26.85546875,-53.22265625,-25.87890625,0.0
1676923576.4369278,-53.7109375,-37.59765625,-38.57421875,-26.3671875,0.0
1676923576.4406796,4.39453125,-35.64453125,-45.8984375,-28.3203125,0.0
1676923576.4444313,18.5546875,-38.0859375,-58.59375,-27.34375,0.0
1676923576.4481828,-36.62109375,-48.33984375,-50.29296875,-22.4609375,0.0
1676923576.4519343,-68.359375,-61.5234375,-51.26953125,-21.97265625,0.0
1676923576.455686,-17.08984375,-59.08203125,-79.1015625,-28.3203125,0.0
1676923576.4594378,23.4375,-37.109375,-87.40234375,-33.69140625,0.0
1676923576.4631894,-34.1796875,-27.83203125,-61.5234375,-29.78515625,0.0
1676923576.4669409,-75.68359375,-37.59765625,-35.15625,-24.4140625,0.0
1676923576.4706926,-31.73828125,-30.76171875,-29.78515625,-38.57421875,0.0
1676923576.4744444,12.6953125,-24.4140625,-38.0859375,-32.2265625,0.0
1676923576.478196,-13.18359375,-31.73828125,-47.36328125,-19.53125,0.0
1676923576.4819026,-64.453125,-32.71484375,-61.5234375,-15.625,0.0
1676923576.4856093,-53.7109375,-46.875,-63.4765625,-14.16015625,0.0
1676923576.489316,-3.41796875,-48.828125,-53.7109375,-13.18359375,0.0
1676923576.4930224,-4.8828125,-29.296875,-61.5234375,-16.11328125,0.0
1676923576.4967291,-57.12890625,-24.90234375,-76.171875,-19.04296875,0.0
1676923576.5004358,-66.40625,-20.99609375,-62.01171875,-15.13671875,0.0
1676923576.5041425,-9.765625,-24.90234375,-57.6171875,-25.87890625,0.0
1676923576.5078492,5.37109375,-51.26953125,-63.96484375,-32.71484375,0.0
1676923576.5115557,-39.55078125,-76.171875,-52.734375,-22.4609375,0.0
1676923576.5152624,-71.2890625,-57.12890625,-50.78125,-20.5078125,0.0
1676923576.518969,-32.71484375,-9.27734375,-48.33984375,-24.90234375,0.0
1676923576.5226758,10.7421875,6.34765625,-48.828125,-26.85546875,0.0
1676923576.526473,-24.90234375,-22.94921875,-49.8046875,-27.83203125,0.0
1676923576.5302706,-64.94140625,-49.31640625,-53.22265625,-21.484375,0.0
1676923576.534068,-35.15625,-35.64453125,-64.453125,-14.6484375,0.0
1676923576.5378654,8.7890625,-35.64453125,-79.1015625,-21.97265625,0.0
1676923576.5416627,-6.34765625,-42.96875,-78.61328125,-27.83203125,0.0
1676923576.5454602,-51.26953125,-35.64453125,-68.84765625,-29.296875,0.0
1676923576.5492578,-44.43359375,-50.29296875,-63.4765625,-19.53125,0.0
1676923576.553055,0.9765625,-72.265625,-62.01171875,-19.53125,0.0
1676923576.5568523,-0.48828125,-52.734375,-65.91796875,-34.1796875,0.0
1676923576.5606499,-56.15234375,-14.6484375,-65.91796875,-28.80859375,0.0
1676923576.5644474,-75.68359375,-4.39453125,-62.01171875,-30.2734375,0.0
1676923576.5682447,-18.5546875,-29.296875,-55.17578125,-38.0859375,0.0
1676923576.5719495,13.18359375,-39.55078125,-67.87109375,-36.1328125,0.0
1676923576.5756545,-38.57421875,-26.85546875,-78.125,-29.78515625,0.0
1676923576.5793593,-84.47265625,-32.2265625,-60.05859375,-28.80859375,0.0
1676923576.5830643,-41.015625,-40.52734375,-53.7109375,-38.0859375,0.0
1676923576.586769,9.765625,-53.7109375,-78.61328125,-41.50390625,0.0
1676923576.5904741,-28.3203125,-56.15234375,-70.3125,-29.296875,0.0
1676923576.594179,-78.61328125,-24.90234375,-53.22265625,-21.484375,0.0
1676923576.5978837,-48.33984375,-14.6484375,-63.96484375,-31.73828125,0.0
1676923576.6015887,4.8828125,-40.0390625,-71.2890625,-40.0390625,0.0
1676923576.6052935,-1.46484375,-38.57421875,-57.12890625,-33.69140625,0.0
1676923576.6089985,-55.6640625,-31.73828125,-30.76171875,-27.83203125,0.0
1676923576.6127033,-62.98828125,-25.390625,-30.76171875,-29.78515625,0.0
1676923576.616467,-10.25390625,-21.484375,-51.7578125,-39.55078125,0.0
1676923576.6202307,-0.48828125,-26.3671875,-39.0625,-41.50390625,0.0
1676923576.6239944,-51.7578125,-50.78125,-37.59765625,-26.85546875,0.0
1676923576.627758,-71.77734375,-56.640625,-64.453125,-28.3203125,0.0
1676923576.6315217,-18.06640625,-38.57421875,-72.265625,-36.1328125,0.0
1676923576.6352854,6.8359375,-41.015625,-58.59375,-33.203125,0.0
1676923576.6390488,-46.38671875,-36.1328125,-46.875,-35.15625,0.0
1676923576.6428125,-79.58984375,-24.4140625,-50.29296875,-38.57421875,0.0
1676923576.6465762,-32.71484375,-38.57421875,-52.734375,-34.1796875,0.0
1676923576.6503398,7.8125,-58.10546875,-62.5,-34.66796875,0.0
1676923576.6541035,-27.83203125,-56.640625,-61.03515625,-34.1796875,0.0
1676923576.6578672,-77.1484375,-56.15234375,-50.29296875,-29.296875,0.0
1676923576.6628873,-57.6171875,-56.640625,-46.875,-31.25,0.0
1676923576.6679075,-7.8125,-56.640625,-55.17578125,-32.71484375,0.0
1676923576.6729276,-8.7890625,-51.7578125,-75.1953125,-28.3203125,0.0
1676923576.6779478,-49.31640625,-23.4375,-75.68359375,-20.01953125,0.0
1676923576.682968,-55.6640625,-15.625,-62.01171875,-17.578125,0.0
1676923576.687988,-14.16015625,-30.2734375,-62.98828125,-26.85546875,0.0
1676923576.6930082,-4.8828125,-36.62109375,-60.05859375,-30.76171875,0.0
1676923576.6980283,-51.7578125,-38.57421875,-69.82421875,-26.85546875,0.0
1676923576.7030485,-78.125,-40.0390625,-75.1953125,-25.87890625,0.0
1676923576.7080686,-34.66796875,-40.52734375,-56.640625,-20.99609375,0.0
1676923576.7130888,12.6953125,-52.24609375,-52.734375,-20.99609375,0.0
1676923576.718109,-27.83203125,-65.91796875,-60.546875,-33.203125,0.0
1676923576.7218826,-65.4296875,-72.265625,-65.91796875,-25.87890625,0.0
1676923576.7256565,-22.94921875,-67.3828125,-61.03515625,-26.3671875,0.0
1676923576.7294302,10.25390625,-45.8984375,-63.96484375,-47.8515625,0.0
1676923576.733204,-20.5078125,-31.25,-76.66015625,-38.57421875,0.0
1676923576.7369778,-64.453125,-41.50390625,-75.68359375,-25.87890625,0.0
1676923576.7407515,-44.921875,-41.50390625,-61.03515625,-35.64453125,0.0
1676923576.7445252,7.32421875,-41.50390625,-42.96875,-45.8984375,0.0
1676923576.7482991,0.48828125,-49.31640625,-47.36328125,-50.78125,0.0
1676923576.7520728,-54.19921875,-38.0859375,-46.875,-44.43359375,0.0
1676923576.7558465,-58.10546875,-33.69140625,-40.0390625,-36.1328125,0.0
1676923576.7596204,-5.859375,-38.0859375,-49.31640625,-44.921875,0.0
1676923576.763394,5.859375,-26.3671875,-64.453125,-57.6171875,0.0
1676923576.7671163,-45.41015625,-17.578125,-83.49609375,-33.203125,0.0
1676923576.7708385,-76.171875,-30.76171875,-76.66015625,-21.484375,0.0
1676923576.7745607,-19.04296875,-48.828125,-62.01171875,-40.52734375,0.0
1676923576.7782829,15.625,-58.10546875,-53.22265625,-47.8515625,0.0
1676923576.782005,-28.80859375,-44.921875,-51.26953125,-39.55078125,0.0
1676923576.7857273,-65.4296875,-22.94921875,-47.8515625,-37.109375,0.0
1676923576.7894495,-33.203125,-21.97265625,-51.26953125,-50.29296875,0.0
1676923576.7931716,16.6015625,-37.109375,-55.17578125,-49.31640625,0.0
1676923576.7968938,-7.32421875,-45.8984375,-54.6875,-38.0859375,0.0
1676923576.800616,-53.22265625,-31.25,-64.94140625,-28.80859375,0.0
1676923576.8043382,-38.57421875,-24.4140625,-75.68359375,-35.64453125,0.0
1676923576.8080604,8.7890625,-40.52734375,-83.984375,-41.015625,0.0
1676923576.81181,17.08984375,-55.6640625,-91.796875,-30.76171875,0.0
1676923576.8155599,-35.64453125,-54.19921875,-79.58984375,-18.5546875,0.0
1676923576.8193095,-62.5,-45.8984375,-61.03515625,-25.87890625,0.0
1676923576.823059,-14.16015625,-28.3203125,-65.4296875,-32.71484375,0.0
1676923576.8268087,15.625,-9.765625,-67.87109375,-30.2734375,0.0
1676923576.8305583,-35.15625,-11.71875,-61.03515625,-24.4140625,0.0
1676923576.8343081,-67.87109375,-31.73828125,-61.5234375,-24.4140625,0.0
1676923576.8380578,-23.92578125,-44.43359375,-67.87109375,-23.92578125,0.0
1676923576.8418074,9.27734375,-32.71484375,-65.91796875,-26.85546875,0.0
1676923576.8455572,-23.4375,-41.015625,-54.19921875,-31.25,0.0
1676923576.8493068,-67.3828125,-58.10546875,-64.94140625,-21.484375,0.0
1676923576.8530564,-40.52734375,-54.19921875,-76.66015625,-22.4609375,0.0
1676923576.8567955,11.71875,-45.8984375,-66.89453125,-29.296875,0.0
1676923576.8605347,-0.9765625,-31.25,-60.05859375,-31.25,0.0
1676923576.8642738,-57.12890625,-19.04296875,-48.828125,-24.90234375,0.0
1676923576.868013,-66.40625,-28.80859375,-47.8515625,-24.4140625,0.0
1676923576.871752,-17.08984375,-41.9921875,-62.01171875,-36.1328125,0.0
1676923576.8754911,-12.20703125,-55.17578125,-76.171875,-39.0625,0.0
1676923576.87923,-59.08203125,-64.94140625,-66.89453125,-30.76171875,0.0
1676923576.8829691,-72.265625,-64.453125,-52.734375,-19.53125,0.0
1676923576.8867083,-21.484375,-70.80078125,-56.15234375,-16.6015625,0.0
1676923576.8904474,10.25390625,-66.89453125,-65.4296875,-30.2734375,0.0
1676923576.8941865,-35.64453125,-42.48046875,-71.2890625,-25.390625,0.0
1676923576.8979256,-70.80078125,-36.62109375,-62.98828125,-17.08984375,0.0
1676923576.9016867,-26.85546875,-33.69140625,-51.7578125,-26.85546875,0.0
1676923576.9054477,13.671875,-17.578125,-61.03515625,-38.0859375,0.0
1676923576.9092088,-20.5078125,-29.78515625,-68.84765625,-33.69140625,0.0
1676923576.9129698,-73.2421875,-37.59765625,-68.84765625,-30.2734375,0.0
1676923576.9167309,-47.36328125,-26.85546875,-66.40625,-30.2734375,0.0
1676923576.920492,14.16015625,-37.109375,-67.3828125,-31.25,0.0
1676923576.924253,7.8125,-34.66796875,-85.9375,-28.80859375,0.0
1676923576.928014,-40.52734375,-26.85546875,-81.54296875,-18.06640625,0.0
1676923576.931775,-46.38671875,-40.52734375,-58.10546875,-24.4140625,0.0
1676923576.9355361,-3.90625,-31.73828125,-53.22265625,-34.1796875,0.0
1676923576.9392972,13.671875,-38.57421875,-58.10546875,-32.2265625,0.0
1676923576.9430583,-35.64453125,-58.59375,-59.5703125,-26.3671875,0.0
1676923576.9468052,-60.546875,-28.80859375,-64.94140625,-25.87890625,0.0
1676923576.9505522,-13.18359375,-16.11328125,-73.2421875,-36.1328125,0.0
1676923576.9542992,14.6484375,-23.92578125,-71.77734375,-39.55078125,0.0
1676923576.9580462,-28.80859375,-30.2734375,-63.96484375,-27.34375,0.0
1676923576.9617932,-66.89453125,-43.9453125,-55.6640625,-18.5546875,0.0
1676923576.96554,-33.69140625,-32.2265625,-69.3359375,-20.5078125,0.0
1676923576.969287,12.6953125,-27.34375,-86.42578125,-13.671875,0.0
1676923576.973034,0.9765625,-52.734375,-70.3125,-5.859375,0.0
1676923576.976781,-60.546875,-56.640625,-61.5234375,-19.53125,0.0
1676923576.9805279,-59.5703125,-30.2734375,-68.84765625,-33.69140625,0.0
1676923576.9842749,1.46484375,-22.4609375,-70.80078125,-36.1328125,0.0
1676923576.9880219,4.8828125,-28.80859375,-71.77734375,-35.15625,0.0
1676923576.9918523,-52.734375,-43.9453125,-72.75390625,-39.0625,0.0
1676923576.9956827,-69.3359375,-74.21875,-72.75390625,-36.1328125,0.0
1676923576.9995131,-12.20703125,-51.7578125,-73.73046875,-35.15625,0.0
1676923577.0033438,7.32421875,-15.625,-72.75390625,-45.41015625,0.0
1676923577.0071743,-46.875,-21.484375,-73.2421875,-43.9453125,0.0
1676923577.0110047,-74.70703125,-33.203125,-69.82421875,-34.1796875,0.0
1676923577.0148351,-20.5078125,-34.1796875,-68.84765625,-36.1328125,0.0
1676923577.0186656,20.99609375,-43.9453125,-74.70703125,-41.9921875,0.0
1676923577.0224962,-17.08984375,-47.8515625,-70.80078125,-27.34375,0.0
1676923577.0263267,-62.01171875,-37.59765625,-52.24609375,-13.18359375,0.0
1676923577.030157,-29.296875,-35.15625,-53.7109375,-16.6015625,0.0
1676923577.0339875,23.4375,-33.69140625,-77.1484375,-29.78515625,0.0
1676923577.0388818,7.32421875,-21.484375,-69.3359375,-32.71484375,0.0
1676923577.0437763,-41.015625,-31.25,-57.6171875,-19.04296875,0.0
1676923577.0486708,-35.64453125,-40.0390625,-68.359375,-22.94921875,0.0
1676923577.053565,16.11328125,-30.2734375,-63.4765625,-23.4375,0.0
1676923577.0584593,16.6015625,-20.5078125,-63.96484375,-21.97265625,0.0
1676923577.0633538,-41.015625,-22.4609375,-71.77734375,-19.04296875,0.0
1676923577.0682483,-61.03515625,-48.33984375,-73.2421875,-12.20703125,0.0
1676923577.0731425,-2.44140625,-65.91796875,-81.0546875,-17.08984375,0.0
1676923577.0780368,22.94921875,-42.96875,-71.77734375,-23.4375,0.0
1676923577.0829313,-33.203125,-20.5078125,-66.40625,-21.97265625,0.0
1676923577.0878258,-67.3828125,-19.53125,-60.05859375,-16.11328125,0.0
1676923577.09272,-16.6015625,-38.0859375,-41.50390625,-27.34375,0.0
1676923577.0964694,24.4140625,-69.82421875,-41.50390625,-36.62109375,0.0
1676923577.1002185,-26.85546875,-58.59375,-58.10546875,-32.2265625,0.0
1676923577.103968,-74.21875,-22.94921875,-69.3359375,-28.80859375,0.0
1676923577.107717,-41.9921875,-33.69140625,-76.171875,-35.15625,0.0
1676923577.1114664,4.8828125,-41.50390625,-64.453125,-34.66796875,0.0
1676923577.1152158,-11.23046875,-22.94921875,-69.3359375,-23.4375,0.0
1676923577.118965,-63.4765625,-35.15625,-69.82421875,-18.06640625,0.0
1676923577.1227143,-64.453125,-40.52734375,-48.828125,-27.83203125,0.0
1676923577.1264634,-11.71875,-34.66796875,-44.921875,-33.69140625,0.0
1676923577.1302128,-1.46484375,-44.921875,-44.921875,-19.04296875,0.0
1676923577.133962,-48.33984375,-60.546875,-53.22265625,-13.18359375,0.0
1676923577.1377113,-66.40625,-63.96484375,-60.05859375,-15.625,0.0
1676923577.1414628,-16.6015625,-36.62109375,-49.8046875,-21.97265625,0.0
1676923577.1452143,13.18359375,-14.6484375,-54.6875,-29.78515625,0.0
1676923577.1489658,-29.296875,-33.69140625,-71.2890625,-23.4375,0.0
1676923577.1527174,-62.01171875,-41.50390625,-65.4296875,-16.11328125,0.0
1676923577.1564689,-26.3671875,-21.484375,-54.6875,-15.625,0.0
1676923577.1602204,12.6953125,-31.73828125,-63.4765625,-22.94921875,0.0
1676923577.163972,-10.7421875,-45.8984375,-74.21875,-24.4140625,0.0
1676923577.1677234,-54.19921875,-46.38671875,-76.171875,-20.5078125,0.0
1676923577.171475,-32.71484375,-50.29296875,-64.94140625,-18.5546875,0.0
1676923577.1752264,20.99609375,-46.38671875,-47.8515625,-23.4375,0.0
1676923577.178978,9.27734375,-23.92578125,-42.96875,-25.390625,0.0
1676923577.1827295,-48.33984375,-24.90234375,-57.12890625,-13.671875,0.0
1676923577.1864748,-54.19921875,-42.96875,-73.2421875,-14.6484375,0.0
1676923577.1902204,-2.9296875,-52.734375,-77.1484375,-30.2734375,0.0
1676923577.193966,12.6953125,-43.45703125,-69.82421875,-32.2265625,0.0
1676923577.1977112,-37.59765625,-29.296875,-59.08203125,-26.85546875,0.0
1676923577.2014565,-57.6171875,-46.38671875,-58.10546875,-21.484375,0.0
1676923577.205202,-9.27734375,-55.17578125,-57.6171875,-14.6484375,0.0
1676923577.2089477,19.04296875,-42.96875,-63.4765625,-19.04296875,0.0
1676923577.212693,-26.3671875,-45.41015625,-76.171875,-18.06640625,0.0
1676923577.2164383,-72.265625,-36.1328125,-62.5,-14.6484375,0.0
1676923577.2201838,-37.109375,-36.1328125,-53.7109375,-24.90234375,0.0
1676923577.2239294,3.41796875,-50.78125,-57.6171875,-30.76171875,0.0
1676923577.2276747,-15.13671875,-46.38671875,-63.4765625,-20.01953125,1.0
1676923577.2315545,-59.08203125,-50.29296875,-86.9140625,-13.18359375,0.0
1676923577.2354345,-54.19921875,-45.41015625,-77.1484375,-18.5546875,0.0
1676923577.2393143,-2.44140625,-22.4609375,-58.10546875,-20.01953125,0.0
1676923577.243194,-0.9765625,-34.1796875,-50.78125,-24.4140625,0.0
1676923577.247074,-49.8046875,-50.78125,-50.29296875,-16.6015625,0.0
1676923577.2509537,-62.01171875,-40.52734375,-62.01171875,-18.06640625,0.0
1676923577.2548337,-11.23046875,-53.7109375,-65.4296875,-34.66796875,0.0
1676923577.2587135,14.6484375,-69.82421875,-59.5703125,-36.1328125,0.0
1676923577.2625933,-31.73828125,-51.7578125,-65.4296875,-37.109375,0.0
1676923577.2664733,-61.5234375,-27.34375,-86.9140625,-29.78515625,0.0
1676923577.270353,-11.23046875,-31.73828125,-88.8671875,-28.80859375,0.0
1676923577.2742329,23.4375,-30.76171875,-65.91796875,-46.875,0.0
1676923577.2778919,-22.94921875,-24.90234375,-59.08203125,-41.015625,0.0
1676923577.281551,-59.5703125,-43.45703125,-58.10546875,-30.2734375,0.0
1676923577.2852097,-20.01953125,-63.96484375,-53.22265625,-29.296875,0.0
1676923577.2888687,26.85546875,-49.31640625,-59.5703125,-39.0625,0.0
1676923577.2925277,0.48828125,-24.90234375,-64.94140625,-37.59765625,0.0
1676923577.2961867,-59.08203125,-50.78125,-60.05859375,-21.97265625,0.0
1676923577.2998457,-56.640625,-58.59375,-56.640625,-20.99609375,0.0
1676923577.3035047,-0.48828125,-37.109375,-52.734375,-22.94921875,0.0
1676923577.3071637,7.8125,-26.85546875,-57.12890625,-32.71484375,0.0
1676923577.3108225,-47.8515625,-34.66796875,-58.10546875,-33.203125,0.0
1676923577.3144815,-70.3125,-45.41015625,-61.03515625,-29.78515625,0.0
1676923577.3181405,-19.53125,-41.50390625,-60.546875,-35.15625,0.0
1676923577.3218591,7.32421875,-51.26953125,-48.33984375,-37.109375,0.0
1676923577.3255777,-32.71484375,-61.5234375,-41.9921875,-28.3203125,0.0
1676923577.3292964,-65.4296875,-47.36328125,-51.7578125,-19.53125,0.0
1676923577.333015,-22.94921875,-30.76171875,-70.3125,-23.92578125,0.0
1676923577.3367336,23.4375,-35.64453125,-77.63671875,-32.2265625,0.0
1676923577.3404522,-14.16015625,-44.43359375,-67.87109375,-27.83203125,0.0
1676923577.3441706,-59.5703125,-41.9921875,-52.734375,-15.625,0.0
1676923577.3478892,-36.62109375,-30.76171875,-42.48046875,-16.6015625,0.0
1676923577.3516078,13.18359375,-23.92578125,-43.45703125,-36.62109375,0.0
1676923577.3553264,2.44140625,-23.4375,-58.10546875,-41.015625,0.0
1676923577.359045,-54.6875,-27.83203125,-73.2421875,-32.71484375,0.0
1676923577.3627636,-58.59375,-37.59765625,-72.265625,-40.0390625,0.0
1676923577.3666656,-4.8828125,-45.8984375,-54.6875,-43.45703125,0.0
1676923577.3705678,1.953125,-51.26953125,-56.640625,-42.96875,0.0
1676923577.3744698,-45.41015625,-64.94140625,-63.96484375,-35.64453125,0.0
1676923577.378372,-60.05859375,-46.38671875,-58.10546875,-29.78515625,0.0
1676923577.382274,-7.8125,-32.71484375,-80.078125,-37.59765625,0.0
1676923577.386176,24.90234375,-43.9453125,-77.63671875,-33.69140625,0.0
1676923577.390078,-19.53125,-44.43359375,-52.734375,-23.92578125,0.0
1676923577.39398,-65.4296875,-36.62109375,-61.03515625,-42.96875,0.0
1676923577.3978822,-30.76171875,-29.78515625,-66.89453125,-47.8515625,0.0
1676923577.4017842,17.578125,-39.55078125,-64.453125,-35.15625,0.0
1676923577.4056864,-13.18359375,-48.33984375,-60.05859375,-31.25,0.0
1676923577.4095883,-60.546875,-49.8046875,-56.640625,-22.4609375,0.0
1676923577.4144766,-44.43359375,-41.50390625,-64.453125,-26.3671875,0.0
1676923577.419365,9.765625,-28.3203125,-69.82421875,-39.0625,0.0
1676923577.4242532,8.30078125,-39.55078125,-72.265625,-37.109375,0.0
1676923577.4291415,-51.26953125,-40.52734375,-72.75390625,-27.34375,0.0
1676923577.4340298,-63.4765625,-31.25,-70.80078125,-20.99609375,0.0
1676923577.438918,-9.27734375,-35.64453125,-65.4296875,-20.01953125,0.0
1676923577.4438064,14.16015625,-23.92578125,-47.8515625,-19.53125,0.0
1676923577.4486947,-39.55078125,-39.55078125,-50.78125,-22.4609375,0.0
1676923577.453583,-75.68359375,-54.19921875,-57.6171875,-21.484375,0.0
1676923577.4584713,-26.85546875,-39.0625,-56.15234375,-20.99609375,0.0
1676923577.4633596,9.765625,-32.2265625,-54.6875,-27.83203125,0.0
1676923577.468248,-35.64453125,-34.66796875,-65.4296875,-27.34375,0.0
1676923577.4719553,-70.80078125,-48.828125,-70.80078125,-24.4140625,0.0
1676923577.4756627,-37.109375,-37.109375,-52.734375,-24.4140625,0.0
1676923577.47937,2.44140625,-27.83203125,-45.8984375,-32.2265625,0.0
1676923577.4830778,-24.4140625,-44.43359375,-66.40625,-26.85546875,0.0
1676923577.4867852,-74.70703125,-32.71484375,-83.984375,-15.13671875,0.0
1676923577.4904926,-60.05859375,-21.484375,-79.1015625,-22.94921875,0.0
1676923577.4942,-8.30078125,-59.5703125,-62.98828125,-28.80859375,0.0
1676923577.4979074,-13.671875,-59.08203125,-52.734375,-28.3203125,0.0
1676923577.501615,-67.87109375,-28.80859375,-51.7578125,-19.53125,0.0
1676923577.5053225,-74.21875,-48.33984375,-60.05859375,-13.671875,0.0
1676923577.5090299,-22.94921875,-57.12890625,-67.3828125,-27.34375,0.0
1676923577.5127373,-2.44140625,-46.38671875,-63.96484375,-32.2265625,0.0
1676923577.5164902,-47.8515625,-33.203125,-57.6171875,-23.92578125,0.0
1676923577.5202432,-83.0078125,-15.625,-63.4765625,-27.34375,0.0
1676923577.5239964,-37.59765625,-15.13671875,-78.125,-38.57421875,0.0
1676923577.5277493,10.25390625,-39.55078125,-73.2421875,-40.52734375,0.0
1676923577.5315022,-23.4375,-56.640625,-50.29296875,-29.78515625,0.0
1676923577.5352552,-83.49609375,-43.9453125,-53.7109375,-29.296875,0.0
1676923577.5390081,-57.6171875,-25.87890625,-59.08203125,-46.875,0.0
1676923577.542761,0.0,-23.92578125,-55.17578125,-56.15234375,0.0
1676923577.546514,-14.6484375,-32.2265625,-53.7109375,-34.1796875,0.0
1676923577.5502672,-69.82421875,-48.33984375,-53.7109375,-30.76171875,0.0
1676923577.5540202,-60.546875,-58.10546875,-66.89453125,-40.52734375,0.0
1676923577.557773,-0.48828125,-45.41015625,-66.40625,-39.55078125,0.0
1676923577.561533,6.8359375,-34.1796875,-62.01171875,-45.41015625,0.0
1676923577.5652928,-46.875,-37.109375,-60.546875,-36.62109375,0.0
1676923577.5690527,-58.59375,-44.43359375,-66.40625,-30.76171875,0.0
1676923577.5728126,-8.7890625,-70.80078125,-66.40625,-39.0625,0.0
1676923577.5765724,17.08984375,-62.5,-40.52734375,-36.1328125,0.0
1676923577.5803323,-25.87890625,-25.390625,-36.1328125,-26.85546875,0.0
1676923577.584092,-59.5703125,-20.99609375,-49.31640625,-33.203125,0.0
1676923577.5878518,-16.11328125,-31.73828125,-54.19921875,-36.1328125,0.0
1676923577.5916116,19.04296875,-36.62109375,-59.5703125,-35.15625,0.0
1676923577.5953715,-17.578125,-48.828125,-52.734375,-39.0625,0.0
1676923577.5991313,-62.98828125,-44.921875,-60.05859375,-37.59765625,0.0
1676923577.6028912,-35.64453125,-53.7109375,-93.75,-34.1796875,0.0
1676923577.6066437,18.5546875,-61.5234375,-85.44921875,-31.73828125,0.0
1676923577.610396,-3.41796875,-27.34375,-45.8984375,-31.25,0.0
1676923577.6141484,-55.17578125,-13.18359375,-35.15625,-22.4609375,0.0
1676923577.6179008,-53.22265625,-30.2734375,-41.9921875,-26.3671875,0.0
1676923577.6216533,-4.39453125,-48.33984375,-44.43359375,-33.203125,0.0
1676923577.6254058,8.30078125,-60.546875,-52.734375,-32.71484375,0.0
1676923577.629158,-42.96875,-51.26953125,-61.5234375,-31.73828125,0.0
1676923577.6329105,-62.01171875,-27.34375,-51.7578125,-21.484375,0.0
1676923577.636663,-16.11328125,-30.2734375,-64.453125,-25.87890625,0.0
1676923577.6404152,10.7421875,-38.0859375,-87.40234375,-43.45703125,0.0
1676923577.6441677,-27.34375,-39.55078125,-63.96484375,-32.2265625,0.0
1676923577.6479201,-62.01171875,-40.0390625,-42.48046875,-17.578125,0.0
1676923577.6517835,-26.85546875,-24.4140625,-50.29296875,-25.87890625,0.0
1676923577.6556468,14.16015625,-23.92578125,-46.38671875,-39.0625,0.0
1676923577.6595101,-17.578125,-40.0390625,-40.0390625,-32.71484375,0.0
1676923577.6633735,-66.40625,-58.10546875,-45.8984375,-21.97265625,0.0
1676923577.6672368,-40.52734375,-58.10546875,-50.78125,-23.92578125,0.0
1676923577.6711001,9.27734375,-42.48046875,-56.640625,-36.1328125,0.0
1676923577.6749632,1.953125,-35.64453125,-69.82421875,-29.296875,0.0
1676923577.6788266,-49.31640625,-32.71484375,-84.47265625,-10.7421875,0.0
1676923577.68269,-58.59375,-30.76171875,-77.63671875,-22.94921875,0.0
1676923577.6865532,-8.7890625,-24.4140625,-62.98828125,-41.9921875,0.0
1676923577.6904166,4.39453125,-25.87890625,-57.12890625,-46.38671875,0.0
1676923577.69428,-46.875,-29.296875,-51.26953125,-34.66796875,0.0
1676923577.697955,-69.82421875,-42.48046875,-50.29296875,-28.80859375,0.0
1676923577.7016299,-21.484375,-43.45703125,-52.734375,-32.2265625,0.0
1676923577.7053049,7.8125,-52.24609375,-59.08203125,-41.9921875,0.0
1676923577.7089798,-28.3203125,-59.08203125,-69.3359375,-34.66796875,0.0
1676923577.7126548,-60.05859375,-38.57421875,-72.265625,-26.85546875,0.0
1676923577.71633,-27.83203125,-25.87890625,-73.73046875,-37.109375,0.0
1676923577.720005,11.71875,-29.296875,-84.9609375,-39.55078125,0.0
1676923577.72368,-17.578125,-42.48046875,-82.03125,-30.76171875,0.0
1676923577.727355,-70.80078125,-35.15625,-62.5,-30.2734375,0.0
1676923577.73103,-55.17578125,-31.25,-50.78125,-23.4375,0.0
1676923577.734705,-6.8359375,-39.55078125,-51.7578125,-36.62109375,0.0
1676923577.73838,-11.71875,-43.9453125,-62.5,-50.29296875,0.0
1676923577.7421107,-56.15234375,-54.19921875,-66.89453125,-30.76171875,0.0
1676923577.7458413,-61.5234375,-39.55078125,-72.75390625,-29.296875,0.0
1676923577.749572,-3.90625,-20.5078125,-69.3359375,-35.15625,0.0
1676923577.7533028,16.11328125,-30.2734375,-68.84765625,-28.3203125,0.0
1676923577.7570333,-36.62109375,-38.0859375,-87.890625,-18.5546875,0.0
1676923577.7607641,-60.546875,-43.45703125,-86.42578125,-5.859375,0.0
1676923577.764495,-26.85546875,-35.64453125,-46.38671875,-15.625,0.0
1676923577.7682254,-1.46484375,-20.99609375,-21.97265625,-44.43359375,0.0
1676923577.7719562,-31.25,-37.109375,-28.3203125,-31.25,0.0
1676923577.775687,-71.2890625,-35.15625,-44.43359375,-12.20703125,0.0
1676923577.7794175,-40.52734375,-14.6484375,-65.91796875,-27.83203125,0.0
1676923577.7831483,14.6484375,-26.85546875,-73.2421875,-37.59765625,0.0
1676923577.788141,3.41796875,-55.17578125,-64.453125,-21.484375,0.0
1676923577.793134,-49.31640625,-51.26953125,-57.12890625,-10.7421875,0.0
1676923577.7981267,-51.7578125,-29.296875,-62.98828125,-21.97265625,0.0
1676923577.8031194,-7.8125,-24.90234375,-68.84765625,-43.45703125,0.0
1676923577.8081124,2.44140625,-36.1328125,-67.3828125,-42.48046875,0.0
1676923577.813105,-47.8515625,-36.62109375,-72.75390625,-29.78515625,0.0
1676923577.8180978,-62.5,-30.2734375,-73.2421875,-28.3203125,0.0
1676923577.8230908,-7.32421875,-24.90234375,-65.4296875,-40.52734375,0.0
1676923577.8280835,12.20703125,-29.78515625,-72.265625,-52.734375,0.0
1676923577.8330762,-30.76171875,-44.43359375,-67.3828125,-29.296875,0.0
1676923577.8380692,-61.5234375,-37.109375,-62.98828125,-12.6953125,0.0
1676923577.843062,-28.80859375,-25.87890625,-77.1484375,-27.83203125,0.0
1676923577.8480523,7.8125,-31.25,-81.0546875,-43.9453125,0.0
1676923577.8530428,-28.80859375,-45.41015625,-80.56640625,-40.52734375,0.0
1676923577.8580332,-73.73046875,-43.9453125,-77.63671875,-24.4140625,0.0
1676923577.8630238,-48.828125,-36.1328125,-59.08203125,-25.87890625,0.0
1676923577.868014,-1.46484375,-33.69140625,-44.921875,-38.57421875,0.0
1676923577.8730044,-12.20703125,-21.484375,-64.453125,-39.55078125,0.0
1676923577.877995,-70.3125,-45.41015625,-83.0078125,-27.34375,0.0
1676923577.8829854,-64.453125,-60.546875,-63.4765625,-21.484375,0.0
1676923577.887976,-6.34765625,-38.0859375,-53.7109375,-26.3671875,0.0
1676923577.8929663,1.953125,-23.4375,-62.5,-30.2734375,0.0
1676923577.8979568,-49.8046875,-23.92578125,-63.4765625,-23.92578125,0.0
1676923577.9029472,-67.3828125,-43.9453125,-56.640625,-12.6953125,0.0
1676923577.9054859,-23.4375,-56.15234375,-55.6640625,-32.2265625,0.0
1676923577.9080245,1.953125,-41.9921875,-47.36328125,-48.33984375,0.0
1676923577.9105632,-40.0390625,-41.9921875,-38.0859375,-37.109375,0.0
1676923577.913102,-74.70703125,-59.08203125,-56.640625,-25.390625,0.0
1676923577.9156406,-36.62109375,-66.40625,-63.96484375,-29.78515625,0.0
1676923577.9181793,0.9765625,-49.8046875,-57.12890625,-45.8984375,0.0
1676923577.920718,-25.390625,-34.1796875,-66.89453125,-44.43359375,0.0
1676923577.9232566,-66.40625,-37.109375,-67.87109375,-20.5078125,0.0
1676923577.9257953,-41.015625,-49.8046875,-67.87109375,-13.18359375,0.0
1676923577.928334,1.46484375,-43.45703125,-68.84765625,-26.3671875,0.0
1676923577.9308727,-5.37109375,-23.92578125,-73.73046875,-22.4609375,0.0
1676923577.9334114,-50.29296875,-34.66796875,-65.4296875,-5.37109375,0.0
1676923577.9371076,-56.15234375,-34.66796875,-51.7578125,-6.8359375,0.0
1676923577.9408035,-7.32421875,-26.3671875,-45.41015625,-35.64453125,0.0
1676923577.9444997,1.953125,-30.2734375,-48.33984375,-51.7578125,0.0
1676923577.948196,-39.55078125,-41.50390625,-58.10546875,-24.90234375,0.0
1676923577.951892,-59.5703125,-41.50390625,-60.05859375,-9.765625,0.0
1676923577.955588,-18.5546875,-30.2734375,-62.01171875,-26.85546875,0.0
1676923577.9592843,14.6484375,-45.41015625,-59.08203125,-36.62109375,0.0
1676923577.9629803,-22.4609375,-75.1953125,-61.5234375,-17.578125,0.0
1676923577.9666765,-56.640625,-56.640625,-53.22265625,-3.90625,0.0
1676923577.9703727,-17.578125,-20.5078125,-52.734375,-16.11328125,0.0
1676923577.9740686,14.6484375,-13.18359375,-52.734375,-23.4375,0.0
1676923577.9777648,-10.25390625,-22.94921875,-49.8046875,-15.625,0.0
1676923577.9815204,-42.48046875,-28.80859375,-62.01171875,-0.9765625,0.0
1676923577.9852757,-33.203125,-31.25,-62.5,-3.90625,0.0
1676923577.9890313,12.20703125,-32.71484375,-54.19921875,-23.92578125,0.0
1676923577.992787,1.953125,-33.69140625,-60.546875,-37.59765625,0.0
1676923577.9965422,-51.26953125,-32.2265625,-69.3359375,-15.625,0.0
1676923578.0002978,-45.8984375,-27.83203125,-71.77734375,-2.44140625,0.0
1676923578.0040534,4.39453125,-41.50390625,-84.9609375,-28.80859375,0.0
1676923578.0078087,18.06640625,-69.82421875,-92.7734375,-35.15625,0.0
1676923578.0115643,-28.3203125,-60.05859375,-74.21875,-13.18359375,0.0
1676923578.0153198,-50.78125,-52.734375,-50.78125,-2.9296875,0.0
1676923578.0190752,-17.08984375,-56.640625,-46.38671875,-22.94921875,0.0
1676923578.0228307,7.32421875,-24.4140625,-47.8515625,-47.36328125,0.0
1676923578.0291765,-26.85546875,-12.6953125,-56.15234375,-39.0625,0.0
1676923578.0355225,-65.4296875,-31.25,-66.40625,-24.4140625,0.0
1676923578.0418682,-41.50390625,-45.41015625,-70.80078125,-32.71484375,0.0
1676923578.048214,6.8359375,-58.10546875,-68.84765625,-48.33984375,0.0
1676923578.0545597,-0.9765625,-53.7109375,-65.91796875,-39.0625,0.0
1676923578.0609055,-46.38671875,-63.4765625,-77.63671875,-15.13671875,0.0
1676923578.0672514,-42.48046875,-68.84765625,-68.359375,-16.6015625,0.0
1676923578.0735972,0.48828125,-42.96875,-55.17578125,-47.36328125,0.0
1676923578.079943,5.37109375,-35.15625,-64.453125,-57.6171875,0.0
1676923578.086289,-42.48046875,-30.76171875,-67.87109375,-31.25,0.0
1676923578.0926347,-61.03515625,-27.34375,-62.01171875,-28.80859375,0.0
1676923578.0989804,-9.27734375,-34.1796875,-58.59375,-46.875,0.0
1676923578.1002893,17.578125,-47.8515625,-70.80078125,-42.48046875,0.0
1676923578.101598,-35.64453125,-56.15234375,-78.125,-24.4140625,0.0
1676923578.102907,-62.5,-63.4765625,-70.3125,-8.7890625,0.0
1676923578.1042159,-18.06640625,-55.17578125,-61.5234375,-24.90234375,0.0
1676923578.1055245,10.7421875,-22.94921875,-58.59375,-46.875,0.0
1676923578.1068335,-21.484375,-23.4375,-50.78125,-19.53125,0.0
1676923578.1081424,-61.03515625,-36.1328125,-47.8515625,0.9765625,0.0
1676923578.109451,-38.0859375,-42.48046875,-51.7578125,-20.01953125,0.0
1676923578.11076,2.44140625,-57.12890625,-65.4296875,-44.921875,0.0
1676923578.112069,-13.18359375,-47.36328125,-74.21875,-44.921875,0.0
1676923578.1133776,-56.640625,-42.48046875,-63.4765625,-17.08984375,0.0
1676923578.1146865,-57.6171875,-40.0390625,-67.3828125,-20.01953125,2.0
1676923578.1195369,-5.859375,-31.25,-66.40625,-40.0390625,0.0
1676923578.1243873,-0.48828125,-37.109375,-63.96484375,-37.59765625,0.0
1676923578.129238,-54.6875,-41.015625,-60.05859375,-10.25390625,0.0
1676923578.1340883,-72.75390625,-43.45703125,-45.8984375,-9.27734375,0.0
1676923578.1389387,-24.90234375,-55.17578125,-41.015625,-33.203125,0.0
1676923578.1437893,-0.9765625,-41.50390625,-51.26953125,-39.0625,0.0
1676923578.1486397,-40.52734375,-32.71484375,-68.359375,-14.6484375,0.0
1676923578.15349,-71.2890625,-39.0625,-72.265625,-14.16015625,0.0
1676923578.1583405,-45.8984375,-21.484375,-76.66015625,-41.015625,0.0
1676923578.1631908,-8.7890625,-21.97265625,-74.21875,-45.41015625,0.0
1676923578.1680415,-31.25,-44.921875,-66.40625,-27.34375,0.0
1676923578.1728919,-72.75390625,-48.828125,-58.59375,-16.11328125,0.0
1676923578.1766422,-49.31640625,-38.0859375,-53.22265625,-30.2734375,0.0
1676923578.1803923,-1.46484375,-40.52734375,-54.19921875,-54.19921875,0.0
1676923578.1841426,-3.41796875,-47.8515625,-51.26953125,-53.22265625,0.0
1676923578.187893,-45.41015625,-70.3125,-61.03515625,-23.4375,0.0
1676923578.191643,-52.24609375,-77.63671875,-72.75390625,-12.6953125,0.0
1676923578.1953933,-10.7421875,-35.15625,-68.359375,-41.9921875,0.0
1676923578.1991436,3.90625,-11.71875,-69.3359375,-57.12890625,0.0
1676923578.2028937,-45.41015625,-24.90234375,-62.98828125,-31.73828125,0.0
1676923578.206644,-62.98828125,-40.52734375,-43.9453125,-19.04296875,0.0
1676923578.2103944,-17.578125,-36.62109375,-39.55078125,-26.3671875,0.0
1676923578.2141445,-1.46484375,-53.7109375,-45.41015625,-35.64453125,0.0
1676923578.2178948,-40.52734375,-74.21875,-48.33984375,-21.484375,0.0
1676923578.2216384,-67.3828125,-53.7109375,-57.12890625,0.0,0.0
1676923578.2253823,-40.0390625,-55.17578125,-71.77734375,-18.06640625,0.0
1676923578.229126,3.41796875,-60.546875,-83.49609375,-37.59765625,0.0
1676923578.2328696,-15.625,-40.52734375,-87.890625,-19.53125,0.0
1676923578.2366135,-63.96484375,-23.92578125,-62.5,-3.41796875,0.0
1676923578.2403572,-51.26953125,-22.4609375,-42.96875,-16.11328125,0.0
1676923578.2441008,-2.44140625,-29.296875,-47.36328125,-41.50390625,0.0
1676923578.2478447,-6.34765625,-37.109375,-63.4765625,-41.9921875,0.0
1676923578.2515883,-43.45703125,-41.015625,-72.75390625,-6.8359375,0.0
1676923578.255332,-38.0859375,-44.921875,-62.01171875,7.32421875,0.0
1676923578.2590759,7.32421875,-50.29296875,-64.453125,-21.484375,0.0
1676923578.2628195,27.34375,-45.8984375,-73.73046875,-32.71484375,0.0
1676923578.2665539,-18.06640625,-37.59765625,-73.73046875,-9.765625,0.0
1676923578.2702885,-45.41015625,-25.87890625,-66.89453125,4.8828125,0.0
1676923578.2740228,0.48828125,-24.4140625,-69.3359375,-14.16015625,0.0
1676923578.2777572,26.85546875,-16.6015625,-58.10546875,-36.1328125,0.0
1676923578.2814915,-9.765625,-23.4375,-41.015625,-17.578125,0.0
1676923578.2852259,-48.33984375,-46.875,-48.828125,-0.9765625,0.0
1676923578.2889605,-34.1796875,-42.96875,-57.6171875,-24.90234375,0.0
1676923578.2926948,1.46484375,-42.96875,-66.40625,-46.38671875,0.0
1676923578.2964292,-12.6953125,-43.45703125,-62.98828125,-19.53125,0.0
1676923578.3001637,-56.640625,-41.50390625,-62.01171875,0.48828125,0.0
1676923578.303898,-48.828125,-55.6640625,-79.1015625,-10.25390625,0.0
1676923578.3076324,-4.39453125,-55.6640625,-84.9609375,-29.296875,0.0
1676923578.3113852,-7.32421875,-37.109375,-64.94140625,-32.71484375,0.0
1676923578.315138,-57.12890625,-37.109375,-41.015625,-11.71875,0.0
1676923578.318891,-67.3828125,-39.55078125,-43.45703125,-11.71875,0.0
1676923578.3226438,-21.97265625,-43.45703125,-54.19921875,-25.390625,0.0
1676923578.3263965,-6.34765625,-63.96484375,-52.734375,-42.48046875,0.0
1676923578.3301494,-52.24609375,-61.03515625,-52.734375,-31.73828125,0.0
1676923578.3339024,-76.171875,-32.71484375,-63.4765625,-13.18359375,0.0
1676923578.337655,-27.83203125,-30.2734375,-59.08203125,-19.53125,0.0
1676923578.3414078,9.27734375,-47.36328125,-64.94140625,-36.1328125,0.0
1676923578.3451607,-20.99609375,-50.78125,-69.82421875,-26.85546875,0.0
1676923578.3489137,-51.7578125,-49.31640625,-47.8515625,-3.41796875,0.0
1676923578.3526664,-27.83203125,-32.2265625,-43.9453125,-19.04296875,0.0
1676923578.3564181,10.25390625,-35.15625,-57.12890625,-43.9453125,0.0
1676923578.36017,-8.30078125,-57.12890625,-54.6875,-33.203125,0.0
1676923578.3639216,-55.6640625,-52.24609375,-54.6875,-6.8359375,0.0
1676923578.3676736,-45.41015625,-44.43359375,-67.87109375,-10.25390625,0.0
1676923578.3714254,-1.46484375,-35.15625,-58.59375,-29.78515625,0.0
1676923578.3751771,-1.46484375,-32.2265625,-48.828125,-26.3671875,0.0
1676923578.378929,-45.41015625,-30.76171875,-57.12890625,2.9296875,0.0
1676923578.3826807,-62.01171875,-26.85546875,-48.828125,14.16015625,0.0
1676923578.3864326,-11.71875,-39.0625,-31.25,-14.6484375,0.0
1676923578.3901844,21.97265625,-55.17578125,-38.57421875,-34.66796875,0.0
1676923578.3939362,-19.53125,-69.82421875,-51.7578125,-10.7421875,0.0
1676923578.397688,-57.12890625,-79.1015625,-57.12890625,0.48828125,0.0
1676923578.4026952,-21.97265625,-56.15234375,-64.453125,-22.94921875,0.0
1676923578.4077027,15.625,-17.08984375,-62.98828125,-41.50390625,0.0
1676923578.4127102,-12.20703125,-5.859375,-55.17578125,-22.94921875,0.0
1676923578.4177175,-64.453125,-6.34765625,-67.3828125,-2.44140625,0.0
1676923578.4227247,-46.38671875,-25.390625,-71.2890625,-8.7890625,0.0
1676923578.4277322,-5.37109375,-55.17578125,-51.26953125,-33.69140625,0.0
1676923578.4327397,-29.296875,-51.7578125,-46.875,-41.015625,0.0
1676923578.437747,-66.40625,-40.52734375,-48.828125,-5.859375,0.0
1676923578.4427543,-67.87109375,-57.6171875,-54.19921875,-7.32421875,0.0
1676923578.4477618,-24.90234375,-61.5234375,-67.3828125,-43.9453125,0.0
1676923578.4527693,-14.6484375,-41.50390625,-77.63671875,-50.78125,0.0
1676923578.4577765,-62.5,-39.0625,-73.2421875,-26.85546875,0.0
1676923578.460325,-81.0546875,-38.0859375,-66.40625,-23.92578125,0.0
1676923578.4628732,-36.62109375,-38.57421875,-70.80078125,-47.36328125,0.0
1676923578.4654217,-10.25390625,-55.17578125,-76.171875,-50.29296875,0.0
1676923578.46797,-52.734375,-47.8515625,-63.4765625,-30.2734375,0.0
1676923578.4705184,-86.9140625,-25.390625,-62.01171875,-18.5546875,0.0
1676923578.4730668,-48.828125,-37.109375,-75.68359375,-32.2265625,0.0
1676923578.475615,-2.44140625,-61.03515625,-86.42578125,-43.45703125,0.0
1676923578.4781635,-26.3671875,-73.2421875,-88.8671875,-35.64453125,0.0
1676923578.4807117,-70.80078125,-68.359375,-66.89453125,-20.99609375,0.0
1676923578.4832602,-58.10546875,-58.10546875,-59.5703125,-31.73828125,0.0
1676923578.4858084,-15.625,-42.96875,-70.3125,-45.8984375,0.0
1676923578.4883568,-14.6484375,-26.3671875,-62.98828125,-41.50390625,0.0
1676923578.4920845,-63.96484375,-32.2265625,-65.91796875,-26.85546875,0.0
1676923578.4958124,-73.73046875,-40.0390625,-74.70703125,-11.71875,0.0
1676923578.49954,-20.99609375,-41.50390625,-68.359375,-23.92578125,0.0
1676923578.5032678,4.39453125,-33.203125,-71.77734375,-43.45703125,0.0
1676923578.5069954,-41.015625,-28.3203125,-75.1953125,-27.83203125,0.0
1676923578.510723,-72.75390625,-37.109375,-73.73046875,-20.5078125,0.0
1676923578.514451,-33.203125,-54.19921875,-60.05859375,-36.62109375,0.0
1676923578.5181787,3.41796875,-56.640625,-49.31640625,-49.8046875,0.0
1676923578.5219064,-24.90234375,-45.41015625,-61.5234375,-34.66796875,0.0
1676923578.5256343,-66.89453125,-38.0859375,-67.3828125,-8.7890625,0.0
1676923578.529362,-43.45703125,-33.203125,-69.3359375,-26.3671875,0.0
1676923578.5330896,0.48828125,-17.08984375,-75.1953125,-51.7578125,0.0
1676923578.5380871,-8.30078125,-25.87890625,-71.2890625,-39.0625,0.0
1676923578.5430846,-57.12890625,-45.8984375,-57.6171875,-19.53125,0.0
1676923578.5480824,-60.546875,-38.57421875,-56.640625,-21.97265625,0.0
1676923578.5530798,-5.37109375,-32.2265625,-59.08203125,-41.50390625,0.0
1676923578.5580773,6.34765625,-43.9453125,-54.19921875,-41.9921875,0.0
1676923578.563075,-35.64453125,-57.6171875,-59.5703125,-15.625,0.0
1676923578.5680726,-48.828125,-55.17578125,-54.6875,-13.18359375,0.0
1676923578.57307,-2.44140625,-34.1796875,-45.8984375,-33.203125,0.0
1676923578.5780675,22.94921875,-15.13671875,-52.24609375,-38.0859375,0.0
1676923578.583065,-20.01953125,-11.23046875,-62.01171875,-14.6484375,0.0
1676923578.5880628,-45.41015625,-20.99609375,-62.01171875,-2.44140625,0.0
1676923578.5930603,-8.7890625,-31.25,-52.24609375,-19.53125,0.0
1676923578.59681,8.7890625,-40.52734375,-58.59375,-38.0859375,0.0
1676923578.60056,-28.3203125,-52.24609375,-55.17578125,-20.99609375,0.0
1676923578.6043098,-56.640625,-46.38671875,-42.96875,0.48828125,0.0
1676923578.6080596,-28.80859375,-43.9453125,-47.36328125,-11.71875,0.0
1676923578.6118095,0.0,-45.41015625,-51.7578125,-39.55078125,0.0
1676923578.6155593,-16.11328125,-31.25,-52.24609375,-35.64453125,0.0
1676923578.6193092,-55.6640625,-28.3203125,-55.17578125,-14.6484375,0.0
1676923578.623059,-56.640625,-25.87890625,-63.96484375,-23.92578125,0.0
1676923578.626809,-16.6015625,-24.90234375,-73.2421875,-48.33984375,0.0
1676923578.6305587,-11.71875,-53.22265625,-60.05859375,-51.7578125,0.0
1676923578.6343086,-47.8515625,-69.3359375,-71.2890625,-25.390625,0.0
1676923578.6380584,-62.5,-62.5,-90.8203125,-12.20703125,0.0
1676923578.6418078,-20.5078125,-47.8515625,-75.68359375,-35.15625,0.0
1676923578.6455572,-0.9765625,-28.3203125,-55.6640625,-52.24609375,0.0
1676923578.6493065,-43.45703125,-23.4375,-47.36328125,-31.73828125,0.0
1676923578.653056,-62.5,-29.78515625,-49.8046875,-7.8125,0.0
1676923578.6568053,-20.5078125,-48.33984375,-63.4765625,-15.625,0.0
1676923578.6605546,13.671875,-43.45703125,-73.2421875,-31.25,0.0
1676923578.664304,-12.20703125,-18.06640625,-70.80078125,-19.53125,0.0
1676923578.6680534,-58.10546875,-47.8515625,-63.4765625,-7.32421875,0.0
1676923578.6718028,-42.96875,-54.6875,-70.80078125,-17.08984375,0.0
1676923578.6755521,12.20703125,-39.55078125,-80.56640625,-36.62109375,0.0
1676923578.6793015,7.8125,-37.109375,-61.03515625,-30.2734375,0.0
1676923578.6830509,-47.8515625,-16.6015625,-41.015625,-6.34765625,0.0
1676923578.6892765,-52.24609375,-7.32421875,-35.64453125,-2.44140625,0.0
1676923578.6955023,-1.46484375,-26.85546875,-45.41015625,-29.78515625,0.0
1676923578.7017279,15.625,-48.828125,-70.3125,-38.0859375,0.0
1676923578.7079535,-33.203125,-54.19921875,-72.265625,-11.71875,0.0
1676923578.7141793,-68.359375,-55.6640625,-63.4765625,-4.39453125,0.0
1676923578.7204049,-29.78515625,-41.015625,-63.4765625,-31.73828125,0.0
1676923578.7266304,-3.41796875,-23.92578125,-61.5234375,-57.12890625,0.0
1676923578.7328563,-41.9921875,-30.2734375,-65.91796875,-26.85546875,0.0
1676923578.7390819,-76.171875,-39.0625,-61.03515625,1.46484375,0.0
1676923578.7453074,-39.0625,-54.19921875,-54.19921875,-26.3671875,0.0
1676923578.7515333,4.8828125,-47.8515625,-68.84765625,-51.7578125,0.0
1676923578.7577589,-21.97265625,-51.26953125,-71.2890625,-33.69140625,0.0
1676923578.759161,-69.3359375,-57.6171875,-57.12890625,-12.6953125,0.0
1676923578.7605634,-60.05859375,-37.109375,-40.0390625,-27.83203125,0.0
1676923578.7619658,-18.06640625,-27.83203125,-40.52734375,-56.640625,0.0
1676923578.763368,-11.71875,-24.4140625,-53.22265625,-46.875,0.0
1676923578.76477,-49.31640625,-29.296875,-54.19921875,-16.6015625,0.0
1676923578.7661724,-50.78125,-42.48046875,-52.734375,-12.20703125,0.0
1676923578.7675748,-2.44140625,-43.9453125,-62.98828125,-31.25,0.0
1676923578.768977,9.765625,-45.8984375,-82.03125,-46.875,0.0
1676923578.770379,-36.1328125,-71.2890625,-88.37890625,-27.34375,0.0
1676923578.7717814,-56.640625,-71.77734375,-69.3359375,-14.16015625,0.0
1676923578.7731838,-18.5546875,-35.15625,-55.17578125,-39.55078125,0.0
1676923578.774586,5.859375,-15.625,-45.41015625,-52.734375,0.0
1676923578.7782784,-32.71484375,-22.4609375,-44.921875,-24.4140625,0.0
1676923578.7819705,-72.265625,-35.64453125,-55.17578125,-7.8125,0.0
1676923578.785663,-41.015625,-46.38671875,-62.5,-24.90234375,0.0
1676923578.7893553,1.953125,-48.828125,-68.359375,-42.96875,0.0
1676923578.7930474,-14.6484375,-61.5234375,-79.1015625,-37.109375,0.0
1676923578.7967398,-51.7578125,-70.3125,-92.28515625,-20.99609375,0.0
1676923578.8004322,-49.8046875,-63.4765625,-88.8671875,-26.85546875,0.0
1676923578.8041244,-13.18359375,-47.36328125,-65.91796875,-41.9921875,0.0
1676923578.8078167,-14.6484375,-40.52734375,-52.24609375,-41.50390625,0.0
1676923578.8115091,-61.03515625,-30.76171875,-58.10546875,-23.4375,0.0
1676923578.8152013,-69.82421875,-10.25390625,-67.87109375,-25.87890625,0.0
1676923578.8188937,-23.4375,-16.11328125,-63.4765625,-51.26953125,0.0
1676923578.8262978,1.953125,-40.0390625,-62.5,-52.24609375,0.0
1676923578.8337018,-41.9921875,-63.4765625,-79.58984375,-21.97265625,0.0
1676923578.841106,-74.21875,-64.94140625,-87.40234375,-5.37109375,0.0
1676923578.84851,-28.80859375,-42.48046875,-73.2421875,-21.97265625,0.0
1676923578.855914,3.41796875,-39.0625,-44.921875,-41.50390625,0.0
1676923578.863318,-29.78515625,-41.50390625,-33.69140625,-30.76171875,0.0
1676923578.870722,-60.546875,-31.25,-49.31640625,-2.9296875,0.0
1676923578.8781261,-34.66796875,-20.99609375,-60.05859375,-16.11328125,0.0
1676923578.8855302,12.6953125,-18.5546875,-50.29296875,-45.41015625,0.0
1676923578.8929343,12.6953125,-40.52734375,-57.6171875,-28.80859375,0.0
1676923578.9003384,-30.2734375,-39.55078125,-71.77734375,-6.8359375,0.0
1676923578.9077425,-31.73828125,-21.97265625,-79.1015625,-11.71875,0.0
1676923578.9080656,15.13671875,-23.92578125,-73.73046875,-30.76171875,0.0
1676923578.9083886,18.06640625,-48.828125,-60.05859375,-38.57421875,0.0
1676923578.9087114,-30.76171875,-85.9375,-58.10546875,-13.671875,0.0
1676923578.9090345,-47.8515625,-66.89453125,-54.19921875,-9.765625,0.0
1676923578.9093575,-7.8125,-39.0625,-49.8046875,-40.52734375,0.0
1676923578.9096806,13.18359375,-22.4609375,-62.5,-53.22265625,0.0
1676923578.9100037,-29.78515625,0.0,-76.171875,-34.1796875,0.0
1676923578.9103267,-57.6171875,-3.41796875,-75.1953125,-14.6484375,0.0
1676923578.9106498,-26.3671875,-18.06640625,-58.10546875,-33.203125,0.0
1676923578.9109726,2.9296875,-30.2734375,-57.6171875,-52.24609375,0.0
1676923578.9112957,-23.92578125,-33.203125,-70.3125,-31.25,0.0
1676923578.9116187,-63.96484375,-36.62109375,-67.87109375,-4.8828125,2.0
1676923578.9162989,-44.921875,-40.52734375,-65.91796875,-10.7421875,0.0
1676923578.9209788,-1.46484375,-57.12890625,-74.21875,-30.2734375,0.0
1676923578.9256587,-2.9296875,-64.94140625,-66.40625,-20.01953125,0.0
1676923578.9303389,-45.41015625,-51.7578125,-52.24609375,0.9765625,0.0
1676923578.935019,-52.734375,-28.80859375,-49.8046875,-5.37109375,0.0
1676923578.939699,-7.8125,-18.5546875,-36.1328125,-21.97265625,0.0
1676923578.9443789,5.37109375,-14.16015625,-37.109375,-16.11328125,0.0
1676923578.949059,-37.109375,-18.06640625,-48.33984375,1.953125,0.0
1676923578.9537392,-55.17578125,-26.3671875,-63.4765625,2.44140625,0.0
1676923578.958419,-15.13671875,-29.296875,-74.21875,-24.90234375,0.0
1676923578.963099,9.765625,-35.15625,-75.68359375,-41.9921875,0.0
1676923578.9677792,-18.5546875,-50.29296875,-77.1484375,-13.18359375,0.0
1676923578.9765275,-48.33984375,-46.875,-66.89453125,5.859375,0.0
1676923578.9852757,-21.97265625,-55.17578125,-51.26953125,-15.625,0.0
1676923578.9940238,12.6953125,-61.03515625,-40.52734375,-45.8984375,0.0
1676923579.002772,-20.01953125,-34.1796875,-43.45703125,-41.50390625,0.0
1676923579.0115204,-65.91796875,-19.04296875,-47.8515625,-22.4609375,0.0
1676923579.0202684,-48.33984375,-17.578125,-47.8515625,-21.97265625,0.0
1676923579.0290167,-7.8125,-16.6015625,-68.359375,-43.9453125,0.0
1676923579.037765,-14.16015625,-25.390625,-79.58984375,-51.7578125,0.0
1676923579.0465133,-58.10546875,-39.0625,-74.21875,-19.04296875,0.0
1676923579.0552616,-62.98828125,-45.8984375,-79.1015625,-1.953125,0.0
1676923579.0640097,-13.671875,-61.03515625,-85.9375,-34.1796875,0.0
1676923579.072758,1.953125,-50.78125,-68.84765625,-47.36328125,0.0
1676923579.074116,-47.8515625,-38.57421875,-51.7578125,-23.4375,0.0
1676923579.075474,-65.4296875,-41.9921875,-59.08203125,-13.18359375,0.0
1676923579.076832,-15.13671875,-27.34375,-71.2890625,-31.73828125,0.0
1676923579.07819,11.23046875,-11.23046875,-70.80078125,-50.29296875,0.0
1676923579.0795481,-37.109375,-19.04296875,-72.75390625,-35.64453125,0.0
1676923579.0809062,-74.70703125,-24.90234375,-68.359375,-10.7421875,0.0
1676923579.0822642,-39.0625,-44.43359375,-75.1953125,-18.06640625,0.0
1676923579.0836222,4.39453125,-67.87109375,-84.9609375,-41.015625,0.0
1676923579.0849802,-7.8125,-64.453125,-70.3125,-28.3203125,0.0
1676923579.0863383,-53.22265625,-51.26953125,-67.87109375,-0.9765625,0.0
1676923579.0876963,-46.875,-43.45703125,-61.03515625,-8.7890625,0.0
1676923579.0890543,-9.765625,-47.36328125,-69.3359375,-40.52734375,0.0
1676923579.0901816,-11.71875,-48.828125,-62.5,-35.64453125,0.0
1676923579.0913088,-51.7578125,-40.0390625,-41.015625,-6.34765625,0.0
1676923579.0924363,-64.94140625,-23.92578125,-54.6875,-4.8828125,0.0
1676923579.0935636,-20.99609375,-28.80859375,-66.89453125,-28.80859375,0.0
1676923579.0946908,-0.48828125,-53.22265625,-70.3125,-36.1328125,0.0
1676923579.095818,-41.9921875,-65.4296875,-66.89453125,-12.6953125,0.0
1676923579.0969453,-68.359375,-53.22265625,-58.10546875,-8.7890625,0.0
1676923579.0980725,-27.83203125,-41.015625,-60.05859375,-34.1796875,0.0
1676923579.0991998,4.8828125,-39.0625,-66.40625,-54.19921875,0.0
1676923579.1003273,-26.3671875,-35.64453125,-78.125,-29.296875,0.0
1676923579.1014545,-67.3828125,-26.3671875,-80.078125,-11.23046875,0.0
1676923579.1025817,-43.45703125,-56.15234375,-55.17578125,-19.04296875,0.0
1676923579.1064088,6.8359375,-61.5234375,-58.59375,-38.0859375,0.0
1676923579.1102362,-7.32421875,-37.109375,-66.89453125,-46.38671875,0.0
1676923579.1140633,-54.19921875,-36.62109375,-57.12890625,-22.94921875,0.0
1676923579.1178904,-52.734375,-35.64453125,-72.75390625,-21.97265625,0.0
1676923579.1217175,-7.32421875,-49.8046875,-73.2421875,-43.45703125,0.0
1676923579.1255445,0.9765625,-51.7578125,-60.546875,-52.24609375,0.0
1676923579.129372,-48.33984375,-33.69140625,-61.03515625,-29.296875,0.0
1676923579.133199,-57.6171875,-20.01953125,-59.5703125,-7.8125,0.0
1676923579.137026,-9.27734375,-25.87890625,-56.640625,-23.4375,0.0
1676923579.1408534,8.7890625,-50.29296875,-57.12890625,-41.015625,0.0
1676923579.1446805,-30.2734375,-67.87109375,-58.10546875,-17.08984375,0.0
1676923579.1485076,-50.78125,-58.59375,-50.29296875,3.41796875,0.0
1676923579.1521857,-10.7421875,-36.1328125,-46.38671875,-26.3671875,0.0
1676923579.1558638,22.94921875,-22.4609375,-51.26953125,-58.59375,0.0
1676923579.1595416,-3.41796875,-22.4609375,-63.4765625,-31.73828125,0.0
1676923579.1632197,-51.26953125,-29.78515625,-69.82421875,-0.48828125,0.0
1676923579.1668978,-31.25,-37.59765625,-60.05859375,-14.6484375,0.0
1676923579.1705756,12.20703125,-32.71484375,-64.453125,-49.8046875,0.0
1676923579.1742537,-6.34765625,-23.92578125,-62.01171875,-42.48046875,0.0
1676923579.1779318,-50.29296875,-31.73828125,-44.921875,-11.23046875,0.0
1676923579.1816099,-44.921875,-45.8984375,-41.015625,-17.08984375,0.0
1676923579.185288,7.8125,-53.22265625,-43.9453125,-30.76171875,0.0
1676923579.1889658,14.16015625,-52.24609375,-63.4765625,-28.80859375,0.0
1676923579.192644,-43.45703125,-33.69140625,-75.68359375,-5.37109375,0.0
1676923579.1965003,-58.10546875,-18.5546875,-58.10546875,11.23046875,0.0
1676923579.2003567,-7.8125,-18.06640625,-53.22265625,-9.27734375,0.0
1676923579.2042131,16.6015625,-32.2265625,-72.265625,-28.80859375,0.0
1676923579.2080693,-20.01953125,-43.45703125,-78.61328125,-4.8828125,0.0
1676923579.2119257,-52.734375,-39.0625,-72.75390625,4.8828125,0.0
1676923579.2157822,-13.671875,-26.85546875,-59.5703125,-15.625,0.0
1676923579.2196386,24.4140625,-13.18359375,-45.8984375,-21.97265625,0.0
1676923579.223495,-8.7890625,-17.08984375,-58.59375,-11.23046875,0.0
1676923579.2273512,-53.22265625,-33.69140625,-67.87109375,6.8359375,0.0
1676923579.2312076,-31.73828125,-51.26953125,-63.4765625,0.48828125,0.0
1676923579.235064,13.671875,-62.01171875,-79.58984375,-31.73828125,0.0
1676923579.2389205,2.9296875,-61.5234375,-96.19140625,-30.2734375,0.0
1676923579.2438235,-45.41015625,-46.38671875,-88.37890625,-6.8359375,0.0
1676923579.2487264,-59.5703125,-27.83203125,-75.68359375,-14.6484375,0.0
1676923579.2536294,-17.578125,-23.92578125,-56.15234375,-35.15625,0.0
1676923579.2585325,3.90625,-31.25,-43.9453125,-39.0625,0.0
1676923579.2634354,-37.109375,-29.78515625,-55.17578125,-20.5078125,0.0
1676923579.2683384,-63.4765625,-31.25,-60.05859375,-4.39453125,0.0
1676923579.2732415,-19.04296875,-54.19921875,-59.5703125,-16.6015625,0.0
1676923579.2781444,15.13671875,-53.22265625,-70.80078125,-43.9453125,0.0
1676923579.2830474,-22.4609375,-35.15625,-72.75390625,-35.15625,0.0
1676923579.2879505,-60.546875,-38.57421875,-79.58984375,-17.578125,0.0
1676923579.2928534,-28.80859375,-50.78125,-75.68359375,-24.4140625,0.0
1676923579.2977564,14.6484375,-48.828125,-58.10546875,-39.0625,0.0
1676923579.3027582,-7.8125,-33.69140625,-46.38671875,-30.2734375,0.0
1676923579.3077598,-62.01171875,-21.484375,-39.0625,-14.16015625,0.0
1676923579.3127615,-52.734375,-21.97265625,-60.546875,-21.484375,0.0
1676923579.3177633,0.48828125,-26.3671875,-71.2890625,-49.8046875,0.0
1676923579.322765,1.46484375,-41.50390625,-57.6171875,-55.17578125,0.0
1676923579.327767,-46.875,-49.31640625,-60.546875,-27.83203125,0.0
1676923579.3327684,-50.29296875,-42.96875,-63.4765625,-15.13671875,0.0
1676923579.3377702,0.0,-45.8984375,-63.4765625,-41.015625,0.0
1676923579.342772,3.90625,-43.9453125,-71.77734375,-65.91796875,0.0
1676923579.3477736,-45.41015625,-53.7109375,-62.01171875,-34.1796875,0.0
1676923579.3527753,-76.66015625,-50.78125,-52.24609375,-22.4609375,0.0
1676923579.357777,-39.55078125,-44.43359375,-56.640625,-56.15234375,0.0
1676923579.3603106,-1.46484375,-36.1328125,-56.15234375,-57.6171875,0.0
1676923579.3628438,-33.203125,-28.3203125,-59.5703125,-30.76171875,0.0
1676923579.3653772,-60.05859375,-27.83203125,-61.5234375,-9.27734375,0.0
1676923579.3679104,-33.69140625,-15.13671875,-61.03515625,-26.3671875,0.0
1676923579.3704438,-1.953125,-28.80859375,-71.77734375,-54.6875,0.0
1676923579.3729773,-11.71875,-42.96875,-83.984375,-47.8515625,0.0
1676923579.3755105,-64.94140625,-47.8515625,-83.984375,-25.87890625,0.0
1676923579.378044,-60.05859375,-62.5,-68.359375,-32.2265625,0.0
1676923579.380577,-5.37109375,-68.84765625,-57.6171875,-48.828125,0.0
1676923579.3831105,-5.37109375,-40.52734375,-58.59375,-48.828125,0.0
1676923579.3856437,-48.33984375,-26.85546875,-68.359375,-28.80859375,0.0
1676923579.3881772,-55.17578125,-24.90234375,-69.3359375,-19.04296875,0.0
1676923579.3931997,-4.39453125,-27.83203125,-60.05859375,-31.25,0.0
1676923579.398222,14.16015625,-39.0625,-56.15234375,-35.64453125,0.0
1676923579.4032445,-27.83203125,-27.83203125,-55.17578125,-20.01953125,0.0
1676923579.408267,-64.94140625,-26.85546875,-50.78125,-10.25390625,0.0
1676923579.4132895,-30.2734375,-41.015625,-53.7109375,-25.87890625,0.0
1676923579.418312,2.44140625,-36.62109375,-50.78125,-48.828125,0.0
1676923579.4233344,-29.296875,-30.76171875,-44.921875,-32.2265625,0.0
1676923579.428357,-63.96484375,-62.01171875,-57.6171875,-7.32421875,0.0
1676923579.4333794,-42.48046875,-71.77734375,-63.4765625,-12.20703125,0.0
1676923579.4384017,-1.953125,-43.9453125,-77.1484375,-44.43359375,0.0
1676923579.4434242,-13.18359375,-47.8515625,-103.02734375,-53.22265625,0.0
1676923579.4484468,-55.17578125,-56.15234375,-103.515625,-14.6484375,0.0
1676923579.4522362,-52.24609375,-24.4140625,-85.44921875,-12.20703125,0.0
1676923579.4560256,-2.44140625,-7.32421875,-57.12890625,-34.66796875,0.0
1676923579.459815,-2.44140625,-30.2734375,-36.62109375,-51.7578125,0.0
1676923579.4636045,-54.19921875,-43.45703125,-40.52734375,-37.59765625,0.0
1676923579.4673939,-64.94140625,-37.109375,-45.8984375,-12.6953125,0.0
1676923579.4711833,-16.6015625,-37.59765625,-54.6875,-31.73828125,0.0
1676923579.4749727,12.6953125,-62.01171875,-64.94140625,-46.38671875,0.0
1676923579.4787621,-21.97265625,-84.9609375,-79.1015625,-15.625,0.0
1676923579.4825516,-63.96484375,-62.98828125,-83.49609375,-8.7890625,0.0
1676923579.486341,-41.015625,-31.25,-77.1484375,-37.109375,0.0
1676923579.4901304,-3.41796875,-9.27734375,-69.3359375,-49.8046875,0.0
1676923579.4939198,-31.25,-9.27734375,-55.17578125,-30.76171875,0.0
1676923579.4975727,-72.75390625,-24.4140625,-46.38671875,-6.8359375,0.0
1676923579.5012257,-46.38671875,-35.64453125,-52.734375,-25.87890625,0.0
1676923579.5048785,3.41796875,-40.52734375,-55.6640625,-50.78125,0.0
1676923579.5085316,-2.44140625,-40.52734375,-52.24609375,-47.8515625,0.0
1676923579.5121844,-40.52734375,-48.33984375,-58.10546875,-19.04296875,0.0
1676923579.5158372,-41.9921875,-62.01171875,-66.89453125,-16.6015625,0.0
1676923579.5194902,-1.46484375,-79.1015625,-82.51953125,-46.38671875,0.0
1676923579.523143,13.671875,-51.7578125,-80.56640625,-43.45703125,0.0
1676923579.526796,-31.73828125,-20.99609375,-80.078125,-23.92578125,0.0
1676923579.530449,-61.03515625,-32.2265625,-80.078125,-18.5546875,0.0
1676923579.534102,-22.4609375,-26.3671875,-72.265625,-34.1796875,0.0
1676923579.5377548,4.39453125,-22.94921875,-71.2890625,-38.0859375,0.0
1676923579.5415041,-28.3203125,-37.59765625,-64.94140625,-19.04296875,0.0
1676923579.5452535,-62.98828125,-53.7109375,-57.6171875,-11.23046875,0.0
1676923579.5490031,-32.71484375,-51.7578125,-61.5234375,-20.01953125,0.0
1676923579.5527525,11.71875,-41.9921875,-57.6171875,-41.50390625,0.0
1676923579.5565019,-7.8125,-61.03515625,-50.29296875,-39.55078125,0.0
1676923579.5602512,-58.10546875,-58.59375,-60.05859375,-12.20703125,0.0
1676923579.5640006,-45.8984375,-29.78515625,-65.91796875,-14.6484375,0.0
1676923579.56775,5.859375,-18.5546875,-64.94140625,-33.203125,0.0
1676923579.5714993,9.27734375,-19.04296875,-61.03515625,-30.76171875,0.0
1676923579.575249,-42.48046875,-39.0625,-62.01171875,-19.04296875,0.0
1676923579.5789983,-61.5234375,-42.96875,-85.44921875,-5.859375,0.0
1676923579.5827477,-13.671875,-38.0859375,-88.37890625,-12.20703125,0.0
1676923579.585241,3.90625,-51.7578125,-55.6640625,-32.71484375,0.0
1676923579.5877342,-35.64453125,-41.015625,-41.015625,-9.27734375,0.0
1676923579.5902276,-57.6171875,-32.71484375,-47.36328125,-2.44140625,0.0
1676923579.592721,-20.5078125,-38.57421875,-60.546875,-25.87890625,0.0
1676923579.5952144,14.16015625,-55.6640625,-69.82421875,-35.15625,0.0
1676923579.5977077,-9.765625,-39.55078125,-59.08203125,-14.6484375,0.0
1676923579.600201,-53.7109375,-12.6953125,-61.03515625,-3.41796875,0.0
1676923579.6026943,-32.2265625,-28.80859375,-61.03515625,-24.4140625,0.0
1676923579.6051877,16.11328125,-36.62109375,-49.8046875,-44.921875,0.0
1676923579.6076808,-0.48828125,-33.69140625,-50.78125,-37.59765625,0.0
1676923579.6101742,-58.10546875,-35.64453125,-50.78125,-12.20703125,0.0
1676923579.6126676,-57.6171875,-35.15625,-60.05859375,-21.484375,0.0
1676923579.6164236,-0.9765625,-44.43359375,-82.51953125,-44.43359375,0.0
1676923579.6201794,2.9296875,-49.31640625,-89.84375,-47.36328125,0.0
1676923579.6239355,-53.7109375,-41.9921875,-75.68359375,-29.78515625,0.0
1676923579.6276915,-66.89453125,-37.109375,-72.75390625,-21.484375,0.0
1676923579.6314473,-26.3671875,-47.36328125,-79.1015625,-45.8984375,0.0
1676923579.6352034,-14.16015625,-59.5703125,-83.49609375,-60.05859375,0.0
1676923579.6389594,-54.19921875,-50.78125,-80.56640625,-34.66796875,0.0
1676923579.6427152,-84.9609375,-41.015625,-82.51953125,-32.71484375,0.0
1676923579.6464713,-42.96875,-52.734375,-83.0078125,-58.10546875,0.0
1676923579.6502273,-1.953125,-62.98828125,-74.70703125,-70.80078125,0.0
1676923579.653983,-35.64453125,-43.45703125,-86.9140625,-55.17578125,0.0
1676923579.6577392,-66.89453125,-35.64453125,-89.84375,-30.76171875,1.0
1676923579.6628954,-41.50390625,-32.2265625,-63.96484375,-39.0625,0.0
1676923579.6680517,-4.8828125,-16.6015625,-41.9921875,-59.08203125,0.0
1676923579.6732078,-8.7890625,-12.6953125,-35.64453125,-42.96875,0.0
1676923579.678364,-56.640625,-27.83203125,-42.48046875,-18.5546875,0.0
1676923579.6835203,-59.08203125,-39.0625,-59.5703125,-26.85546875,0.0
1676923579.6886764,-11.23046875,-34.66796875,-65.91796875,-49.31640625,0.0
1676923579.6938326,-0.9765625,-28.3203125,-58.10546875,-56.15234375,0.0
1676923579.698989,-38.0859375,-31.73828125,-60.546875,-32.71484375,0.0
1676923579.7041452,-58.59375,-47.8515625,-71.2890625,-20.5078125,0.0
1676923579.7093015,-13.18359375,-51.26953125,-74.70703125,-37.59765625,0.0
1676923579.7144575,20.01953125,-40.0390625,-61.03515625,-39.55078125,0.0
1676923579.7196138,-24.4140625,-34.66796875,-55.17578125,-27.83203125,0.0
1676923579.7232342,-55.17578125,-25.87890625,-56.640625,-11.71875,0.0
1676923579.7268546,-16.11328125,-28.3203125,-49.31640625,-20.01953125,0.0
1676923579.730475,18.5546875,-47.36328125,-48.828125,-50.78125,0.0
1676923579.734095,-2.9296875,-62.01171875,-54.6875,-31.25,0.0
1676923579.7377155,-55.6640625,-53.22265625,-52.734375,-5.37109375,0.0
1676923579.7413359,-66.40625,-40.52734375,-50.29296875,-36.62109375,0.0
1676923579.7449563,-8.7890625,-39.55078125,-61.03515625,-49.8046875,0.0
1676923579.7485766,-0.9765625,-35.15625,-68.359375,-43.45703125,0.0
1676923579.7521968,-53.7109375,-34.66796875,-56.15234375,-30.2734375,0.0
1676923579.7558172,-56.15234375,-38.57421875,-45.41015625,-9.27734375,0.0
1676923579.7594376,-16.6015625,-29.296875,-44.921875,-42.48046875,0.0
1676923579.763058,-10.7421875,-31.73828125,-58.10546875,-61.5234375,0.0
1676923579.766783,-59.5703125,-40.52734375,-61.5234375,-35.15625,0.0
1676923579.770508,-83.984375,-36.1328125,-58.10546875,-25.87890625,0.0
1676923579.774233,-31.73828125,-40.0390625,-63.4765625,-47.8515625,0.0
1676923579.7779582,6.34765625,-55.6640625,-71.77734375,-51.7578125,0.0
1676923579.7816832,-34.1796875,-60.05859375,-70.80078125,-31.73828125,0.0
1676923579.7854085,-73.73046875,-52.734375,-60.546875,-13.671875,0.0
1676923579.7891335,-37.109375,-43.9453125,-71.2890625,-33.203125,0.0
1676923579.7928586,6.8359375,-42.48046875,-78.125,-57.6171875,0.0
1676923579.7965837,-17.578125,-56.640625,-61.03515625,-36.62109375,0.0
1676923579.8003087,-63.4765625,-33.203125,-48.33984375,-8.30078125,0.0
1676923579.8040338,-49.31640625,-12.20703125,-53.22265625,-19.53125,0.0
1676923579.8077588,-2.9296875,-33.69140625,-57.12890625,-47.8515625,0.0
1676923579.8115501,-7.8125,-30.2734375,-60.546875,-50.78125,0.0
1676923579.8153415,-49.31640625,-23.4375,-67.3828125,-27.34375,0.0
1676923579.8191326,-54.6875,-27.83203125,-62.5,-23.4375,0.0
1676923579.822924,-9.765625,-40.0390625,-63.96484375,-46.875,0.0
1676923579.8267152,3.41796875,-58.10546875,-65.91796875,-50.78125,0.0
1676923579.8305063,-44.921875,-57.12890625,-68.359375,-27.83203125,0.0
1676923579.8342977,-67.3828125,-41.50390625,-79.58984375,-20.99609375,0.0
1676923579.838089,-20.01953125,-36.62109375,-77.1484375,-32.71484375,0.0
1676923579.8418803,9.27734375,-38.57421875,-66.40625,-49.31640625,0.0
1676923579.8456717,-27.34375,-38.0859375,-62.5,-43.45703125,0.0
1676923579.8494627,-69.82421875,-30.76171875,-65.91796875,-21.97265625,0.0
1676923579.853254,-46.875,-29.296875,-67.87109375,-30.76171875,0.0
1676923579.8570602,2.9296875,-36.1328125,-82.51953125,-42.96875,0.0
1676923579.860866,-2.44140625,-40.52734375,-74.70703125,-33.69140625,0.0
1676923579.8646722,-50.78125,-42.96875,-60.05859375,-18.5546875,0.0
1676923579.868478,-35.64453125,-39.55078125,-60.546875,-12.20703125,0.0
1676923579.8722842,21.484375,-31.25,-66.40625,-22.94921875,0.0
1676923579.87609,11.23046875,-35.15625,-72.265625,-28.80859375,0.0
1676923579.8798962,-35.64453125,-49.31640625,-62.01171875,-5.859375,0.0
1676923579.8837023,-44.921875,-41.015625,-43.9453125,10.7421875,0.0
1676923579.8875082,0.0,-36.62109375,-43.9453125,-12.6953125,0.0
1676923579.8913143,26.85546875,-47.8515625,-64.453125,-34.66796875,0.0
1676923579.8951201,-18.06640625,-43.9453125,-57.6171875,-11.23046875,0.0
1676923579.8989263,-49.8046875,-24.4140625,-36.62109375,8.7890625,0.0
1676923579.9026759,-15.13671875,-28.80859375,-45.8984375,-19.53125,0.0
1676923579.9064255,21.97265625,-32.71484375,-49.31640625,-45.41015625,0.0
1676923579.9101748,-7.32421875,-20.99609375,-62.5,-21.97265625,0.0
1676923579.9139245,-58.10546875,-26.85546875,-77.63671875,-5.37109375,0.0
1676923579.917674,-35.64453125,-41.9921875,-65.4296875,-16.6015625,0.0
1676923579.9214234,9.27734375,-40.52734375,-65.4296875,-29.78515625,0.0
1676923579.925173,0.0,-30.76171875,-75.1953125,-25.390625,0.0
1676923579.9289227,-49.31640625,-40.52734375,-57.12890625,-0.9765625,0.0
1676923579.9326723,-57.6171875,-61.03515625,-36.62109375,-12.6953125,0.0
1676923579.9364219,-4.39453125,-54.19921875,-38.0859375,-36.62109375,0.0
1676923579.9401712,18.06640625,-28.3203125,-39.55078125,-31.73828125,0.0
1676923579.9439209,-27.83203125,-12.6953125,-44.43359375,-10.25390625,0.0
1676923579.9475768,-46.38671875,-24.4140625,-53.22265625,-1.46484375,0.0
1676923579.9512327,-3.90625,-51.26953125,-58.10546875,-20.01953125,0.0
1676923579.9548883,15.13671875,-52.24609375,-67.3828125,-33.69140625,0.0
1676923579.9585443,-24.90234375,-25.87890625,-68.359375,-17.578125,0.0
1676923579.9622002,-60.05859375,-21.97265625,-65.91796875,-3.41796875,0.0
1676923579.965856,-24.90234375,-36.1328125,-55.6640625,-19.04296875,0.0
1676923579.969512,3.90625,-34.1796875,-48.33984375,-30.76171875,0.0
1676923579.973168,-21.97265625,-23.92578125,-60.546875,-17.08984375,0.0
1676923579.9768238,-62.5,-35.15625,-63.96484375,-8.30078125,0.0
1676923579.9804795,-51.7578125,-56.15234375,-53.22265625,-16.11328125,0.0
1676923579.9841354,-5.859375,-56.640625,-42.48046875,-38.57421875,0.0
1676923579.9877913,-10.25390625,-50.78125,-50.78125,-40.0390625,0.0
1676923579.992823,-62.5,-50.29296875,-71.2890625,-25.390625,0.0
1676923579.9978545,-68.84765625,-30.2734375,-72.265625,-17.578125,0.0
1676923580.0028858,-17.578125,-22.4609375,-61.5234375,-27.34375,0.0
1676923580.0079174,-10.25390625,-31.73828125,-68.359375,-55.17578125,0.0
1676923580.012949,-56.640625,-51.7578125,-57.6171875,-48.33984375,0.0
1676923580.0179806,-79.58984375,-57.12890625,-48.33984375,-33.203125,0.0
1676923580.0230122,-37.109375,-42.96875,-63.4765625,-41.9921875,0.0
1676923580.0280437,-6.34765625,-42.96875,-66.89453125,-55.17578125,0.0
1676923580.0330753,-39.55078125,-41.50390625,-59.5703125,-38.0859375,0.0
1676923580.0381067,-75.1953125,-31.73828125,-64.94140625,-18.5546875,0.0
1676923580.0431383,-42.96875,-29.78515625,-70.3125,-30.2734375,0.0
1676923580.0481699,-2.9296875,-50.29296875,-64.453125,-47.36328125,0.0
1676923580.0531614,-21.97265625,-45.41015625,-56.640625,-34.66796875,0.0
1676923580.0581527,-66.40625,-31.73828125,-57.6171875,-16.6015625,0.0
1676923580.0631442,-51.7578125,-31.73828125,-62.01171875,-24.4140625,0.0
1676923580.0681357,-5.37109375,-31.25,-67.3828125,-45.8984375,0.0
1676923580.073127,-9.27734375,-35.64453125,-56.640625,-43.9453125,0.0
1676923580.0781186,-43.9453125,-45.41015625,-43.45703125,-0.9765625,0.0
1676923580.08311,-52.734375,-64.453125,-42.48046875,3.90625,0.0
1676923580.0881014,-13.18359375,-46.875,-60.05859375,-34.66796875,0.0
1676923580.093093,4.8828125,-30.2734375,-81.54296875,-44.43359375,0.0
1676923580.0980844,-38.0859375,-41.50390625,-69.3359375,-24.4140625,0.0
1676923580.1030757,-70.3125,-36.62109375,-62.01171875,-23.92578125,0.0
1676923580.1080673,-33.203125,-38.57421875,-61.5234375,-46.38671875,0.0
1676923580.1106694,2.44140625,-35.64453125,-56.15234375,-45.8984375,0.0
1676923580.1132712,-30.2734375,-21.97265625,-59.08203125,-23.92578125,0.0
1676923580.1158733,-73.2421875,-30.76171875,-58.59375,-19.04296875,0.0
1676923580.1184754,-35.64453125,-53.7109375,-51.26953125,-25.87890625,0.0
1676923580.1210773,8.7890625,-46.38671875,-55.6640625,-44.43359375,0.0
1676923580.1236794,-13.18359375,-27.83203125,-67.3828125,-37.59765625,0.0
1676923580.1262815,-58.10546875,-27.83203125,-79.58984375,-20.01953125,0.0
1676923580.1288834,-51.7578125,-41.9921875,-94.7265625,-27.34375,0.0
1676923580.1314855,1.46484375,-45.8984375,-93.75,-41.50390625,0.0
1676923580.1340876,0.9765625,-32.2265625,-77.1484375,-51.7578125,0.0
1676923580.1366894,-48.33984375,-34.1796875,-65.4296875,-30.76171875,0.0
1676923580.1392915,-55.17578125,-45.41015625,-77.1484375,-19.04296875,0.0
1676923580.1429155,-5.859375,-49.31640625,-85.9375,-36.1328125,0.0
1676923580.1465394,12.6953125,-41.015625,-77.1484375,-42.48046875,0.0
1676923580.1501634,-32.2265625,-43.45703125,-73.73046875,-32.71484375,0.0
1676923580.1537874,-60.546875,-46.875,-74.21875,-24.4140625,0.0
1676923580.1574113,-21.97265625,-43.9453125,-68.359375,-32.2265625,0.0
1676923580.1610355,18.06640625,-44.43359375,-55.6640625,-34.66796875,0.0
1676923580.1646595,-9.765625,-40.52734375,-70.80078125,-29.296875,0.0
1676923580.1682835,-52.734375,-27.34375,-81.54296875,-18.5546875,0.0
1676923580.1719074,-28.80859375,-14.6484375,-54.6875,-6.34765625,0.0
1676923580.1755314,17.08984375,-16.11328125,-43.9453125,-28.3203125,0.0
1676923580.1791553,5.37109375,-26.3671875,-46.875,-36.1328125,0.0
1676923580.1827793,-39.55078125,-33.69140625,-56.15234375,-5.37109375,0.0
1676923580.186555,-35.15625,-33.203125,-60.05859375,-2.44140625,0.0
1676923580.1903305,11.23046875,-42.96875,-62.01171875,-28.3203125,0.0
1676923580.1941063,12.6953125,-53.22265625,-70.80078125,-37.109375,0.0
1676923580.197882,-43.9453125,-43.45703125,-65.4296875,-15.625,0.0
1676923580.2016575,-70.3125,-32.71484375,-64.453125,-12.20703125,0.0
1676923580.2054334,-19.53125,-20.99609375,-76.171875,-31.25,0.0
1676923580.209209,14.6484375,-24.90234375,-60.05859375,-44.921875,0.0
1676923580.2129846,-26.85546875,-42.96875,-45.8984375,-29.296875,0.0
1676923580.2167602,-57.6171875,-45.8984375,-45.41015625,-12.6953125,0.0
1676923580.2205358,-21.97265625,-51.7578125,-47.36328125,-40.0390625,0.0
1676923580.2243116,10.7421875,-45.8984375,-57.12890625,-57.12890625,0.0
1676923580.2280872,-16.11328125,-30.2734375,-65.4296875,-28.3203125,0.0
1676923580.23306,-54.19921875,-43.9453125,-65.4296875,-6.8359375,0.0
1676923580.2380326,-33.203125,-58.10546875,-60.546875,-14.16015625,0.0
1676923580.2430053,26.85546875,-58.59375,-59.08203125,-13.671875,0.0
1676923580.247978,21.484375,-42.96875,-63.4765625,-9.27734375,0.0
1676923580.2529507,-40.0390625,-20.01953125,-64.94140625,-3.41796875,0.0
1676923580.2579234,-45.41015625,-15.625,-58.10546875,-2.44140625,0.0
1676923580.262896,2.44140625,-26.3671875,-51.26953125,-22.4609375,0.0
1676923580.2678688,21.484375,-22.94921875,-54.19921875,-19.53125,0.0
1676923580.2728415,-21.97265625,-18.5546875,-60.05859375,0.0,0.0
1676923580.2778141,-55.6640625,-35.64453125,-63.4765625,-8.7890625,0.0
1676923580.2827868,-3.90625,-41.9921875,-72.75390625,-24.4140625,0.0
1676923580.2877595,31.25,-33.203125,-74.21875,-32.2265625,0.0
1676923580.2903552,-4.8828125,-38.0859375,-66.89453125,-16.11328125,0.0
1676923580.2929509,-30.2734375,-39.0625,-67.3828125,3.90625,0.0
1676923580.2955465,0.48828125,-32.2265625,-63.4765625,-14.16015625,0.0
1676923580.2981422,31.25,-39.0625,-54.6875,-37.109375,0.0
1676923580.3007379,11.71875,-34.1796875,-57.6171875,-22.4609375,0.0
1676923580.3033335,-33.203125,-38.0859375,-65.4296875,-6.8359375,0.0
1676923580.3059292,-28.3203125,-55.17578125,-63.4765625,-8.30078125,0.0
1676923580.3085248,13.18359375,-44.43359375,-60.05859375,-25.390625,0.0
1676923580.3111205,12.6953125,-19.04296875,-67.3828125,-35.15625,0.0
1676923580.3137162,-25.87890625,-19.53125,-65.4296875,-19.53125,0.0
1676923580.3163118,-41.9921875,-21.484375,-62.98828125,-10.7421875,0.0
1676923580.3189075,3.90625,-24.4140625,-61.03515625,-21.484375,0.0
1676923580.3226585,23.4375,-31.73828125,-60.546875,-38.0859375,0.0
1676923580.3264098,-20.99609375,-32.71484375,-69.3359375,-18.06640625,0.0
1676923580.3301609,-46.875,-39.55078125,-68.84765625,-1.953125,0.0
1676923580.333912,-10.25390625,-44.43359375,-69.3359375,-24.90234375,0.0
1676923580.3376632,17.578125,-38.57421875,-66.40625,-39.55078125,0.0
1676923580.3414142,-24.4140625,-35.64453125,-59.08203125,-25.87890625,0.0
1676923580.3451653,-66.89453125,-44.43359375,-57.6171875,0.0,0.0
1676923580.3489165,-36.62109375,-48.33984375,-55.6640625,0.48828125,0.0
1676923580.3526676,9.765625,-41.50390625,-55.6640625,-30.2734375,0.0
1676923580.3564186,-8.30078125,-25.87890625,-66.40625,-25.390625,0.0
1676923580.36017,-46.875,-20.99609375,-67.87109375,0.48828125,0.0
1676923580.363921,-41.9921875,-26.85546875,-65.91796875,-8.7890625,0.0
1676923580.3675854,5.37109375,-25.87890625,-71.77734375,-34.1796875,0.0
1676923580.3712497,19.53125,-25.390625,-71.77734375,-31.73828125,0.0
1676923580.3749142,-29.296875,-36.62109375,-71.2890625,-10.7421875,0.0
1676923580.3785787,-45.41015625,-45.8984375,-65.91796875,-6.34765625,0.0
1676923580.382243,-7.32421875,-39.0625,-72.75390625,-32.2265625,0.0
1676923580.3859074,6.8359375,-23.4375,-76.66015625,-48.828125,0.0
1676923580.389572,-32.71484375,-29.78515625,-69.3359375,-22.4609375,0.0
1676923580.3932362,-54.6875,-29.296875,-59.5703125,-6.34765625,0.0
1676923580.3969007,-15.13671875,-10.25390625,-54.19921875,-32.2265625,0.0
1676923580.4005651,6.8359375,-7.8125,-70.80078125,-58.10546875,0.0
1676923580.4042294,-25.87890625,-24.4140625,-70.80078125,-38.57421875,0.0
1676923580.407894,-62.98828125,-33.203125,-64.94140625,-18.06640625,0.0
1676923580.4128816,-39.55078125,-35.64453125,-82.51953125,-21.97265625,0.0
1676923580.4178696,5.37109375,-59.08203125,-76.66015625,-31.25,0.0
1676923580.4228573,-8.30078125,-66.40625,-58.10546875,-30.2734375,0.0
1676923580.4278452,-55.6640625,-33.69140625,-53.7109375,-9.27734375,0.0
1676923580.432833,-59.08203125,-21.97265625,-63.4765625,-12.6953125,0.0
1676923580.437821,-11.71875,-27.83203125,-76.171875,-38.57421875,0.0
1676923580.4428086,-0.9765625,-24.4140625,-83.984375,-46.875,0.0
1676923580.4477963,-57.12890625,-32.71484375,-83.49609375,-33.203125,0.0
1676923580.4527843,-73.2421875,-43.45703125,-70.3125,-21.97265625,0.0
1676923580.457772,-18.5546875,-32.71484375,-60.05859375,-32.71484375,0.0
1676923580.46276,1.953125,-21.97265625,-67.3828125,-45.41015625,0.0
1676923580.4677477,-32.71484375,-29.296875,-78.61328125,-22.94921875,1.0
1676923580.4727643,-55.6640625,-56.15234375,-69.3359375,1.46484375,0.0
1676923580.4777808,-23.92578125,-53.22265625,-56.15234375,-7.32421875,0.0
1676923580.4827971,14.16015625,-17.578125,-50.78125,-26.85546875,0.0
1676923580.4878137,-15.13671875,-11.71875,-47.36328125,-16.6015625,0.0
1676923580.4928303,-58.59375,-19.04296875,-58.10546875,4.39453125,0.0
1676923580.4978466,-43.9453125,-15.13671875,-75.1953125,-2.9296875,0.0
1676923580.5028632,-2.44140625,-20.99609375,-69.3359375,-29.296875,0.0
1676923580.5078797,-10.25390625,-31.73828125,-58.10546875,-36.62109375,0.0
1676923580.5128963,-56.640625,-34.66796875,-56.15234375,-13.671875,0.0
1676923580.5179129,-61.03515625,-48.33984375,-66.89453125,-10.25390625,0.0
1676923580.5229292,-10.7421875,-44.921875,-69.82421875,-34.1796875,0.0
1676923580.5279458,6.8359375,-38.0859375,-68.359375,-41.015625,0.0
1676923580.5304554,-36.1328125,-49.31640625,-71.77734375,-11.23046875,0.0
1676923580.5329647,-64.453125,-54.6875,-67.87109375,-2.44140625,0.0
1676923580.5354743,-27.83203125,-50.29296875,-65.91796875,-30.76171875,0.0
1676923580.537984,3.41796875,-20.01953125,-63.96484375,-41.50390625,0.0
1676923580.5404932,-32.2265625,-12.20703125,-64.94140625,-20.99609375,0.0
1676923580.5430028,-58.10546875,-36.62109375,-58.59375,-4.39453125,0.0
1676923580.5455124,-22.94921875,-31.73828125,-51.7578125,-19.04296875,0.0
1676923580.5480218,13.18359375,-16.6015625,-61.5234375,-35.15625,0.0
1676923580.5505314,-4.8828125,-31.25,-59.08203125,-20.01953125,0.0
1676923580.553041,-51.7578125,-30.76171875,-53.7109375,0.48828125,0.0
1676923580.5555503,-38.57421875,-31.73828125,-73.2421875,-10.7421875,0.0
1676923580.55806,22.4609375,-26.3671875,-81.54296875,-24.4140625,0.0
1676923580.5619202,14.16015625,-20.99609375,-70.3125,-22.4609375,0.0
1676923580.5657804,-37.59765625,-30.76171875,-58.10546875,-15.13671875,0.0
1676923580.5696406,-46.875,-35.64453125,-63.96484375,-11.71875,0.0
1676923580.5735009,-2.9296875,-44.921875,-67.3828125,-33.203125,0.0
1676923580.577361,8.7890625,-45.8984375,-65.4296875,-45.8984375,0.0
1676923580.5812213,-36.1328125,-24.90234375,-69.82421875,-27.34375,0.0
1676923580.5850816,-56.15234375,-17.08984375,-65.91796875,-24.4140625,0.0
1676923580.5889418,-13.671875,-33.203125,-72.75390625,-35.64453125,0.0
1676923580.592802,16.11328125,-36.62109375,-77.1484375,-40.0390625,0.0
1676923580.5966623,-17.08984375,-31.25,-73.73046875,-22.4609375,0.0
1676923580.6005225,-52.734375,-39.0625,-82.51953125,-1.46484375,0.0
1676923580.6043828,-28.3203125,-54.6875,-74.21875,-15.625,0.0
1676923580.6079907,6.8359375,-46.38671875,-57.6171875,-44.43359375,0.0
1676923580.6115985,-14.16015625,-29.296875,-57.6171875,-41.9921875,0.0
1676923580.6152062,-58.59375,-30.76171875,-59.5703125,-12.6953125,0.0
1676923580.6188142,-52.24609375,-41.9921875,-67.87109375,-13.18359375,0.0
1676923580.6224222,-7.32421875,-34.66796875,-75.1953125,-40.52734375,0.0
1676923580.62603,0.9765625,-26.3671875,-62.01171875,-43.9453125,0.0
1676923580.6296377,-40.0390625,-42.48046875,-57.6171875,-15.625,0.0
1676923580.6332457,-52.734375,-47.8515625,-74.21875,-1.46484375,0.0
1676923580.6368537,-7.8125,-34.1796875,-78.61328125,-20.99609375,0.0
1676923580.6404614,13.18359375,-25.390625,-80.56640625,-44.921875,0.0
1676923580.6440692,-34.1796875,-24.90234375,-66.89453125,-23.4375,0.0
1676923580.6476772,-63.4765625,-25.87890625,-49.31640625,-9.27734375,0.0
1676923580.6514301,-22.94921875,-32.71484375,-51.26953125,-32.71484375,0.0
1676923580.6551828,12.6953125,-41.50390625,-63.4765625,-51.26953125,0.0
1676923580.6589358,-19.04296875,-46.38671875,-75.1953125,-39.0625,0.0
1676923580.6626887,-69.82421875,-41.50390625,-81.0546875,-35.64453125,0.0
1676923580.6664414,-48.828125,-36.1328125,-78.61328125,-48.828125,0.0
1676923580.6701944,1.46484375,-38.57421875,-69.3359375,-62.01171875,0.0
1676923580.6739473,-12.20703125,-47.8515625,-67.3828125,-53.22265625,0.0
1676923580.6777,-58.59375,-45.41015625,-63.96484375,-27.83203125,0.0
1676923580.681453,-54.6875,-34.1796875,-77.63671875,-32.71484375,0.0
1676923580.685206,-4.39453125,-40.0390625,-76.66015625,-52.24609375,0.0
1676923580.6889586,1.953125,-43.9453125,-53.7109375,-57.12890625,0.0
1676923580.6927116,-47.36328125,-45.8984375,-47.36328125,-38.57421875,0.0
1676923580.696459,-55.6640625,-52.24609375,-60.05859375,-29.296875,0.0
1676923580.7002063,-7.32421875,-38.57421875,-66.40625,-44.921875,0.0
1676923580.7039537,13.18359375,-31.73828125,-62.98828125,-40.52734375,0.0
1676923580.707701,-21.97265625,-34.1796875,-64.94140625,-17.578125,0.0
1676923580.7114484,-58.59375,-33.69140625,-75.68359375,-25.87890625,0.0
1676923580.7151957,-28.80859375,-27.34375,-78.125,-38.0859375,0.0
1676923580.718943,3.90625,-28.80859375,-74.21875,-46.875,0.0
1676923580.7226906,-23.92578125,-38.0859375,-77.1484375,-35.64453125,0.0
1676923580.7264378,-60.05859375,-51.7578125,-83.0078125,-17.08984375,0.0
1676923580.7301853,-45.8984375,-66.40625,-79.58984375,-26.3671875,0.0
1676923580.7339325,-5.859375,-50.78125,-71.2890625,-45.41015625,0.0
1676923580.73768,-9.27734375,-41.015625,-67.87109375,-41.50390625,0.0
1676923580.7440596,-44.43359375,-46.38671875,-67.87109375,-14.6484375,0.0
1676923580.7504392,-45.8984375,-38.57421875,-66.40625,-4.39453125,0.0
1676923580.7568185,2.44140625,-34.66796875,-62.5,-17.578125,0.0
1676923580.7631981,18.5546875,-46.875,-65.4296875,-25.87890625,0.0
1676923580.7695777,-25.390625,-46.875,-68.84765625,-19.04296875,0.0
1676923580.775957,-51.7578125,-42.96875,-67.87109375,-16.6015625,0.0
1676923580.7823367,-18.06640625,-36.62109375,-71.77734375,-32.71484375,0.0
1676923580.7887163,6.8359375,-28.3203125,-90.8203125,-50.29296875,0.0
1676923580.795096,-30.76171875,-41.015625,-86.42578125,-31.25,0.0
1676923580.8014755,-62.5,-49.8046875,-54.19921875,-5.859375,0.0
1676923580.807855,-28.80859375,-37.59765625,-51.26953125,-20.01953125,0.0
1676923580.8142345,10.7421875,-35.15625,-69.3359375,-31.73828125,0.0
1676923580.8166687,-15.13671875,-37.59765625,-64.94140625,-22.94921875,0.0
1676923580.8191032,-56.15234375,-28.3203125,-57.12890625,-4.8828125,0.0
1676923580.8215375,-32.2265625,-24.4140625,-60.05859375,-9.27734375,0.0
1676923580.823972,14.6484375,-31.25,-57.12890625,-36.1328125,0.0
1676923580.8264062,12.20703125,-43.9453125,-56.15234375,-29.78515625,0.0
1676923580.8288407,-41.50390625,-54.6875,-67.87109375,-1.46484375,0.0
1676923580.831275,-59.08203125,-53.7109375,-66.89453125,1.46484375,0.0
1676923580.8337092,-7.32421875,-32.2265625,-63.4765625,-15.13671875,0.0
1676923580.8361437,8.7890625,-25.390625,-79.1015625,-25.390625,0.0
1676923580.838578,-31.73828125,-62.5,-72.75390625,-0.48828125,0.0
1676923580.8410125,-51.26953125,-70.80078125,-55.17578125,14.16015625,0.0
1676923580.8434467,-12.20703125,-38.0859375,-55.17578125,-6.8359375,0.0
1676923580.8471594,18.06640625,-28.3203125,-58.10546875,-22.4609375,0.0
1676923580.850872,-23.4375,-33.69140625,-58.10546875,-2.9296875,0.0
1676923580.8545847,-63.4765625,-33.69140625,-56.640625,8.7890625,0.0
1676923580.858297,-27.83203125,-44.43359375,-61.5234375,-10.25390625,0.0
1676923580.8620098,10.25390625,-50.78125,-54.6875,-31.25,0.0
1676923580.8657224,-8.7890625,-35.64453125,-53.22265625,-28.3203125,0.0
1676923580.869435,-51.26953125,-26.3671875,-53.22265625,-4.39453125,0.0
1676923580.8731477,-38.0859375,-21.484375,-56.15234375,-5.859375,0.0
1676923580.8768601,14.6484375,-20.01953125,-62.5,-23.92578125,0.0
1676923580.8805728,18.5546875,-29.78515625,-72.75390625,-22.4609375,0.0
1676923580.8842854,-21.484375,-37.109375,-81.0546875,-8.30078125,0.0
1676923580.887998,-41.9921875,-49.31640625,-64.453125,-13.671875,0.0
1676923580.8917863,-7.32421875,-45.41015625,-51.7578125,-35.64453125,0.0
1676923580.8955746,18.06640625,-27.34375,-54.6875,-40.0390625,0.0
1676923580.8993628,-24.90234375,-28.80859375,-56.15234375,-23.92578125,0.0
1676923580.903151,-61.03515625,-33.203125,-59.08203125,-19.53125,0.0
1676923580.9069393,-17.578125,-31.25,-54.6875,-31.25,0.0
1676923580.9107275,16.6015625,-27.34375,-58.10546875,-41.015625,0.0
1676923580.914516,-17.578125,-27.83203125,-73.2421875,-29.78515625,0.0
1676923580.9183042,-58.59375,-38.0859375,-83.49609375,-12.6953125,0.0
1676923580.9220924,-32.71484375,-54.6875,-84.9609375,-15.13671875,0.0
1676923580.9258807,8.30078125,-65.4296875,-86.42578125,-45.41015625,0.0
1676923580.929669,-8.30078125,-40.52734375,-85.9375,-48.33984375,0.0
1676923580.9334571,-59.5703125,-32.2265625,-69.82421875,-18.5546875,0.0
1676923580.9372268,-65.4296875,-32.71484375,-59.5703125,-22.94921875,0.0
1676923580.9409962,-10.7421875,-24.4140625,-63.4765625,-42.96875,0.0
1676923580.9447658,2.9296875,-34.1796875,-65.4296875,-39.0625,0.0
1676923580.9485354,-43.9453125,-36.62109375,-64.94140625,-19.53125,0.0
1676923580.952305,-61.03515625,-43.9453125,-59.08203125,-12.20703125,0.0
1676923580.9560747,-12.20703125,-58.10546875,-55.17578125,-32.71484375,0.0
1676923580.959844,14.16015625,-57.6171875,-66.89453125,-52.734375,0.0
1676923580.9636137,-25.390625,-55.17578125,-81.0546875,-26.85546875,0.0
1676923580.9673834,-60.05859375,-36.62109375,-81.54296875,-6.34765625,0.0
1676923580.9711528,-24.90234375,-33.203125,-67.3828125,-25.390625,0.0
1676923580.9749224,15.13671875,-35.64453125,-48.828125,-36.62109375,0.0
1676923580.978692,-17.578125,-28.3203125,-62.01171875,-23.92578125,0.0
1676923580.9825337,-62.01171875,-34.66796875,-71.2890625,-6.34765625,0.0
1676923580.9863753,-49.8046875,-38.57421875,-61.5234375,-19.04296875,0.0
