timestamps,TP9,Fp1,Fp2,TP10,stim
1676922696.9118707,-5.37109375,-41.9921875,-38.0859375,9.765625,0.0
1676922696.915684,7.8125,-30.2734375,-23.4375,17.08984375,0.0
1676922696.9194973,-1.46484375,-2.44140625,-10.25390625,9.27734375,0.0
1676922696.9233105,7.8125,-13.18359375,-3.90625,14.16015625,0.0
1676922696.9270866,-6.34765625,-28.3203125,-14.6484375,24.90234375,0.0
1676922696.9308624,-10.25390625,-10.25390625,-9.765625,12.6953125,0.0
1676922696.9346385,3.41796875,-9.765625,-16.11328125,9.765625,0.0
1676922696.9384146,-0.48828125,-25.87890625,-50.78125,3.90625,0.0
1676922696.9421906,-12.6953125,-39.55078125,-48.828125,-16.6015625,0.0
1676922696.9459667,-18.06640625,-32.2265625,-25.390625,1.953125,0.0
1676922696.9497426,-4.39453125,-31.25,-31.73828125,0.48828125,0.0
1676922696.9535186,-1.953125,-36.1328125,-38.57421875,3.90625,0.0
1676922696.9572947,-21.97265625,-21.97265625,-23.4375,-3.90625,0.0
1676922696.9610705,-15.625,-22.4609375,-18.5546875,-12.6953125,0.0
1676922696.9648466,-8.30078125,-28.3203125,-10.7421875,-9.27734375,0.0
1676922696.9686227,-17.08984375,-20.5078125,-19.53125,-19.53125,0.0
1676922696.9723904,-22.4609375,-21.97265625,-24.90234375,-29.78515625,0.0
1676922696.9761584,-27.34375,-31.73828125,-14.6484375,-20.5078125,0.0
1676922696.979926,-38.57421875,-25.390625,-27.83203125,-19.53125,0.0
1676922696.983694,-34.66796875,-21.97265625,-20.01953125,-8.7890625,0.0
1676922696.9874618,-10.7421875,-23.92578125,5.859375,8.7890625,0.0
1676922696.9912295,-16.11328125,-39.0625,-23.92578125,-5.37109375,0.0
1676922696.9949975,-42.96875,-56.15234375,-41.9921875,-13.671875,0.0
1676922696.9987652,-36.1328125,-26.85546875,-17.578125,-6.34765625,0.0
1676922697.0025332,-34.1796875,-5.859375,-17.08984375,-2.44140625,0.0
1676922697.006301,-24.4140625,-14.16015625,-1.46484375,-20.01953125,0.0
1676922697.010069,-31.25,-22.94921875,10.7421875,-35.15625,0.0
1676922697.0138366,-19.53125,-20.5078125,5.37109375,-2.44140625,0.0
1676922697.0187492,-5.37109375,-26.85546875,3.90625,18.5546875,0.0
1676922697.0236616,-11.71875,-29.78515625,7.32421875,15.13671875,0.0
1676922697.0285742,-12.20703125,-27.83203125,12.20703125,20.99609375,0.0
1676922697.0334868,-17.578125,-34.66796875,-16.6015625,14.16015625,0.0
1676922697.0383992,-12.20703125,-40.0390625,-48.828125,-0.9765625,0.0
1676922697.0433118,1.46484375,-30.76171875,-25.87890625,13.18359375,0.0
1676922697.0482244,-19.04296875,-30.76171875,-20.99609375,8.30078125,0.0
1676922697.0531368,-36.1328125,-26.3671875,-16.6015625,-19.04296875,0.0
1676922697.0580494,-21.484375,-12.6953125,6.34765625,-21.97265625,0.0
1676922697.062962,-22.94921875,-21.97265625,10.7421875,-19.04296875,0.0
1676922697.0678744,-9.27734375,-23.92578125,-8.30078125,-3.41796875,0.0
1676922697.072787,-13.18359375,-13.671875,-39.55078125,10.25390625,0.0
1676922697.0764937,-15.625,1.46484375,-56.15234375,8.7890625,0.0
1676922697.0802002,-0.9765625,-18.06640625,-34.1796875,0.9765625,0.0
1676922697.0839067,-26.3671875,-50.78125,0.48828125,-7.32421875,0.0
1676922697.0876133,-32.71484375,-34.66796875,-6.34765625,-9.765625,0.0
1676922697.09132,-22.4609375,-27.34375,-9.27734375,-10.7421875,0.0
1676922697.0950265,-14.6484375,-36.1328125,-14.16015625,-4.39453125,0.0
1676922697.098733,-11.71875,-27.83203125,-9.27734375,4.39453125,0.0
1676922697.1024396,-30.2734375,-23.4375,-25.390625,-18.06640625,0.0
1676922697.1061463,-28.80859375,-42.48046875,-37.109375,-41.50390625,0.0
1676922697.1098528,-18.5546875,-24.4140625,-23.92578125,-28.3203125,0.0
1676922697.1135592,-12.20703125,-9.765625,-41.50390625,-13.18359375,0.0
1676922697.117266,-29.296875,-32.71484375,-48.33984375,-21.97265625,0.0
1676922697.123517,-27.34375,-28.3203125,-38.0859375,-21.484375,0.0
1676922697.1297684,-23.92578125,-38.0859375,-27.83203125,-18.06640625,0.0
1676922697.1360197,-37.59765625,-27.34375,-17.578125,-15.13671875,0.0
1676922697.1422708,-24.90234375,-18.5546875,-39.55078125,0.0,0.0
1676922697.148522,-36.1328125,-34.66796875,-66.89453125,-16.11328125,0.0
1676922697.1547732,-34.1796875,-39.55078125,-47.36328125,-30.2734375,0.0
1676922697.1610246,-21.484375,-48.33984375,-22.94921875,-24.4140625,0.0
1676922697.1672757,-17.08984375,-29.296875,-40.52734375,-32.71484375,0.0
1676922697.1735268,-14.6484375,-26.3671875,-47.8515625,-28.3203125,0.0
1676922697.179778,-18.5546875,-40.52734375,-17.578125,-2.44140625,0.0
1676922697.1860294,-10.25390625,-33.69140625,-21.484375,-0.9765625,0.0
1676922697.1922805,-8.30078125,-28.3203125,-30.76171875,-20.99609375,0.0
1676922697.1935174,-20.01953125,-19.53125,-16.11328125,-10.25390625,0.0
1676922697.1947546,-16.11328125,-13.18359375,-39.55078125,-7.8125,0.0
1676922697.1959915,-12.20703125,-19.04296875,-37.109375,-23.4375,0.0
1676922697.1972287,-0.9765625,-26.85546875,-24.4140625,-17.578125,0.0
1676922697.1984656,2.44140625,-38.0859375,-49.8046875,-18.06640625,0.0
1676922697.1997027,-14.16015625,-27.83203125,-76.171875,-29.296875,0.0
1676922697.2009397,-16.11328125,-15.625,-66.40625,-55.17578125,0.0
1676922697.2021766,-18.5546875,-25.87890625,-25.87890625,-42.48046875,0.0
1676922697.2034137,-25.87890625,-20.5078125,-18.06640625,-22.94921875,0.0
1676922697.2046506,-10.7421875,-12.6953125,-21.484375,-45.8984375,0.0
1676922697.2058878,-1.953125,-13.671875,-25.87890625,-32.2265625,0.0
1676922697.2071247,-17.08984375,-14.16015625,-27.83203125,-27.34375,1.0
1676922697.211009,-27.83203125,-24.90234375,-42.48046875,-34.1796875,0.0
1676922697.2148933,-5.859375,-37.59765625,-55.17578125,-37.109375,0.0
1676922697.2187777,4.8828125,-33.69140625,-50.29296875,-28.3203125,0.0
1676922697.2226617,-10.25390625,-27.83203125,-54.19921875,-12.20703125,0.0
1676922697.226546,-8.30078125,-32.2265625,-62.5,-18.5546875,0.0
1676922697.2304304,1.953125,-33.203125,-42.96875,-14.6484375,0.0
1676922697.2343147,8.7890625,-19.04296875,-49.31640625,-8.7890625,0.0
1676922697.238199,12.6953125,7.32421875,-85.44921875,7.32421875,0.0
1676922697.242083,-1.46484375,1.46484375,-67.87109375,2.9296875,0.0
1676922697.2459674,-0.9765625,-7.8125,-39.0625,-24.90234375,0.0
1676922697.2498517,10.25390625,-21.97265625,-25.87890625,-21.97265625,0.0
1676922697.253736,2.44140625,-34.66796875,-11.23046875,0.9765625,0.0
1676922697.2573833,7.32421875,-23.92578125,-5.37109375,17.578125,0.0
1676922697.2610307,17.578125,-16.6015625,-8.30078125,12.6953125,0.0
1676922697.264678,14.16015625,-7.8125,-11.23046875,7.8125,0.0
1676922697.268325,12.6953125,-3.90625,-13.18359375,2.9296875,0.0
1676922697.2719724,9.765625,-1.953125,-16.11328125,11.71875,0.0
1676922697.2756197,2.9296875,-19.04296875,-47.36328125,9.27734375,0.0
1676922697.279267,-1.953125,-37.109375,-71.2890625,-5.859375,0.0
1676922697.2829144,-4.8828125,-30.2734375,-45.8984375,0.48828125,0.0
1676922697.2865615,2.9296875,-16.6015625,-26.85546875,4.8828125,0.0
1676922697.2902088,-12.6953125,-14.16015625,-42.48046875,-8.7890625,0.0
1676922697.2938561,-26.85546875,-11.71875,-35.64453125,-13.671875,0.0
1676922697.2975035,-27.34375,-32.2265625,-27.83203125,-9.27734375,0.0
1676922697.301234,-22.4609375,-40.0390625,-35.64453125,0.9765625,0.0
1676922697.3049645,-29.296875,-19.04296875,-34.66796875,-0.48828125,0.0
1676922697.308695,-33.69140625,-4.8828125,-33.203125,0.48828125,0.0
1676922697.3124256,-1.953125,4.39453125,-43.9453125,12.6953125,0.0
1676922697.3161561,7.32421875,-0.9765625,-38.57421875,12.6953125,0.0
1676922697.3198867,0.9765625,-11.71875,-22.4609375,14.16015625,0.0
1676922697.3236172,-10.25390625,-18.06640625,-33.69140625,2.9296875,0.0
1676922697.3273478,-11.23046875,-13.18359375,-41.015625,13.18359375,0.0
1676922697.3310783,-13.671875,-5.859375,-20.5078125,19.53125,0.0
1676922697.3348088,-6.34765625,-14.6484375,-26.3671875,13.671875,0.0
1676922697.3385394,-0.9765625,-8.7890625,-38.0859375,5.859375,0.0
1676922697.34227,-11.23046875,-13.18359375,-22.94921875,0.0,0.0
1676922697.3460212,-22.4609375,-5.37109375,-15.625,9.27734375,0.0
1676922697.3497725,-9.765625,11.23046875,-34.1796875,22.4609375,0.0
1676922697.3535237,-14.16015625,-17.578125,-43.45703125,19.04296875,0.0
1676922697.3572752,-16.6015625,-35.64453125,-24.4140625,0.9765625,0.0
1676922697.3610265,-27.34375,-27.83203125,-29.78515625,-24.90234375,0.0
1676922697.3647778,-40.0390625,-22.94921875,-38.57421875,-8.30078125,0.0
1676922697.368529,-20.99609375,-25.390625,-18.06640625,36.1328125,0.0
1676922697.3722804,-15.13671875,-29.78515625,-32.71484375,17.08984375,0.0
1676922697.3760319,-22.94921875,-17.578125,-48.828125,-11.23046875,0.0
1676922697.3797832,-8.7890625,-13.18359375,-34.1796875,3.90625,0.0
1676922697.3835344,-1.953125,-26.3671875,-30.2734375,20.5078125,0.0
1676922697.3872857,-15.625,-24.90234375,-32.71484375,18.5546875,0.0
1676922697.3922708,-15.625,-16.6015625,-26.3671875,20.5078125,0.0
1676922697.397256,-16.6015625,-7.8125,-34.66796875,25.87890625,0.0
1676922697.4022412,-15.13671875,-8.7890625,-55.17578125,13.18359375,0.0
1676922697.4072263,-5.859375,-20.5078125,-34.1796875,5.859375,0.0
1676922697.4122114,-5.859375,-23.4375,-15.13671875,10.25390625,0.0
1676922697.4171965,-13.671875,-10.7421875,-32.2265625,1.46484375,0.0
1676922697.4221816,-9.765625,-10.25390625,-34.1796875,-3.41796875,0.0
1676922697.4271667,-34.66796875,-22.94921875,-27.83203125,-8.30078125,0.0
1676922697.4321518,-35.15625,-20.5078125,-39.55078125,-14.16015625,0.0
1676922697.4371371,-26.85546875,-34.1796875,-58.59375,-16.6015625,0.0
1676922697.4421222,-22.4609375,-31.25,-61.5234375,-11.23046875,0.0
1676922697.4471073,-13.18359375,-21.484375,-41.015625,-13.671875,0.0
1676922697.450861,-13.18359375,-30.76171875,-36.1328125,-18.5546875,0.0
1676922697.4546149,-10.25390625,-21.97265625,-40.52734375,-11.23046875,0.0
1676922697.4583688,-24.4140625,-15.625,-46.38671875,-6.34765625,0.0
1676922697.4621224,-11.71875,-21.484375,-46.38671875,5.37109375,0.0
1676922697.465876,-18.5546875,-34.66796875,-31.73828125,-5.37109375,0.0
1676922697.46963,-27.83203125,-43.45703125,-32.71484375,-22.4609375,0.0
1676922697.473384,-7.32421875,-33.203125,-33.69140625,-28.80859375,0.0
1676922697.4771376,-14.16015625,-40.52734375,-23.92578125,-14.6484375,0.0
1676922697.4808912,-35.15625,-41.015625,-32.2265625,3.41796875,0.0
1676922697.4846451,-45.41015625,-32.71484375,-53.22265625,-22.94921875,0.0
1676922697.488399,-31.73828125,-18.5546875,-48.828125,-33.69140625,0.0
1676922697.4921527,-29.296875,-13.18359375,-39.0625,-17.08984375,0.0
1676922697.4959314,-45.41015625,-25.390625,-38.57421875,-10.7421875,0.0
1676922697.49971,-44.921875,-32.71484375,-40.0390625,-24.90234375,0.0
1676922697.5034888,-33.203125,-27.34375,-44.921875,0.9765625,0.0
1676922697.5072675,-27.83203125,-21.484375,-49.31640625,0.48828125,0.0
1676922697.5110462,-32.71484375,-22.94921875,-58.59375,-22.94921875,0.0
1676922697.5148249,-46.38671875,-24.4140625,-52.24609375,-36.1328125,0.0
1676922697.5186033,-48.33984375,-27.83203125,-25.87890625,-47.8515625,0.0
1676922697.522382,-33.203125,-28.3203125,-17.578125,-27.34375,0.0
1676922697.5261607,-17.08984375,-29.296875,-35.64453125,-14.6484375,0.0
1676922697.5299394,-25.390625,-32.2265625,-48.828125,-19.53125,0.0
1676922697.533718,-29.296875,-33.203125,-43.45703125,-24.4140625,0.0
1676922697.5374968,-25.390625,-29.78515625,-36.1328125,-17.08984375,0.0
1676922697.54126,-32.71484375,-30.2734375,-43.9453125,-41.9921875,0.0
1676922697.5450232,-32.2265625,-25.390625,-35.64453125,-44.43359375,0.0
1676922697.5487866,-41.015625,-25.390625,-23.4375,-26.3671875,0.0
1676922697.5525498,-43.9453125,-41.015625,-34.66796875,-13.18359375,0.0
1676922697.556313,-41.9921875,-51.26953125,-64.453125,-28.3203125,0.0
1676922697.5600762,-35.15625,-31.25,-59.08203125,-35.64453125,0.0
1676922697.5638394,-37.109375,-5.37109375,-32.2265625,-20.99609375,0.0
1676922697.5676026,-58.10546875,-21.484375,-38.0859375,-29.296875,0.0
1676922697.5713658,-62.01171875,-37.59765625,-33.69140625,-33.69140625,0.0
1676922697.5751293,-47.8515625,-28.3203125,-42.96875,-32.71484375,0.0
1676922697.5788925,-52.734375,-38.57421875,-24.90234375,-25.87890625,0.0
1676922697.5826557,-58.10546875,-50.78125,-25.390625,-16.11328125,0.0
1676922697.5863998,-36.1328125,-32.2265625,-38.0859375,-12.20703125,0.0
1676922697.590144,-37.59765625,-25.390625,-28.80859375,-17.08984375,0.0
1676922697.5938878,-48.828125,-22.4609375,-26.85546875,-28.3203125,0.0
1676922697.597632,-39.0625,-9.765625,-21.97265625,-41.015625,0.0
1676922697.601376,-34.66796875,-2.44140625,-25.390625,-32.2265625,0.0
1676922697.6051202,-43.45703125,-11.23046875,-39.55078125,-21.97265625,0.0
1676922697.6088643,-38.57421875,-26.85546875,-69.3359375,-23.4375,0.0
1676922697.6126084,-32.71484375,-21.97265625,-73.73046875,-17.08984375,0.0
1676922697.6163526,-41.9921875,-16.11328125,-49.8046875,-20.99609375,0.0
1676922697.6200964,-46.38671875,-26.3671875,-29.78515625,-43.45703125,0.0
1676922697.6238406,-42.48046875,-33.203125,-21.97265625,-49.31640625,0.0
1676922697.6275847,-48.33984375,-30.76171875,-7.32421875,-36.62109375,0.0
1676922697.6313357,-49.8046875,-15.625,-15.625,-24.4140625,0.0
1676922697.6350865,-25.390625,-16.6015625,-36.62109375,-15.625,0.0
1676922697.6388376,-15.625,-21.484375,-36.62109375,-12.6953125,0.0
1676922697.6425884,-12.20703125,-29.296875,-21.484375,-11.23046875,0.0
1676922697.6463394,-10.7421875,-36.1328125,-22.94921875,-21.484375,0.0
1676922697.6500902,-23.4375,-36.1328125,-22.94921875,-25.87890625,0.0
1676922697.6538413,-27.34375,-38.57421875,-39.55078125,-21.484375,0.0
1676922697.6575923,-41.50390625,-31.25,-94.7265625,-25.87890625,0.0
1676922697.661343,-54.6875,-32.71484375,-81.0546875,-34.66796875,0.0
1676922697.6650941,-48.33984375,-23.92578125,-40.52734375,-39.0625,0.0
1676922697.668845,-51.7578125,-28.80859375,-56.640625,-45.41015625,0.0
1676922697.672596,-59.08203125,-23.92578125,-41.9921875,-51.7578125,0.0
1676922697.6764634,-61.03515625,-0.48828125,-13.671875,-54.19921875,0.0
1676922697.6803308,-46.875,-23.4375,-33.203125,-42.48046875,0.0
1676922697.6841984,-29.78515625,-40.52734375,-34.66796875,-13.18359375,0.0
1676922697.6880658,-32.2265625,-24.90234375,-16.11328125,-6.8359375,0.0
1676922697.6919332,-62.01171875,-19.04296875,-41.015625,-27.34375,0.0
1676922697.6958005,-73.2421875,-25.390625,-60.05859375,-42.48046875,0.0
1676922697.699668,-62.98828125,-30.2734375,-46.38671875,-32.2265625,0.0
1676922697.7035353,-46.38671875,-27.83203125,-30.76171875,-21.97265625,0.0
1676922697.7074027,-41.50390625,-36.62109375,-39.0625,-19.53125,0.0
1676922697.7112703,-47.8515625,-34.1796875,-55.17578125,-24.4140625,0.0
1676922697.7151377,-54.6875,-41.50390625,-44.43359375,-39.0625,0.0
1676922697.719005,-76.66015625,-55.17578125,-44.921875,-46.875,0.0
1676922697.722642,-62.01171875,-50.78125,-53.7109375,-49.31640625,0.0
1676922697.7262788,-51.26953125,-32.71484375,-60.546875,-42.48046875,0.0
1676922697.7299156,-75.68359375,-15.625,-79.1015625,-31.73828125,0.0
1676922697.7335525,-68.84765625,-30.2734375,-72.75390625,-28.80859375,0.0
1676922697.7371893,-62.98828125,-54.19921875,-37.109375,-36.1328125,0.0
1676922697.7408261,-59.5703125,-38.57421875,-32.71484375,-34.66796875,0.0
1676922697.744463,-59.08203125,-45.41015625,-48.33984375,-44.921875,0.0
1676922697.7480998,-62.5,-57.6171875,-50.78125,-47.36328125,0.0
1676922697.7517366,-56.640625,-34.1796875,-53.22265625,-23.4375,0.0
1676922697.7553735,-58.10546875,-25.87890625,-37.109375,-32.2265625,0.0
1676922697.7590103,-57.6171875,-27.83203125,-30.2734375,-41.9921875,0.0
1676922697.7626472,-48.828125,-43.45703125,-65.91796875,-23.92578125,0.0
1676922697.7676427,-52.24609375,-64.453125,-71.77734375,-29.78515625,0.0
1676922697.7726383,-40.52734375,-48.828125,-28.3203125,-36.1328125,0.0
1676922697.777634,-25.87890625,-24.90234375,-52.24609375,-18.5546875,0.0
1676922697.7826295,-45.8984375,-31.73828125,-98.6328125,-29.296875,0.0
1676922697.787625,-63.96484375,-35.64453125,-52.734375,-53.22265625,0.0
1676922697.7926207,-71.77734375,-28.3203125,-5.859375,-52.734375,0.0
1676922697.797616,-78.61328125,-31.73828125,-10.7421875,-53.7109375,0.0
1676922697.8026116,-74.21875,-21.484375,-20.99609375,-45.41015625,0.0
1676922697.8076072,-55.17578125,-17.08984375,-38.57421875,-31.25,0.0
1676922697.8126028,-39.55078125,-22.4609375,-38.57421875,-23.4375,0.0
1676922697.8175983,-55.6640625,-31.25,-36.1328125,-28.80859375,0.0
1676922697.822594,-71.77734375,-42.48046875,-46.38671875,-40.52734375,0.0
1676922697.826343,-64.94140625,-21.97265625,-80.078125,-33.69140625,0.0
1676922697.8300922,-62.01171875,-27.34375,-99.12109375,-31.25,0.0
1676922697.8338413,-63.4765625,-31.25,-62.98828125,-42.96875,0.0
1676922697.8375905,-66.89453125,-31.25,-39.0625,-52.24609375,0.0
1676922697.8413396,-53.22265625,-32.71484375,-42.96875,-43.45703125,0.0
1676922697.8450887,-51.7578125,-26.3671875,-20.99609375,-40.52734375,0.0
1676922697.8488379,-48.828125,-24.4140625,-24.90234375,-40.0390625,0.0
1676922697.852587,-54.19921875,-29.296875,-90.8203125,-38.0859375,0.0
1676922697.856336,-60.05859375,-36.62109375,-76.66015625,-50.29296875,0.0
1676922697.8600852,-52.734375,-33.69140625,-32.71484375,-67.3828125,0.0
1676922697.8638344,-74.21875,-41.9921875,-55.6640625,-66.40625,0.0
1676922697.8675835,-66.89453125,-27.83203125,-44.43359375,-50.78125,0.0
1676922697.871364,-67.87109375,-19.04296875,-34.66796875,-52.734375,0.0
1676922697.875145,-74.70703125,-14.6484375,-70.3125,-51.7578125,0.0
1676922697.8789256,-66.40625,-20.99609375,-70.3125,-46.38671875,0.0
1676922697.8827064,-69.3359375,-59.5703125,-67.3828125,-59.08203125,0.0
1676922697.886487,-60.546875,-42.48046875,-82.03125,-55.6640625,0.0
1676922697.8902678,-43.9453125,-10.7421875,-96.19140625,-36.62109375,0.0
1676922697.8940485,-42.48046875,-10.7421875,-73.73046875,-34.66796875,0.0
1676922697.897829,-39.55078125,-21.484375,-21.97265625,-41.9921875,0.0
1676922697.90161,-47.36328125,-49.8046875,-45.41015625,-49.8046875,0.0
1676922697.9053905,-45.8984375,-35.64453125,-78.61328125,-39.55078125,0.0
1676922697.9091713,-52.24609375,-15.625,-61.03515625,-38.57421875,0.0
1676922697.912952,-73.2421875,-34.1796875,-46.38671875,-46.875,0.0
1676922697.9167469,-63.4765625,-34.1796875,-32.71484375,-28.80859375,0.0
1676922697.9205418,-46.38671875,-32.71484375,-25.390625,-23.4375,0.0
1676922697.9243364,-41.50390625,-36.1328125,-52.24609375,-35.15625,0.0
1676922697.9281313,-47.8515625,-39.0625,-62.5,-42.48046875,0.0
1676922697.9319263,-60.546875,-40.0390625,-51.26953125,-58.10546875,0.0
1676922697.9357212,-53.22265625,-37.59765625,-40.52734375,-52.24609375,0.0
1676922697.939516,-38.0859375,-20.01953125,-47.36328125,-28.80859375,0.0
1676922697.943311,-53.22265625,-27.83203125,-49.8046875,-54.19921875,0.0
1676922697.947106,-60.546875,-47.8515625,-33.69140625,-60.546875,0.0
1676922697.9509006,-44.43359375,-39.0625,-39.55078125,-45.8984375,0.0
1676922697.9546955,-37.59765625,-20.99609375,-55.6640625,-33.69140625,0.0
1676922697.9584904,-51.7578125,-22.4609375,-72.265625,-24.4140625,0.0
1676922697.9621296,-52.24609375,-34.66796875,-67.3828125,-29.296875,0.0
1676922697.965769,-37.109375,-26.85546875,-59.5703125,-33.203125,0.0
1676922697.9694083,-23.4375,-32.71484375,-53.7109375,-21.97265625,0.0
1676922697.9730475,-24.90234375,-49.31640625,-62.5,-33.203125,0.0
1676922697.976687,-31.25,-36.1328125,-57.12890625,-42.96875,0.0
1676922697.9803262,-31.25,-25.390625,-42.48046875,-30.2734375,0.0
1676922697.9839654,-44.43359375,-23.4375,-49.31640625,-47.36328125,0.0
1676922697.9876049,-38.57421875,-11.23046875,-57.12890625,-35.64453125,0.0
1676922697.991244,-32.2265625,-11.71875,-41.9921875,-23.4375,0.0
1676922697.9948833,-40.0390625,-17.08984375,-31.25,-27.83203125,0.0
1676922697.9985228,-45.41015625,-36.1328125,-46.875,-36.1328125,0.0
1676922698.002162,-46.38671875,-29.296875,-45.8984375,-37.59765625,0.0
1676922698.0059092,-35.64453125,-23.92578125,-53.22265625,-38.0859375,0.0
1676922698.0096562,-47.36328125,-48.33984375,-71.2890625,-49.31640625,0.0
1676922698.0134034,-65.91796875,-51.7578125,-59.5703125,-49.31640625,0.0
1676922698.0171506,-51.26953125,-50.78125,-55.17578125,-41.9921875,0.0
1676922698.0208976,-45.41015625,-49.31640625,-58.59375,-31.73828125,0.0
1676922698.0246449,-61.03515625,-35.15625,-69.3359375,-37.109375,0.0
1676922698.028392,-62.5,-34.66796875,-101.07421875,-54.19921875,0.0
1676922698.032139,-49.31640625,-41.015625,-77.63671875,-59.08203125,0.0
1676922698.0358863,-38.57421875,-30.76171875,-65.4296875,-48.828125,0.0
1676922698.0396335,-46.875,-20.5078125,-55.6640625,-44.921875,0.0
1676922698.0433805,-48.828125,-37.59765625,-33.203125,-56.640625,0.0
1676922698.0471277,-48.33984375,-56.15234375,-63.4765625,-51.7578125,0.0
1676922698.0508885,-53.7109375,-44.921875,-62.98828125,-45.41015625,0.0
1676922698.0546494,-38.0859375,-15.13671875,-38.0859375,-38.0859375,0.0
1676922698.0584102,-25.390625,-9.27734375,-40.0390625,-30.2734375,0.0
1676922698.062171,-34.1796875,-18.5546875,-27.34375,-25.390625,0.0
1676922698.0659318,-30.2734375,-16.11328125,-26.3671875,-20.99609375,0.0
1676922698.0696926,-30.76171875,-34.66796875,-61.5234375,-26.3671875,0.0
1676922698.0734534,-44.921875,-37.59765625,-47.36328125,-36.1328125,0.0
1676922698.0772142,-46.38671875,-38.57421875,-4.8828125,-46.38671875,0.0
1676922698.080975,-35.15625,-39.0625,-7.8125,-41.015625,0.0
1676922698.0847359,-31.73828125,-32.71484375,-37.59765625,-36.1328125,0.0
1676922698.0884967,-41.015625,-46.38671875,-21.484375,-38.57421875,0.0
1676922698.0922575,-41.9921875,-39.55078125,-21.484375,-34.66796875,2.0
1676922698.0960312,-42.48046875,-33.69140625,-39.55078125,-58.59375,0.0
1676922698.0998049,-38.0859375,-16.6015625,-29.78515625,-56.640625,0.0
1676922698.1035783,-30.2734375,-1.46484375,-10.7421875,-19.04296875,0.0
1676922698.107352,-39.0625,-19.04296875,-38.0859375,-24.90234375,0.0
1676922698.1111257,-41.9921875,-42.96875,-45.8984375,-31.73828125,0.0
1676922698.1148992,-41.9921875,-53.22265625,-10.7421875,-35.64453125,0.0
1676922698.1186728,-50.29296875,-54.19921875,-6.34765625,-36.1328125,0.0
1676922698.1224465,-43.45703125,-42.96875,-14.6484375,-14.6484375,0.0
1676922698.1262202,-34.66796875,-32.71484375,-68.359375,-35.64453125,0.0
1676922698.129994,-66.89453125,-46.875,-51.7578125,-68.359375,0.0
1676922698.1337674,-75.1953125,-59.08203125,-8.7890625,-65.91796875,0.0
1676922698.137541,-53.7109375,-54.19921875,-8.30078125,-58.10546875,0.0
1676922698.1425495,-61.03515625,-25.87890625,-6.34765625,-49.31640625,0.0
1676922698.147558,-56.15234375,-32.2265625,-47.36328125,-36.1328125,0.0
1676922698.1525664,-61.5234375,-58.59375,-75.1953125,-53.7109375,0.0
1676922698.1575747,-63.96484375,-55.6640625,-15.13671875,-68.359375,0.0
1676922698.162583,-47.36328125,-33.69140625,15.625,-52.734375,0.0
1676922698.1675916,-55.17578125,-24.4140625,-42.48046875,-51.26953125,0.0
1676922698.1726,-55.17578125,-25.87890625,-66.89453125,-42.48046875,0.0
1676922698.1776085,-44.921875,-27.83203125,-27.34375,-32.71484375,0.0
1676922698.1826167,-52.734375,-20.99609375,-30.2734375,-28.80859375,0.0
1676922698.1876252,-53.7109375,-27.34375,-58.59375,-63.4765625,0.0
1676922698.1926336,-66.89453125,-51.26953125,-33.203125,-104.4921875,0.0
1676922698.197642,-69.82421875,-62.01171875,-34.66796875,-62.01171875,0.0
1676922698.2013872,-48.33984375,-36.1328125,-87.40234375,-35.64453125,0.0
1676922698.2051325,-59.5703125,-38.0859375,-86.9140625,-56.15234375,0.0
1676922698.2088776,-56.640625,-35.15625,-11.23046875,-31.73828125,0.0
1676922698.212623,-21.97265625,-4.39453125,-10.7421875,-20.5078125,0.0
1676922698.216368,-31.25,5.859375,-17.08984375,-39.55078125,0.0
1676922698.2201133,-62.5,-26.85546875,19.53125,-20.5078125,0.0
1676922698.2238584,-63.4765625,-49.31640625,-8.7890625,-67.3828125,0.0
1676922698.2276034,-53.7109375,-6.8359375,-80.56640625,-127.44140625,0.0
1676922698.2313488,-77.1484375,5.37109375,-83.984375,-78.125,0.0
1676922698.2350938,-114.2578125,-17.578125,-38.0859375,-98.14453125,0.0
1676922698.2388391,-152.83203125,-28.3203125,-37.59765625,-188.96484375,0.0
1676922698.2425842,-170.8984375,1.953125,-5.37109375,-191.89453125,0.0
1676922698.2463078,-201.171875,-25.390625,2.44140625,-199.21875,0.0
1676922698.2500312,-263.18359375,-60.546875,-9.27734375,-263.18359375,0.0
1676922698.2537549,-306.15234375,-55.6640625,-33.69140625,-310.05859375,0.0
1676922698.2574782,-302.734375,-36.1328125,-60.546875,-301.26953125,0.0
1676922698.2612019,-296.875,2.44140625,-97.65625,-284.66796875,0.0
1676922698.2649255,-352.5390625,-54.19921875,23.4375,-348.6328125,0.0
1676922698.2686489,-365.234375,-47.36328125,168.9453125,-367.1875,0.0
1676922698.2723725,-354.4921875,-67.87109375,125.48828125,-359.375,0.0
1676922698.2760959,-361.81640625,-101.5625,127.9296875,-336.9140625,0.0
1676922698.2798195,-346.6796875,-59.5703125,101.07421875,-316.40625,0.0
1676922698.2835429,-353.515625,-57.6171875,101.5625,-351.07421875,0.0
1676922698.2872665,-326.66015625,-67.87109375,117.67578125,-313.4765625,0.0
1676922698.291003,-302.24609375,-79.58984375,17.578125,-269.53125,0.0
1676922698.2947395,-328.61328125,-92.7734375,74.21875,-293.45703125,0.0
1676922698.2984757,-300.78125,-96.6796875,143.06640625,-278.80859375,0.0
1676922698.3022122,-263.18359375,-136.23046875,56.15234375,-256.34765625,0.0
1676922698.3059487,-243.65234375,-112.3046875,87.40234375,-247.0703125,0.0
1676922698.3096852,-223.6328125,-49.31640625,125.48828125,-195.80078125,0.0
1676922698.3134217,-228.515625,-65.91796875,47.36328125,-167.48046875,0.0
1676922698.3171582,-208.0078125,-79.1015625,59.08203125,-160.15625,0.0
1676922698.3208947,-164.55078125,-101.5625,83.49609375,-145.99609375,0.0
1676922698.324631,-167.96875,-106.4453125,21.97265625,-157.71484375,0.0
1676922698.3283675,-163.57421875,-92.7734375,-29.78515625,-154.78515625,0.0
1676922698.332104,-145.01953125,-100.09765625,10.25390625,-140.13671875,0.0
1676922698.3358536,-80.078125,-34.66796875,-14.16015625,-86.42578125,0.0
1676922698.3396032,-34.1796875,10.7421875,-58.59375,-39.55078125,0.0
1676922698.3433528,-75.1953125,-52.734375,-0.9765625,-77.1484375,0.0
1676922698.3471024,-69.3359375,-57.12890625,1.953125,-78.125,0.0
1676922698.350852,-30.2734375,-20.99609375,-31.73828125,-33.69140625,0.0
1676922698.3546019,-24.90234375,-25.390625,-88.37890625,-20.01953125,0.0
1676922698.3583515,-24.90234375,-65.4296875,-89.35546875,-27.83203125,0.0
1676922698.362101,-5.859375,-44.43359375,-94.23828125,2.44140625,0.0
1676922698.3658507,13.671875,-29.78515625,-166.50390625,3.90625,0.0
1676922698.3696003,33.203125,-46.38671875,-93.26171875,6.34765625,0.0
1676922698.37335,30.2734375,-5.37109375,14.6484375,35.64453125,0.0
1676922698.3770995,30.2734375,15.13671875,-20.99609375,55.17578125,0.0
1676922698.3810158,39.0625,9.27734375,-104.4921875,49.8046875,0.0
1676922698.384932,49.8046875,-36.62109375,-176.26953125,44.921875,0.0
1676922698.3888483,44.921875,-40.52734375,-126.953125,60.05859375,0.0
1676922698.3927646,33.203125,0.9765625,-0.9765625,35.15625,0.0
1676922698.3966808,50.78125,18.5546875,13.18359375,51.26953125,0.0
1676922698.400597,77.1484375,29.78515625,-27.83203125,88.37890625,0.0
1676922698.4045131,71.77734375,8.30078125,-70.3125,77.1484375,0.0
1676922698.4084294,58.10546875,-2.9296875,-64.453125,80.078125,0.0
1676922698.4123456,53.22265625,2.44140625,-53.7109375,60.546875,0.0
1676922698.416262,55.6640625,6.8359375,-79.1015625,60.546875,0.0
1676922698.4201782,71.2890625,-5.37109375,-81.54296875,77.63671875,0.0
1676922698.4240944,60.05859375,-30.2734375,-57.12890625,53.22265625,0.0
1676922698.4277046,53.22265625,-22.4609375,-33.69140625,44.43359375,0.0
1676922698.4313147,64.94140625,1.46484375,-41.015625,71.2890625,0.0
1676922698.4349246,30.76171875,-12.6953125,-61.03515625,63.96484375,0.0
1676922698.4385347,11.23046875,-22.94921875,-60.546875,54.6875,0.0
1676922698.4421449,28.80859375,-7.32421875,-52.734375,68.84765625,0.0
1676922698.445755,25.87890625,11.23046875,-52.734375,46.38671875,0.0
1676922698.4493651,-0.48828125,-15.13671875,-81.0546875,19.53125,0.0
1676922698.4529753,-0.9765625,-24.4140625,-65.91796875,20.5078125,0.0
1676922698.4565854,14.6484375,-5.859375,-24.4140625,-0.9765625,0.0
1676922698.4601953,18.5546875,-12.20703125,-22.4609375,-16.11328125,0.0
1676922698.4638054,11.71875,-11.23046875,-25.87890625,-0.48828125,0.0
1676922698.4674156,8.7890625,-5.37109375,-61.03515625,5.37109375,0.0
1676922698.4711852,4.39453125,-4.39453125,-85.44921875,-1.953125,0.0
1676922698.4749546,-14.16015625,-14.16015625,-26.85546875,-8.30078125,0.0
1676922698.4787242,-18.06640625,-20.99609375,14.6484375,-12.6953125,0.0
1676922698.4824939,-4.39453125,-4.8828125,-9.765625,-5.37109375,0.0
1676922698.4862635,0.48828125,1.46484375,-38.57421875,3.90625,0.0
1676922698.4900331,-4.39453125,6.34765625,-31.73828125,5.37109375,0.0
1676922698.4938025,-20.5078125,2.44140625,-37.109375,-17.08984375,0.0
1676922698.4975722,-18.5546875,-8.7890625,-68.84765625,-18.5546875,0.0
1676922698.5013418,-4.8828125,-1.953125,-58.59375,-6.8359375,0.0
1676922698.5051112,-27.83203125,-8.30078125,-67.3828125,-15.13671875,0.0
1676922698.5088809,-46.38671875,-29.296875,-92.7734375,-23.4375,0.0
1676922698.5126505,-27.83203125,-26.3671875,-83.0078125,-17.578125,0.0
1676922698.517645,-20.01953125,-13.18359375,-45.41015625,-9.765625,0.0
1676922698.5226393,-11.71875,0.0,-5.37109375,-0.48828125,0.0
1676922698.5276337,-11.23046875,-15.13671875,-29.78515625,-3.90625,0.0
1676922698.532628,-21.97265625,-9.27734375,-31.73828125,-21.484375,0.0
1676922698.5376225,8.30078125,37.59765625,-63.4765625,19.04296875,0.0
1676922698.5426168,9.765625,23.92578125,-95.21484375,13.18359375,0.0
1676922698.547611,-25.87890625,-9.27734375,-38.0859375,-22.94921875,0.0
1676922698.5526054,-22.4609375,-9.27734375,-7.8125,-3.90625,0.0
1676922698.5575998,-15.625,-13.18359375,22.4609375,15.13671875,0.0
1676922698.5625942,-26.3671875,-24.90234375,0.0,0.48828125,0.0
1676922698.5675886,-21.97265625,-30.76171875,-24.90234375,-10.7421875,0.0
1676922698.572583,-27.34375,-27.83203125,-29.78515625,-16.6015625,0.0
1676922698.5775876,-23.92578125,-16.11328125,-39.0625,-23.92578125,0.0
1676922698.5825925,-16.11328125,-7.32421875,-13.671875,0.0,0.0
1676922698.5875971,-10.25390625,-4.39453125,-54.19921875,10.25390625,0.0
1676922698.592602,-18.5546875,-10.7421875,-93.75,4.8828125,0.0
1676922698.5976067,-35.64453125,-20.99609375,-14.16015625,-13.671875,0.0
1676922698.6026115,-41.50390625,-23.92578125,51.7578125,-19.04296875,0.0
1676922698.6076162,-35.64453125,-20.99609375,20.5078125,1.46484375,0.0
1676922698.6126208,-28.80859375,-13.18359375,-28.3203125,-0.9765625,0.0
1676922698.6176257,-25.87890625,-11.71875,-54.19921875,-5.859375,0.0
1676922698.6226304,-41.50390625,-13.18359375,-80.56640625,-25.390625,0.0
1676922698.6276352,-50.29296875,-26.85546875,-19.04296875,-56.640625,0.0
1676922698.63264,-28.80859375,-16.11328125,39.0625,-37.109375,0.0
1676922698.6351254,-34.66796875,0.9765625,-9.765625,-42.48046875,0.0
1676922698.637611,-34.1796875,-7.8125,-42.96875,-57.6171875,0.0
1676922698.6400962,-25.390625,-10.25390625,-16.11328125,-39.55078125,0.0
1676922698.6425817,4.8828125,-6.8359375,-25.87890625,-29.296875,0.0
1676922698.6450672,-4.8828125,-8.7890625,-29.78515625,-40.0390625,0.0
1676922698.6475525,-21.484375,-10.25390625,-54.19921875,-33.203125,0.0
1676922698.650038,-13.671875,-13.671875,-44.43359375,-7.8125,0.0
1676922698.6525235,-3.41796875,-31.25,-3.41796875,-4.39453125,0.0
1676922698.655009,10.25390625,-22.94921875,-25.390625,-14.6484375,0.0
1676922698.6574945,27.34375,-10.7421875,-18.5546875,14.6484375,0.0
1676922698.6599798,44.43359375,-25.87890625,-18.5546875,36.1328125,0.0
1676922698.6624653,37.109375,-38.0859375,9.27734375,0.48828125,0.0
1676922698.6662264,35.64453125,-22.4609375,-58.59375,7.8125,0.0
1676922698.6699872,66.89453125,-14.16015625,-150.390625,41.015625,0.0
1676922698.6737483,35.15625,-42.96875,-28.3203125,-8.30078125,0.0
1676922698.677509,-41.015625,-38.57421875,62.98828125,-33.69140625,0.0
1676922698.6812701,-10.25390625,-15.13671875,-1.953125,33.69140625,0.0
1676922698.685031,-10.25390625,2.9296875,-58.10546875,44.921875,0.0
1676922698.688792,-69.82421875,3.41796875,8.7890625,41.9921875,0.0
1676922698.692553,-33.69140625,-15.625,21.97265625,3.41796875,0.0
1676922698.6963139,35.64453125,-29.78515625,0.9765625,-23.4375,0.0
1676922698.700075,41.50390625,-33.69140625,-20.5078125,11.23046875,0.0
1676922698.7038357,31.73828125,-41.015625,-57.12890625,4.8828125,0.0
1676922698.7075968,-1.953125,-35.15625,-53.7109375,-23.4375,0.0
1676922698.7113495,-17.08984375,-22.4609375,-40.52734375,-29.296875,0.0
1676922698.7151022,-9.27734375,-25.390625,0.9765625,-19.04296875,0.0
1676922698.718855,4.8828125,-29.78515625,0.0,-33.203125,0.0
1676922698.7226076,6.34765625,-36.1328125,-45.8984375,-22.4609375,0.0
1676922698.7263603,-12.20703125,-61.03515625,-54.19921875,-40.52734375,0.0
1676922698.730113,26.85546875,-18.5546875,-23.92578125,-23.92578125,0.0
1676922698.733866,74.70703125,-11.23046875,-2.9296875,54.19921875,0.0
1676922698.7376187,59.5703125,-52.24609375,0.9765625,46.38671875,0.0
1676922698.7413714,56.640625,-21.484375,-32.71484375,38.0859375,0.0
1676922698.745124,42.48046875,-15.13671875,-98.6328125,38.0859375,0.0
1676922698.7488768,3.41796875,-20.5078125,-49.31640625,33.203125,0.0
1676922698.7526295,-18.06640625,-13.671875,30.2734375,1.953125,0.0
1676922698.7563498,32.71484375,-39.0625,12.6953125,15.625,0.0
1676922698.7600698,-7.8125,-57.6171875,-26.3671875,18.5546875,0.0
1676922698.7637901,-33.69140625,-23.4375,-48.828125,-15.13671875,0.0
1676922698.7675102,-73.2421875,-12.20703125,-43.45703125,-2.9296875,0.0
1676922698.7712305,-51.26953125,-50.78125,-46.38671875,9.27734375,0.0
1676922698.7749505,-22.94921875,10.7421875,-12.6953125,-21.97265625,0.0
1676922698.7786708,-40.0390625,3.41796875,11.23046875,-10.25390625,0.0
1676922698.782391,-26.85546875,-37.109375,-72.75390625,21.97265625,0.0
1676922698.786111,19.53125,-60.05859375,-25.87890625,40.52734375,0.0
1676922698.7898314,35.15625,-53.22265625,91.796875,8.7890625,0.0
1676922698.7935514,-33.203125,-36.62109375,24.90234375,-48.33984375,0.0
1676922698.7972717,6.8359375,-23.4375,-40.0390625,-16.11328125,0.0
1676922698.8010194,35.15625,-25.87890625,-30.2734375,8.7890625,0.0
1676922698.8047674,19.04296875,-65.91796875,-49.8046875,-25.87890625,0.0
1676922698.808515,14.6484375,-73.73046875,-50.29296875,-1.46484375,0.0
1676922698.8122628,-87.40234375,-44.43359375,-13.18359375,-10.7421875,0.0
1676922698.8160107,-61.5234375,-67.87109375,23.4375,-9.765625,0.0
1676922698.8197584,11.23046875,-59.08203125,4.39453125,-1.46484375,0.0
1676922698.823506,-61.03515625,5.859375,-41.015625,-48.33984375,0.0
1676922698.827254,11.71875,-74.21875,-25.390625,-28.3203125,0.0
1676922698.8310018,31.73828125,-32.71484375,-54.19921875,-16.11328125,0.0
1676922698.8347495,-48.33984375,6.8359375,-52.734375,0.48828125,0.0
1676922698.8384974,-5.37109375,-47.36328125,-24.4140625,-0.48828125,0.0
1676922698.842245,-28.3203125,-61.03515625,-62.98828125,-41.015625,0.0
1676922698.8460994,-48.33984375,-19.53125,-91.30859375,-54.6875,0.0
1676922698.8499537,-19.53125,1.953125,-46.875,-9.765625,0.0
1676922698.853808,-17.08984375,-45.41015625,2.9296875,-10.7421875,0.0
1676922698.8576622,-5.859375,-53.7109375,-16.11328125,-35.15625,0.0
1676922698.8615165,12.6953125,-77.1484375,-12.6953125,15.13671875,0.0
1676922698.8653708,30.2734375,-51.26953125,-17.578125,17.578125,0.0
1676922698.8692253,34.1796875,9.27734375,-59.5703125,-60.05859375,0.0
1676922698.8730795,-87.40234375,10.7421875,-68.84765625,-93.26171875,0.0
1676922698.8769338,-29.296875,-72.75390625,-44.921875,-12.6953125,0.0
1676922698.880788,108.3984375,-81.54296875,-42.96875,23.4375,0.0
1676922698.8846424,14.6484375,-27.34375,-46.38671875,5.859375,0.0
1676922698.8884966,44.921875,-66.40625,-44.43359375,28.80859375,0.0
1676922698.8946297,78.125,-91.30859375,-39.0625,-10.7421875,0.0
1676922698.900763,-11.23046875,-42.48046875,-42.96875,-31.25,0.0
1676922698.906896,-50.78125,-19.53125,-56.640625,-22.4609375,0.0
1676922698.9130294,-105.46875,-27.83203125,-51.26953125,-15.625,0.0
1676922698.9191625,-98.14453125,-26.85546875,-63.4765625,-5.859375,0.0
1676922698.9252958,-25.87890625,-32.71484375,-71.2890625,-26.3671875,0.0
1676922698.931429,13.18359375,-16.6015625,-49.31640625,-19.53125,0.0
1676922698.937562,14.16015625,-2.9296875,-23.4375,-13.671875,0.0
1676922698.9436953,28.3203125,-22.94921875,-14.16015625,26.85546875,0.0
1676922698.9498284,43.9453125,-28.3203125,-72.265625,17.578125,0.0
1676922698.9559617,-38.0859375,-15.625,-87.40234375,-51.7578125,0.0
1676922698.9620948,-30.2734375,-49.31640625,-50.78125,-46.38671875,1.0
1676922698.96463,48.828125,-67.87109375,-41.9921875,-7.32421875,0.0
1676922698.967165,-19.04296875,-76.66015625,-54.6875,-12.20703125,0.0
1676922698.9697003,-23.4375,-59.5703125,-23.4375,3.41796875,0.0
1676922698.9722354,62.98828125,-56.640625,26.85546875,0.9765625,0.0
1676922698.9747705,-22.94921875,-38.57421875,-6.8359375,-16.6015625,0.0
1676922698.977306,-41.9921875,-18.06640625,-59.08203125,-12.6953125,0.0
1676922698.979841,-49.8046875,-15.13671875,-28.3203125,-15.625,0.0
1676922698.982376,-32.2265625,-34.66796875,-0.9765625,-6.34765625,0.0
1676922698.9849112,92.28515625,-66.40625,8.7890625,41.015625,0.0
1676922698.9874463,35.64453125,-64.94140625,5.37109375,23.4375,0.0
1676922698.9899817,-16.11328125,-68.359375,-24.90234375,-49.8046875,0.0
1676922698.9925168,-14.6484375,-73.73046875,-32.71484375,-28.3203125,0.0
1676922698.9962502,-105.46875,-31.25,-53.7109375,-12.6953125,0.0
1676922698.9999838,-103.02734375,-2.9296875,-51.26953125,-24.4140625,0.0
1676922699.0037172,32.2265625,-25.390625,-29.78515625,-18.06640625,0.0
1676922699.0074506,39.55078125,-63.4765625,-45.8984375,-15.625,0.0
1676922699.0111842,-85.9375,-47.8515625,-34.66796875,-47.8515625,0.0
1676922699.0149176,-98.6328125,-51.26953125,5.859375,-30.76171875,0.0
1676922699.018651,-21.97265625,-66.40625,4.39453125,-3.90625,0.0
1676922699.0223846,28.80859375,-86.9140625,14.16015625,-35.15625,0.0
1676922699.026118,16.11328125,-90.33203125,5.37109375,-32.2265625,0.0
1676922699.0298514,-53.22265625,-20.01953125,-42.48046875,14.16015625,0.0
1676922699.033585,-42.48046875,-26.3671875,-48.828125,14.16015625,0.0
1676922699.0373185,2.9296875,-79.1015625,-19.53125,-1.46484375,0.0
1676922699.0410907,-78.61328125,-41.50390625,-9.27734375,-40.0390625,0.0
1676922699.0448627,-41.50390625,-34.66796875,-15.625,-50.29296875,0.0
1676922699.048635,-62.98828125,5.37109375,-43.9453125,-64.453125,0.0
1676922699.0524073,-133.30078125,-28.80859375,-28.3203125,-54.19921875,0.0
1676922699.0561793,-38.0859375,-96.19140625,12.6953125,-11.23046875,0.0
1676922699.0599515,-64.453125,21.97265625,-12.6953125,-39.0625,0.0
1676922699.0637238,-35.15625,-23.92578125,-50.29296875,-53.7109375,0.0
1676922699.0674958,0.48828125,-93.75,-9.765625,-31.25,0.0
1676922699.071268,-22.94921875,-53.7109375,-14.6484375,-13.18359375,0.0
1676922699.0750403,-43.9453125,-79.1015625,-90.33203125,-29.296875,0.0
1676922699.0788124,-68.84765625,-40.52734375,-56.640625,-34.1796875,0.0
1676922699.0825846,-42.48046875,-39.55078125,37.109375,-42.96875,0.0
1676922699.0864098,-79.58984375,-20.5078125,52.24609375,-44.921875,0.0
1676922699.090235,-28.80859375,-9.765625,11.23046875,-17.08984375,0.0
1676922699.0940602,-6.8359375,-29.78515625,4.8828125,-19.04296875,0.0
1676922699.0978854,-17.08984375,-6.8359375,7.32421875,-19.04296875,0.0
1676922699.1017106,45.8984375,-27.34375,-12.20703125,15.13671875,0.0
1676922699.105536,54.6875,-42.48046875,-18.06640625,42.48046875,0.0
1676922699.1093612,11.23046875,-13.18359375,-21.97265625,6.8359375,0.0
1676922699.1131864,-36.62109375,-6.34765625,-12.20703125,-16.6015625,0.0
1676922699.1170115,-52.734375,-25.87890625,-6.8359375,-12.20703125,0.0
1676922699.1208367,13.18359375,-37.109375,-31.73828125,0.0,0.0
1676922699.124662,19.04296875,-47.8515625,-48.33984375,7.8125,0.0
1676922699.128487,-62.98828125,20.99609375,-55.6640625,-32.71484375,0.0
1676922699.132126,-52.734375,-18.06640625,-45.41015625,-22.94921875,0.0
1676922699.1357648,30.2734375,-124.0234375,-26.85546875,18.5546875,0.0
1676922699.1394038,-19.04296875,-30.76171875,-58.10546875,-13.18359375,0.0
1676922699.1430428,-84.9609375,-23.92578125,-20.5078125,-34.1796875,0.0
1676922699.1466815,-107.421875,-61.5234375,20.01953125,-17.08984375,0.0
1676922699.1503205,1.46484375,-41.50390625,-2.9296875,5.859375,0.0
1676922699.1539595,15.625,-50.78125,-27.34375,-3.90625,0.0
1676922699.1575983,-67.87109375,-83.49609375,-74.21875,-32.2265625,0.0
1676922699.1612372,-33.69140625,-75.68359375,-53.7109375,-28.3203125,0.0
1676922699.1648762,-31.73828125,-28.3203125,-3.41796875,-41.50390625,0.0
1676922699.168515,-54.6875,-23.92578125,-3.41796875,-57.6171875,0.0
1676922699.172154,-22.4609375,-2.9296875,-30.76171875,-38.0859375,0.0
1676922699.175899,-66.89453125,-1.46484375,-24.90234375,-46.875,0.0
1676922699.1796443,-79.58984375,-16.6015625,-22.4609375,-53.22265625,0.0
1676922699.1833897,-32.2265625,-22.94921875,-68.359375,-13.18359375,0.0
1676922699.1871347,9.765625,-66.40625,-27.34375,13.671875,0.0
1676922699.1908798,-77.63671875,-7.8125,-12.6953125,-35.15625,0.0
1676922699.1946251,-50.29296875,-10.25390625,-28.80859375,-42.48046875,0.0
1676922699.1983705,64.453125,-70.80078125,14.16015625,10.25390625,0.0
1676922699.2021155,28.3203125,-71.77734375,-28.80859375,-9.27734375,0.0
1676922699.2058606,-131.8359375,-19.04296875,-62.01171875,-75.1953125,0.0
1676922699.209606,-121.09375,-0.9765625,-21.97265625,-55.17578125,0.0
1676922699.2133512,15.625,-31.25,5.37109375,-17.578125,0.0
1676922699.2170963,52.734375,-65.4296875,-0.48828125,3.41796875,0.0
1676922699.2208574,-34.66796875,-57.6171875,-53.7109375,-10.7421875,0.0
1676922699.2246182,-81.54296875,-0.48828125,-23.4375,-36.62109375,0.0
1676922699.2283792,-69.3359375,31.73828125,14.6484375,-40.0390625,0.0
1676922699.2321403,-59.08203125,-0.9765625,-16.6015625,-45.41015625,0.0
1676922699.235901,41.015625,-52.734375,-6.8359375,-17.578125,0.0
1676922699.2396622,-31.73828125,-33.69140625,-9.765625,-24.4140625,0.0
1676922699.2434232,-113.28125,-23.92578125,9.765625,-19.04296875,0.0
1676922699.247184,2.44140625,-4.8828125,-11.23046875,-8.30078125,0.0
1676922699.250945,37.109375,-70.80078125,-45.8984375,-16.6015625,0.0
1676922699.2547061,-41.015625,-74.21875,-8.30078125,-32.2265625,0.0
1676922699.258467,-93.75,-17.578125,-3.90625,-44.921875,0.0
1676922699.262228,-39.55078125,-36.62109375,-13.671875,-46.38671875,0.0
1676922699.2672436,-56.15234375,-47.36328125,-56.640625,-30.2734375,0.0
1676922699.2722592,-64.94140625,-88.8671875,-46.38671875,7.8125,0.0
1676922699.2772748,-27.34375,-28.80859375,-22.4609375,-15.13671875,0.0
1676922699.2822905,-62.01171875,17.578125,-8.30078125,-29.78515625,0.0
1676922699.287306,1.46484375,20.01953125,11.23046875,-28.80859375,0.0
1676922699.2923217,-50.78125,3.90625,-21.97265625,-52.24609375,0.0
1676922699.2973375,-85.9375,-49.31640625,-10.7421875,-44.921875,0.0
1676922699.3023531,-16.11328125,-35.15625,7.8125,-14.6484375,0.0
1676922699.3073688,13.18359375,-32.2265625,-18.5546875,3.41796875,0.0
1676922699.3123844,-18.06640625,-55.17578125,12.20703125,6.34765625,0.0
1676922699.3174,-15.625,-43.9453125,45.41015625,-16.6015625,0.0
1676922699.3224156,-13.671875,20.01953125,14.6484375,-23.4375,0.0
1676922699.3261847,-55.17578125,15.625,1.46484375,-16.6015625,0.0
1676922699.3299541,-55.17578125,-20.5078125,-0.9765625,-27.34375,0.0
1676922699.3337233,-19.53125,-11.23046875,-46.38671875,-3.41796875,0.0
1676922699.3374927,-40.52734375,-17.578125,-58.59375,-22.4609375,0.0
1676922699.3412619,-25.87890625,-50.29296875,13.671875,10.25390625,0.0
1676922699.3450313,14.16015625,-19.04296875,6.8359375,21.97265625,0.0
1676922699.3488004,8.7890625,-66.40625,-21.484375,4.39453125,0.0
1676922699.3525696,-25.87890625,-87.40234375,4.39453125,-1.953125,0.0
1676922699.356339,52.734375,-45.41015625,22.4609375,-2.44140625,0.0
1676922699.3601081,33.69140625,-12.6953125,-3.41796875,1.46484375,0.0
1676922699.3638775,-11.71875,-9.765625,-20.5078125,-1.46484375,0.0
1676922699.3676467,51.7578125,-65.91796875,-16.11328125,9.27734375,0.0
1676922699.3713934,-57.6171875,-3.41796875,-31.25,-65.91796875,0.0
1676922699.37514,-173.33984375,63.96484375,-44.43359375,-95.21484375,0.0
1676922699.3788867,-10.25390625,-55.17578125,-15.625,-1.46484375,0.0
1676922699.3826334,-0.48828125,-94.7265625,-7.8125,33.69140625,0.0
1676922699.38638,-63.96484375,-8.7890625,-44.921875,5.859375,0.0
1676922699.3901267,-83.49609375,25.390625,-67.3828125,-30.2734375,0.0
1676922699.3938735,27.83203125,-71.2890625,-22.4609375,8.30078125,0.0
1676922699.39762,76.171875,-138.18359375,42.96875,46.875,0.0
1676922699.4013667,17.08984375,-15.13671875,14.16015625,22.4609375,0.0
1676922699.4051135,-34.66796875,41.9921875,-36.1328125,-19.04296875,0.0
1676922699.40886,-14.6484375,-66.40625,-24.90234375,13.671875,0.0
1676922699.4126067,-17.578125,-17.578125,-39.55078125,-15.13671875,0.0
1676922699.4163542,-45.8984375,-13.18359375,-35.64453125,-66.89453125,0.0
1676922699.4201016,-48.828125,-2.9296875,-2.9296875,-44.921875,0.0
1676922699.423849,-38.57421875,-5.859375,-16.6015625,2.44140625,0.0
1676922699.4275966,54.6875,-73.73046875,-30.2734375,23.4375,0.0
1676922699.431344,-62.01171875,-1.46484375,-46.38671875,-17.08984375,0.0
1676922699.4350915,-81.54296875,-18.5546875,-15.625,-31.25,0.0
1676922699.4388387,65.4296875,-54.19921875,15.13671875,7.8125,0.0
1676922699.4425862,60.546875,-86.42578125,11.71875,53.7109375,0.0
1676922699.4463336,-31.25,-55.6640625,-32.71484375,21.97265625,0.0
1676922699.450081,-46.875,-25.390625,-36.62109375,-15.625,0.0
1676922699.4538286,56.640625,-37.59765625,-2.44140625,15.625,0.0
1676922699.457576,72.265625,-65.91796875,-9.765625,31.73828125,0.0
1676922699.4613223,-13.18359375,-68.84765625,-12.6953125,-21.97265625,0.0
1676922699.4650688,-119.62890625,13.18359375,-11.71875,-40.52734375,0.0
1676922699.468815,-123.046875,-9.765625,11.23046875,-34.66796875,0.0
1676922699.4725616,-84.47265625,-13.18359375,-14.6484375,-46.38671875,0.0
1676922699.4763079,-88.37890625,9.27734375,-50.29296875,-55.6640625,0.0
1676922699.4800544,71.77734375,-96.6796875,-33.203125,-24.4140625,0.0
1676922699.4838006,35.64453125,-59.5703125,-25.390625,-10.7421875,0.0
1676922699.487547,-187.98828125,-28.80859375,-43.9453125,-60.546875,0.0
1676922699.4912934,-95.21484375,-112.3046875,-15.13671875,-13.671875,0.0
1676922699.4950397,43.9453125,-91.30859375,-28.3203125,12.20703125,0.0
1676922699.4987862,19.53125,-45.8984375,-35.15625,-28.80859375,0.0
1676922699.5025325,-6.8359375,1.46484375,-36.1328125,-57.12890625,0.0
1676922699.5062876,-46.875,14.16015625,-83.49609375,-51.7578125,0.0
1676922699.5100427,24.90234375,-46.875,-45.8984375,-33.69140625,0.0
1676922699.5137978,-0.9765625,-56.15234375,-8.7890625,-33.69140625,0.0
1676922699.5175526,-121.09375,-70.80078125,12.6953125,-15.625,0.0
1676922699.5213077,-86.42578125,0.9765625,17.08984375,-35.64453125,0.0
1676922699.5250628,11.23046875,16.11328125,17.578125,-30.2734375,0.0
1676922699.528818,47.8515625,-62.98828125,22.4609375,11.71875,0.0
1676922699.532573,51.26953125,-50.78125,-23.4375,37.109375,0.0
1676922699.5363278,5.859375,-9.27734375,-46.38671875,12.20703125,0.0
1676922699.540083,-42.96875,-36.62109375,-47.36328125,-26.3671875,0.0
1676922699.543838,-143.06640625,20.01953125,-30.76171875,-61.5234375,0.0
1676922699.547593,-76.66015625,-4.8828125,46.875,-63.4765625,0.0
1676922699.5514467,79.1015625,-67.3828125,41.9921875,-25.390625,0.0
1676922699.5553,5.37109375,-13.671875,-23.4375,-41.50390625,0.0
1676922699.5591536,-50.78125,-14.16015625,-12.20703125,-51.26953125,0.0
1676922699.563007,-34.66796875,-58.10546875,13.18359375,-8.30078125,0.0
1676922699.5668604,35.15625,-97.16796875,4.39453125,0.0,0.0
1676922699.570714,25.390625,-57.6171875,-14.16015625,-0.9765625,0.0
1676922699.5745676,-111.328125,20.99609375,-48.828125,-43.45703125,0.0
1676922699.5784209,-75.1953125,-4.8828125,-35.15625,-34.66796875,0.0
1676922699.5822744,43.45703125,-45.41015625,-21.97265625,3.41796875,0.0
1676922699.586128,20.5078125,-66.40625,-16.6015625,11.23046875,0.0
1676922699.5899813,-48.33984375,3.90625,-25.87890625,1.46484375,0.0
1676922699.5938349,10.7421875,-35.15625,-41.015625,-5.37109375,0.0
1676922699.5974948,62.5,-96.6796875,-23.4375,-14.6484375,0.0
1676922699.6011546,28.3203125,-102.05078125,-38.0859375,-12.20703125,0.0
1676922699.6048145,25.390625,-77.63671875,-41.9921875,-0.48828125,0.0
1676922699.6084745,-61.5234375,2.9296875,-13.671875,-57.12890625,0.0
1676922699.6121342,-51.7578125,-49.8046875,3.90625,-48.828125,0.0
1676922699.6157942,-59.5703125,-37.109375,-5.37109375,-31.73828125,0.0
1676922699.6194541,-10.25390625,5.37109375,-7.32421875,-27.34375,0.0
1676922699.6231139,77.63671875,-56.15234375,26.3671875,-4.8828125,0.0
1676922699.6267738,32.2265625,-33.69140625,2.9296875,-31.73828125,0.0
1676922699.6304338,-24.4140625,32.2265625,-65.91796875,-53.7109375,0.0
1676922699.6340935,-44.921875,-18.5546875,-78.61328125,-40.52734375,0.0
1676922699.6377535,10.7421875,-103.515625,4.39453125,-8.30078125,0.0
1676922699.6427135,-61.5234375,-51.7578125,7.8125,-24.4140625,0.0
1676922699.6476734,2.9296875,-65.91796875,-34.66796875,-25.87890625,0.0
1676922699.6526334,106.93359375,-111.81640625,-7.32421875,9.27734375,0.0
1676922699.6575933,-2.44140625,-49.8046875,14.6484375,-2.9296875,0.0
1676922699.6625533,-105.46875,11.23046875,-10.25390625,-35.64453125,0.0
1676922699.6675134,13.671875,-54.19921875,-11.71875,-3.41796875,0.0
1676922699.6724732,83.49609375,-96.6796875,-7.32421875,16.11328125,0.0
1676922699.6774333,-2.44140625,-32.71484375,-58.10546875,-12.20703125,0.0
1676922699.682393,-19.04296875,-14.6484375,-77.63671875,-30.76171875,0.0
1676922699.6873531,30.2734375,-60.05859375,8.30078125,-9.765625,0.0
1676922699.692313,-105.95703125,-54.6875,13.671875,-9.765625,0.0
1676922699.697273,-70.3125,6.34765625,-35.64453125,-36.62109375,0.0
1676922699.7010095,80.078125,-32.71484375,-15.625,-4.39453125,0.0
1676922699.704746,95.21484375,-72.265625,0.0,22.4609375,0.0
1676922699.7084825,-15.13671875,-17.08984375,-3.41796875,6.34765625,0.0
1676922699.712219,-40.52734375,-23.92578125,-38.0859375,10.25390625,0.0
1676922699.7159555,55.6640625,-63.4765625,-48.33984375,5.37109375,0.0
1676922699.7196922,-47.36328125,-1.46484375,-15.625,-30.2734375,0.0
1676922699.7234287,-36.62109375,-1.953125,1.953125,-13.671875,0.0
1676922699.7271652,39.55078125,-44.43359375,1.46484375,-3.41796875,0.0
1676922699.7309017,6.8359375,-38.57421875,-38.57421875,-24.4140625,0.0
1676922699.7346382,-49.31640625,-24.4140625,-28.3203125,-19.53125,0.0
1676922699.7383747,-35.64453125,-39.0625,17.08984375,-14.6484375,0.0
1676922699.7421112,-54.6875,-27.83203125,-12.6953125,-41.015625,0.0
1676922699.7458563,-77.63671875,-6.34765625,1.953125,-30.2734375,0.0
1676922699.7496014,10.7421875,-59.08203125,5.859375,3.41796875,0.0
1676922699.7533467,-6.34765625,-52.24609375,-55.17578125,-16.11328125,0.0
1676922699.7570918,-55.17578125,-42.48046875,-21.484375,-41.015625,0.0
1676922699.7608368,-131.34765625,-28.3203125,10.7421875,-43.9453125,0.0
1676922699.7645822,-88.37890625,-18.06640625,-9.27734375,-57.12890625,0.0
1676922699.7683272,25.390625,-41.9921875,8.30078125,-42.48046875,0.0
1676922699.7720723,-19.53125,-42.48046875,5.859375,-18.06640625,0.0
1676922699.7758174,-88.37890625,-13.18359375,-28.80859375,-42.96875,0.0
1676922699.7795625,-66.89453125,-8.7890625,-48.33984375,-57.6171875,0.0
1676922699.7833078,-17.08984375,-33.203125,-40.0390625,-41.015625,0.0
1676922699.7870529,-22.94921875,-28.3203125,-37.59765625,-21.97265625,0.0
1676922699.7908587,-37.59765625,-17.578125,-24.4140625,-16.6015625,0.0
1676922699.7946646,-80.078125,-17.578125,-9.27734375,-27.83203125,0.0
1676922699.7984705,-122.55859375,2.9296875,-41.50390625,-52.734375,0.0
1676922699.8022764,-73.73046875,-18.06640625,-61.5234375,-56.15234375,0.0
1676922699.8060822,-82.03125,-14.6484375,-26.85546875,-49.8046875,0.0
1676922699.809888,-78.61328125,0.0,-8.30078125,-39.0625,0.0
1676922699.8136938,-9.765625,-41.9921875,-7.32421875,-22.94921875,0.0
1676922699.8174996,-59.08203125,-17.578125,-27.34375,-35.64453125,0.0
1676922699.8213055,-146.97265625,12.20703125,-33.203125,-46.38671875,0.0
1676922699.8251114,-42.48046875,-39.55078125,-31.73828125,-20.5078125,0.0
1676922699.8289173,89.35546875,-24.90234375,-79.1015625,-1.46484375,0.0
1676922699.8327231,-53.22265625,-11.23046875,-70.3125,-31.73828125,0.0
1676922699.8364391,-145.01953125,-18.06640625,-20.01953125,-51.7578125,0.0
1676922699.840155,-39.0625,12.6953125,-0.9765625,-53.22265625,0.0
1676922699.8438706,6.8359375,-1.953125,15.13671875,-10.25390625,0.0
1676922699.8475866,44.43359375,-26.3671875,-24.90234375,-5.37109375,0.0
1676922699.8513026,-10.7421875,-14.16015625,-43.9453125,-24.90234375,0.0
1676922699.8550184,-35.64453125,-7.8125,-1.953125,-9.765625,0.0
1676922699.8587341,-52.734375,-3.90625,0.0,-8.7890625,0.0
1676922699.8624501,-69.3359375,-8.30078125,-3.90625,-10.7421875,0.0
1676922699.866166,-115.234375,61.5234375,-31.25,-54.6875,0.0
1676922699.8698819,-10.7421875,-1.953125,-45.41015625,-24.4140625,0.0
1676922699.8735976,88.37890625,-94.7265625,-27.34375,15.625,0.0
1676922699.8773136,-82.51953125,-20.5078125,-26.3671875,-8.30078125,2.0
1676922699.8810768,-47.36328125,-20.01953125,-19.53125,8.30078125,0.0
1676922699.8848403,68.84765625,-8.7890625,-24.90234375,17.08984375,0.0
1676922699.8886034,18.5546875,-0.48828125,-17.08984375,13.18359375,0.0
1676922699.892367,1.953125,-10.25390625,-7.32421875,-2.9296875,0.0
1676922699.89613,-21.484375,-11.23046875,-11.23046875,-7.8125,0.0
1676922699.8998933,-41.50390625,-22.4609375,-25.390625,-4.39453125,0.0
1676922699.9036567,-18.5546875,-28.80859375,-32.2265625,-11.23046875,0.0
1676922699.90742,11.71875,-30.2734375,-18.5546875,-0.9765625,0.0
1676922699.9111834,-5.37109375,-6.8359375,-27.83203125,-5.37109375,0.0
1676922699.9149466,-26.85546875,11.23046875,-60.546875,-24.90234375,0.0
1676922699.91871,-0.48828125,-29.78515625,-50.29296875,-14.16015625,0.0
1676922699.9224732,-23.4375,-35.64453125,-35.64453125,-23.92578125,0.0
1676922699.9262295,-2.9296875,-28.80859375,-15.13671875,-17.578125,0.0
1676922699.929986,41.50390625,-45.8984375,10.25390625,3.41796875,0.0
1676922699.9337425,-13.18359375,-15.13671875,6.34765625,-1.953125,0.0
1676922699.9374988,-19.04296875,-1.953125,-16.6015625,-2.44140625,0.0
1676922699.941255,-24.90234375,-40.0390625,-13.671875,-23.92578125,0.0
1676922699.9450116,23.4375,-45.41015625,6.8359375,-31.73828125,0.0
1676922699.9487681,29.296875,-15.13671875,-17.08984375,-3.90625,0.0
1676922699.9525244,15.625,-17.578125,-26.3671875,19.53125,0.0
1676922699.9562807,10.25390625,-41.50390625,-25.87890625,9.765625,0.0
1676922699.9600372,-17.08984375,-49.31640625,-37.109375,-15.625,0.0
1676922699.9637938,-28.80859375,-48.33984375,-62.01171875,-26.85546875,0.0
1676922699.96755,-58.10546875,-51.7578125,-59.08203125,-20.99609375,0.0
1676922699.9712873,-32.2265625,-31.25,0.9765625,-15.625,0.0
1676922699.9750245,-19.04296875,-50.29296875,18.06640625,-6.34765625,0.0
1676922699.9787617,8.30078125,-50.78125,1.46484375,0.9765625,0.0
1676922699.982499,16.11328125,-39.0625,-3.41796875,-12.20703125,0.0
1676922699.986236,-9.765625,-41.50390625,-5.37109375,-31.73828125,0.0
1676922699.989973,-12.6953125,-44.921875,-6.8359375,-19.04296875,0.0
1676922699.9937103,-5.859375,-43.9453125,-43.9453125,-5.37109375,0.0
1676922699.9974475,16.11328125,-36.62109375,-70.3125,4.8828125,0.0
1676922700.0011847,15.625,-32.71484375,-18.5546875,1.46484375,0.0
1676922700.004922,7.32421875,-27.83203125,5.37109375,-1.953125,0.0
1676922700.0086591,-0.9765625,-13.671875,10.7421875,4.8828125,0.0
1676922700.0123963,-4.39453125,-13.18359375,8.30078125,1.46484375,0.0
1676922700.01629,2.44140625,-33.203125,-4.39453125,7.32421875,0.0
1676922700.0201836,15.625,-9.27734375,1.46484375,21.484375,0.0
1676922700.0240772,4.39453125,-16.6015625,-7.8125,9.27734375,0.0
1676922700.0279708,-8.7890625,-30.2734375,-34.1796875,8.30078125,0.0
1676922700.0318644,5.859375,-9.27734375,-43.9453125,12.6953125,0.0
1676922700.035758,-26.3671875,-19.04296875,-31.73828125,-22.94921875,0.0
1676922700.0396519,-24.4140625,-4.39453125,3.41796875,-10.7421875,0.0
1676922700.0435455,3.41796875,-34.66796875,7.8125,0.9765625,0.0
1676922700.047439,-31.25,-49.8046875,-2.9296875,8.30078125,0.0
1676922700.0513327,-34.66796875,-12.6953125,9.27734375,10.7421875,0.0
1676922700.0552263,-8.7890625,-15.625,9.765625,-8.30078125,0.0
1676922700.05912,-17.578125,-24.90234375,3.41796875,-12.6953125,0.0
1676922700.0639567,-38.57421875,-19.53125,-13.671875,-6.34765625,0.0
1676922700.0687933,-13.671875,-29.78515625,-24.90234375,0.9765625,0.0
1676922700.07363,11.71875,-38.57421875,-11.71875,1.953125,0.0
1676922700.078467,-0.9765625,-23.4375,-20.5078125,-6.8359375,0.0
1676922700.0833035,-12.20703125,-21.484375,-53.7109375,-6.8359375,0.0
1676922700.0881402,-24.90234375,-41.9921875,-71.2890625,-1.46484375,0.0
1676922700.092977,-24.90234375,-40.52734375,-25.87890625,-20.99609375,0.0
1676922700.0978136,-14.16015625,-31.25,21.484375,-40.52734375,0.0
1676922700.1026504,-12.20703125,-31.25,8.7890625,-39.0625,0.0
1676922700.1074872,-30.76171875,-20.01953125,-26.3671875,-27.83203125,0.0
1676922700.1123238,-24.90234375,-29.296875,-65.4296875,-25.390625,0.0
1676922700.1171606,-16.6015625,-46.875,-25.87890625,-36.62109375,0.0
1676922700.1221576,-34.1796875,-49.31640625,22.94921875,-51.7578125,0.0
1676922700.1271544,-49.8046875,-40.52734375,4.8828125,-49.8046875,0.0
1676922700.1321514,-54.19921875,-43.9453125,-6.8359375,-29.296875,0.0
1676922700.1371481,-55.17578125,-60.546875,-20.01953125,-7.8125,0.0
1676922700.1421452,-46.38671875,-62.01171875,-69.3359375,-4.39453125,0.0
1676922700.147142,-27.83203125,-33.69140625,-62.01171875,-18.5546875,0.0
1676922700.152139,-27.34375,-13.671875,-7.32421875,-13.671875,0.0
1676922700.157136,-33.203125,-26.3671875,-3.41796875,-13.18359375,0.0
1676922700.1621327,-18.5546875,-33.69140625,-30.2734375,-21.484375,0.0
1676922700.1671298,-19.04296875,-39.0625,-49.31640625,-29.296875,0.0
1676922700.1721265,-17.578125,-33.203125,-25.87890625,-15.13671875,0.0
1676922700.1771235,-29.296875,-23.4375,-17.08984375,-8.30078125,0.0
1676922700.1797042,-43.9453125,-20.99609375,-42.96875,-27.83203125,0.0
1676922700.1822848,-52.24609375,-35.64453125,-44.43359375,-25.87890625,0.0
1676922700.1848655,-39.0625,-54.19921875,-21.484375,-28.3203125,0.0
1676922700.1874464,-17.08984375,-24.90234375,4.39453125,-34.66796875,0.0
1676922700.190027,-23.92578125,-8.30078125,13.18359375,-27.83203125,0.0
1676922700.1926076,-45.8984375,-18.06640625,0.0,-23.4375,0.0
1676922700.1951883,-62.01171875,-18.5546875,-32.2265625,-22.94921875,0.0
1676922700.197769,-40.0390625,-27.34375,-20.5078125,-20.5078125,0.0
1676922700.2003498,-30.76171875,-58.10546875,-27.83203125,-6.8359375,0.0
1676922700.2029305,-32.2265625,-59.08203125,-69.82421875,-31.73828125,0.0
1676922700.205511,-21.97265625,-23.92578125,-48.33984375,-62.5,0.0
1676922700.2080917,-42.96875,-26.3671875,-4.39453125,-38.57421875,0.0
1676922700.2117898,-36.1328125,-32.2265625,3.41796875,-18.5546875,0.0
1676922700.215488,-19.04296875,-17.08984375,-11.23046875,-31.25,0.0
1676922700.2191863,-31.25,-26.85546875,-64.94140625,-26.3671875,0.0
1676922700.2228844,-17.08984375,-38.57421875,-82.51953125,5.37109375,0.0
1676922700.2265825,-17.578125,-34.1796875,-37.109375,0.0,0.0
1676922700.2302806,-30.2734375,-41.015625,-17.08984375,-27.34375,0.0
1676922700.2339787,-51.7578125,-61.5234375,-49.31640625,-39.0625,0.0
1676922700.2376769,-55.17578125,-60.546875,-62.5,-37.109375,0.0
1676922700.241375,-29.78515625,-32.2265625,6.8359375,-32.71484375,0.0
1676922700.2450733,-20.01953125,-16.11328125,26.3671875,-34.66796875,0.0
1676922700.2487714,-24.90234375,-17.578125,-2.9296875,-23.4375,0.0
1676922700.2524695,-51.26953125,-38.57421875,-26.85546875,-28.80859375,0.0
1676922700.2563353,-56.640625,-61.5234375,-19.53125,-38.57421875,0.0
1676922700.260201,-32.2265625,-40.52734375,-16.11328125,-25.87890625,0.0
1676922700.264067,-31.25,-44.921875,-74.21875,-25.390625,0.0
1676922700.2679327,-27.34375,-74.21875,-76.171875,-52.734375,0.0
1676922700.2717984,-21.484375,-60.546875,-35.15625,-62.5,0.0
1676922700.2756643,-30.76171875,-58.10546875,-38.57421875,-48.828125,0.0
1676922700.27953,-59.5703125,-24.4140625,-14.16015625,-27.34375,0.0
1676922700.2833958,-46.875,-18.06640625,1.46484375,-17.578125,0.0
1676922700.2872615,-35.15625,-42.96875,-15.625,-41.015625,0.0
1676922700.2911272,-52.734375,-38.57421875,-52.24609375,-28.80859375,0.0
1676922700.2949932,-45.8984375,-28.80859375,-37.109375,-27.34375,0.0
1676922700.298859,-37.109375,-51.26953125,-27.83203125,-49.31640625,0.0
1676922700.3024995,-28.80859375,-79.1015625,-53.7109375,-53.22265625,0.0
1676922700.3061404,-37.109375,-69.3359375,-25.87890625,-31.73828125,0.0
1676922700.309781,-43.45703125,-34.66796875,-13.18359375,-25.87890625,0.0
1676922700.3134217,-32.2265625,-9.765625,-21.97265625,-27.34375,0.0
1676922700.3170626,-29.78515625,-32.2265625,-30.2734375,-21.484375,0.0
1676922700.3207033,-60.05859375,-58.59375,-45.8984375,-36.1328125,0.0
1676922700.324344,-35.64453125,-50.78125,-20.5078125,-31.73828125,0.0
1676922700.3279848,4.39453125,-36.62109375,-5.859375,-19.53125,0.0
1676922700.3316255,-0.9765625,-20.99609375,-18.06640625,-22.4609375,0.0
1676922700.335266,-22.4609375,-42.48046875,-19.04296875,-37.109375,0.0
1676922700.338907,-27.34375,-53.22265625,-26.85546875,-37.109375,0.0
1676922700.3425477,-31.25,-36.1328125,-38.0859375,-41.015625,0.0
1676922700.3463104,-22.4609375,-38.57421875,-47.8515625,-39.55078125,0.0
1676922700.3500729,-8.7890625,-38.57421875,-18.5546875,-22.94921875,0.0
1676922700.3538356,-29.296875,-40.0390625,10.7421875,-26.3671875,0.0
1676922700.357598,-19.53125,-35.64453125,-32.71484375,-30.76171875,0.0
1676922700.3613608,10.25390625,-40.0390625,-30.76171875,-34.1796875,0.0
1676922700.3651233,3.90625,-47.8515625,-19.53125,-20.01953125,0.0
1676922700.368886,11.23046875,-40.0390625,-54.19921875,-4.39453125,0.0
1676922700.3726487,11.71875,-32.71484375,-37.109375,-6.34765625,0.0
1676922700.3764112,-10.7421875,-20.5078125,-19.53125,-14.6484375,0.0
1676922700.380174,3.41796875,-30.76171875,3.90625,-17.578125,0.0
1676922700.3839364,6.8359375,-38.57421875,7.8125,-35.64453125,0.0
1676922700.3876991,-11.71875,-42.48046875,-10.25390625,-37.109375,0.0
1676922700.392663,-9.765625,-66.40625,-15.625,-1.953125,0.0
1676922700.3976269,-32.71484375,-53.22265625,-33.69140625,-17.578125,0.0
1676922700.402591,-16.6015625,-32.2265625,-26.85546875,-26.3671875,0.0
1676922700.4075549,-17.08984375,-27.83203125,-34.1796875,-20.99609375,0.0
1676922700.4125187,-36.1328125,-30.2734375,-59.5703125,-26.85546875,0.0
1676922700.4174829,-6.8359375,-28.80859375,-37.109375,-14.6484375,0.0
1676922700.4224467,0.0,-32.2265625,-18.06640625,-6.34765625,0.0
1676922700.4274106,-11.71875,-27.83203125,-21.484375,-26.3671875,0.0
1676922700.4323745,-36.62109375,-25.87890625,0.0,-49.31640625,0.0
1676922700.4373384,-28.3203125,-29.78515625,5.37109375,-9.765625,0.0
1676922700.4423025,-12.6953125,-41.015625,-30.76171875,6.34765625,0.0
1676922700.4472663,-25.87890625,-41.9921875,-16.6015625,-11.23046875,0.0
1676922700.451003,-27.34375,-18.5546875,4.8828125,-8.7890625,0.0
1676922700.45474,7.32421875,-24.4140625,-15.13671875,5.37109375,0.0
1676922700.4584768,20.99609375,-25.87890625,-31.73828125,7.8125,0.0
1676922700.4622135,-8.7890625,-28.80859375,-31.25,-11.23046875,0.0
1676922700.4659505,-17.578125,-47.36328125,-9.765625,-17.578125,0.0
1676922700.4696872,-11.71875,-41.015625,-26.3671875,-6.8359375,0.0
1676922700.473424,-39.55078125,-50.78125,-58.10546875,-22.94921875,0.0
1676922700.477161,-42.48046875,-43.45703125,-61.5234375,-22.4609375,0.0
1676922700.4808977,-48.828125,-18.06640625,-33.69140625,-18.06640625,0.0
1676922700.4846344,-37.59765625,-33.203125,6.34765625,-29.296875,0.0
1676922700.4883714,-25.390625,-30.2734375,-0.48828125,-23.92578125,0.0
1676922700.492108,-25.87890625,-20.5078125,0.48828125,-22.4609375,0.0
1676922700.495856,-67.3828125,-39.55078125,-8.7890625,-32.71484375,0.0
1676922700.499604,-44.921875,-33.69140625,-30.2734375,-31.73828125,0.0
1676922700.503352,14.6484375,-21.97265625,-14.16015625,-40.0390625,0.0
1676922700.5070999,-32.71484375,-32.71484375,-13.18359375,-44.43359375,0.0
1676922700.5108478,-38.0859375,-46.38671875,-35.15625,-22.4609375,0.0
1676922700.5145957,-11.23046875,-86.9140625,-2.44140625,-7.8125,0.0
1676922700.5183437,-19.04296875,-62.01171875,-28.80859375,-20.5078125,0.0
1676922700.5220916,-53.7109375,7.32421875,-88.37890625,-35.15625,0.0
1676922700.5258396,-90.33203125,8.7890625,-20.99609375,-35.64453125,0.0
1676922700.5295875,-64.453125,-31.25,41.015625,-36.62109375,0.0
1676922700.5333354,-48.33984375,-47.8515625,17.578125,-42.48046875,0.0
1676922700.5370834,-72.75390625,-25.87890625,-20.01953125,-44.921875,0.0
1676922700.5408356,-66.40625,-20.01953125,-23.4375,-33.203125,0.0
1676922700.5445879,-47.36328125,-11.23046875,-19.04296875,-12.20703125,0.0
1676922700.54834,-50.29296875,-37.109375,-44.43359375,-22.4609375,0.0
1676922700.5520923,-48.828125,-56.640625,-38.0859375,-45.41015625,0.0
1676922700.5558445,-42.96875,-40.52734375,-22.4609375,-41.50390625,0.0
1676922700.5595965,-26.3671875,-45.8984375,-25.87890625,-24.90234375,0.0
1676922700.5633488,-35.15625,-52.24609375,-23.92578125,-40.0390625,0.0
1676922700.567101,-50.78125,-54.19921875,-11.23046875,-36.62109375,0.0
1676922700.5708532,-61.03515625,-59.5703125,-38.57421875,-19.53125,0.0
1676922700.5746055,-65.91796875,-40.0390625,-34.1796875,-35.15625,0.0
1676922700.5783577,-58.59375,-39.55078125,-10.7421875,-36.1328125,0.0
1676922700.58211,-50.29296875,-65.91796875,-23.92578125,-34.66796875,0.0
1676922700.5858598,-66.89453125,-38.0859375,-16.11328125,-49.8046875,0.0
1676922700.5896099,-96.19140625,-15.13671875,-13.671875,-55.6640625,0.0
1676922700.5933597,-27.34375,-21.97265625,-8.7890625,-42.96875,0.0
1676922700.5971098,9.765625,-23.92578125,-5.37109375,-50.29296875,0.0
1676922700.6008596,-12.6953125,-35.15625,-28.3203125,-50.78125,0.0
1676922700.6046095,-24.4140625,-44.921875,-45.41015625,-36.1328125,0.0
1676922700.6083596,-26.3671875,-53.22265625,-41.50390625,-26.3671875,0.0
1676922700.6121094,-19.04296875,-54.6875,-12.6953125,-13.671875,0.0
1676922700.6158595,-6.8359375,-37.109375,5.859375,-7.32421875,0.0
1676922700.6196094,0.9765625,-31.73828125,-40.0390625,-7.8125,0.0
1676922700.6233594,-35.15625,-35.15625,-45.41015625,-29.78515625,0.0
1676922700.6271093,-51.7578125,-27.83203125,-4.8828125,-49.31640625,1.0
1676922700.6308734,-21.97265625,-45.8984375,-31.25,-42.96875,0.0
1676922700.6346378,-5.37109375,-39.55078125,-41.50390625,-11.71875,0.0
1676922700.638402,-22.94921875,-14.16015625,-24.90234375,6.8359375,0.0
1676922700.6421664,-18.5546875,-26.3671875,-14.16015625,-10.25390625,0.0
1676922700.6459305,-34.66796875,-32.2265625,-12.6953125,-26.85546875,0.0
1676922700.649695,-40.52734375,-49.31640625,-18.5546875,-25.390625,0.0
1676922700.653459,-22.4609375,-62.01171875,-22.94921875,-30.76171875,0.0
1676922700.6572232,-10.7421875,-35.64453125,-20.01953125,-29.78515625,0.0
1676922700.6609876,-20.01953125,-30.2734375,-18.5546875,-3.90625,0.0
1676922700.6647518,-47.36328125,-33.203125,-31.73828125,-13.18359375,0.0
1676922700.6685162,-3.41796875,-33.69140625,-8.7890625,-9.765625,0.0
1676922700.6722803,-10.7421875,-29.78515625,-5.37109375,-11.71875,0.0
1676922700.6773028,-5.859375,-11.71875,-5.37109375,-11.71875,0.0
1676922700.6823254,18.06640625,-14.16015625,-12.6953125,5.859375,0.0
1676922700.687348,-4.39453125,-46.875,-44.921875,-11.71875,0.0
1676922700.6923704,-18.5546875,-45.8984375,-19.53125,-25.87890625,0.0
1676922700.697393,-17.578125,-30.76171875,-6.34765625,-13.18359375,0.0
1676922700.7024155,-13.18359375,-39.55078125,-7.8125,-13.18359375,0.0
1676922700.7074382,-13.18359375,-40.0390625,-5.859375,-12.20703125,0.0
1676922700.7124608,-13.671875,-17.578125,-24.90234375,-8.30078125,0.0
1676922700.7174833,-28.3203125,-20.99609375,-44.43359375,-25.87890625,0.0
1676922700.7225058,-24.4140625,-34.1796875,-18.5546875,-12.20703125,0.0
1676922700.7275283,-27.34375,-40.52734375,-0.9765625,-12.6953125,0.0
1676922700.7325509,-24.4140625,-31.73828125,-16.11328125,-15.13671875,0.0
1676922700.740025,-11.23046875,-30.76171875,-8.30078125,-1.46484375,0.0
1676922700.747499,-15.13671875,-35.64453125,11.23046875,-22.94921875,0.0
1676922700.754973,-13.671875,-31.25,3.90625,-24.90234375,0.0
1676922700.762447,-27.34375,-10.25390625,4.8828125,-1.46484375,0.0
1676922700.7699213,-25.390625,-13.18359375,2.44140625,3.41796875,0.0
1676922700.7773952,-38.0859375,-47.36328125,-28.80859375,-6.34765625,0.0
1676922700.7848692,-29.296875,-36.62109375,-35.15625,-2.44140625,0.0
1676922700.7923434,-18.06640625,-19.04296875,-31.73828125,-12.6953125,0.0
1676922700.7998176,-37.109375,-21.97265625,-6.34765625,-16.11328125,0.0
1676922700.8072915,-41.9921875,-36.1328125,17.578125,-15.13671875,0.0
1676922700.8147655,-27.83203125,-27.83203125,9.765625,-12.20703125,0.0
1676922700.8222396,-13.671875,-26.3671875,-58.59375,-9.765625,0.0
1676922700.8224504,-25.87890625,-35.15625,-51.7578125,-12.20703125,0.0
1676922700.8226614,-31.73828125,-35.15625,19.04296875,-2.44140625,0.0
1676922700.8228722,-26.3671875,-22.4609375,12.6953125,-2.9296875,0.0
1676922700.8230832,-10.7421875,-17.08984375,-5.859375,-10.7421875,0.0
1676922700.823294,2.9296875,-31.25,-33.203125,-15.625,0.0
1676922700.823505,-32.71484375,-30.2734375,-41.50390625,-13.671875,0.0
1676922700.8237157,-27.83203125,-43.45703125,2.44140625,-17.578125,0.0
1676922700.8239264,11.71875,-64.453125,-5.859375,-19.04296875,0.0
1676922700.8241374,1.953125,-89.35546875,-39.55078125,-3.90625,0.0
1676922700.8243482,-4.8828125,-40.52734375,-41.9921875,3.41796875,0.0
1676922700.8245592,-16.6015625,-4.8828125,-29.296875,-16.6015625,0.0
1676922700.82477,-23.92578125,-20.01953125,11.71875,-19.53125,0.0
1676922700.8283176,-18.5546875,-12.6953125,20.5078125,-15.625,0.0
1676922700.8318653,-30.76171875,-19.53125,-0.48828125,-15.625,0.0
1676922700.835413,-24.90234375,-41.9921875,-19.04296875,-30.2734375,0.0
1676922700.8389604,-20.99609375,-50.78125,-40.52734375,-45.41015625,0.0
1676922700.842508,-45.8984375,-37.109375,-44.43359375,-19.04296875,0.0
1676922700.8460557,-18.06640625,-22.94921875,-4.39453125,-14.6484375,0.0
1676922700.8496034,16.11328125,-31.25,19.53125,-22.94921875,0.0
1676922700.853151,-22.94921875,-38.0859375,-24.90234375,-11.71875,0.0
1676922700.8566985,-37.109375,-32.71484375,-20.99609375,-9.765625,0.0
1676922700.8602462,-25.87890625,-34.66796875,-10.7421875,-20.99609375,0.0
1676922700.8637938,-23.4375,-50.78125,-34.66796875,-21.97265625,0.0
1676922700.8673415,-14.6484375,-80.078125,-53.7109375,-18.06640625,0.0
1676922700.8710694,-41.015625,-70.80078125,-52.734375,-23.4375,0.0
1676922700.874797,-41.9921875,-42.48046875,-24.4140625,-27.83203125,0.0
1676922700.878525,-20.99609375,-38.57421875,-11.23046875,-18.5546875,0.0
1676922700.882253,-19.04296875,-39.0625,-24.90234375,-22.94921875,0.0
1676922700.8859806,-39.55078125,-41.50390625,-29.296875,-35.15625,0.0
1676922700.8897085,-39.0625,-44.921875,-37.59765625,-26.3671875,0.0
1676922700.8934364,-42.96875,-55.6640625,-34.66796875,-13.671875,0.0
1676922700.897164,-45.41015625,-48.828125,7.32421875,-21.97265625,0.0
1676922700.900892,-13.18359375,-29.296875,-8.7890625,-21.484375,0.0
1676922700.90462,-46.38671875,-41.015625,-37.59765625,-28.3203125,0.0
1676922700.9083476,-59.5703125,-44.921875,-19.04296875,-29.78515625,0.0
1676922700.9120755,-25.390625,-38.0859375,-49.31640625,-24.90234375,0.0
1676922700.9158492,-25.87890625,-30.76171875,-59.08203125,-30.76171875,0.0
1676922700.9196231,-17.08984375,-28.80859375,4.39453125,-21.97265625,0.0
1676922700.923397,-24.90234375,-42.96875,12.6953125,-28.3203125,0.0
1676922700.9271708,-38.57421875,-43.9453125,-23.4375,-48.828125,0.0
1676922700.9309444,-33.69140625,-53.22265625,-35.64453125,-47.8515625,0.0
1676922700.9347184,-37.59765625,-54.19921875,-33.69140625,-19.04296875,0.0
1676922700.9384923,-43.9453125,-51.7578125,-29.296875,-28.80859375,0.0
1676922700.942266,-31.25,-67.3828125,-41.9921875,-45.41015625,0.0
1676922700.9460397,-25.390625,-62.5,-53.7109375,-54.19921875,0.0
1676922700.9498136,-31.25,-50.78125,-40.0390625,-62.5,0.0
1676922700.9535875,-37.59765625,-37.59765625,-18.06640625,-48.33984375,0.0
1676922700.9573612,-32.2265625,-33.203125,-1.46484375,-37.59765625,0.0
1676922700.961231,-46.38671875,-44.43359375,-10.25390625,-39.0625,0.0
1676922700.9651008,-79.58984375,-42.96875,-17.08984375,-48.828125,0.0
1676922700.9689705,-40.0390625,-48.828125,-6.34765625,-21.484375,0.0
1676922700.9728403,6.34765625,-59.5703125,-14.6484375,-6.8359375,0.0
1676922700.97671,-6.34765625,-33.203125,-19.04296875,-7.8125,0.0
1676922700.9805799,-20.01953125,-25.390625,-8.7890625,-9.765625,0.0
1676922700.9844496,-29.78515625,-36.62109375,-27.34375,-24.90234375,0.0
1676922700.9883194,-25.390625,-22.94921875,-31.25,-15.13671875,0.0
1676922700.9921892,-31.73828125,-32.2265625,-30.76171875,-19.53125,0.0
1676922700.996059,-20.01953125,-43.45703125,-28.80859375,-34.1796875,0.0
1676922700.9999287,4.8828125,-40.0390625,18.06640625,-17.08984375,0.0
1676922701.0037985,-14.6484375,-58.10546875,-5.859375,-20.5078125,0.0
1676922701.0074525,-20.01953125,-43.9453125,-58.59375,-33.203125,0.0
1676922701.0111065,-12.6953125,-25.390625,-25.87890625,-23.4375,0.0
1676922701.0147605,-35.64453125,-40.52734375,-7.8125,-32.2265625,0.0
1676922701.0184143,-35.64453125,-44.921875,-2.9296875,-36.1328125,0.0
1676922701.0220683,-18.5546875,-38.57421875,13.18359375,-14.6484375,0.0
1676922701.0257223,-23.4375,-27.34375,-4.39453125,-4.39453125,0.0
1676922701.0293763,-44.921875,-43.9453125,-48.828125,-9.765625,0.0
1676922701.0330303,-45.41015625,-53.7109375,-39.0625,-26.3671875,0.0
1676922701.036684,-34.1796875,-36.1328125,7.32421875,-54.19921875,0.0
1676922701.040338,-16.6015625,-25.87890625,0.48828125,-28.80859375,0.0
1676922701.043992,9.27734375,-20.99609375,-49.31640625,-6.34765625,0.0
1676922701.047646,-12.6953125,-41.015625,-36.1328125,-12.20703125,0.0
1676922701.0526354,-16.11328125,-71.2890625,5.37109375,-7.8125,0.0
1676922701.0576248,-20.01953125,-66.40625,-32.71484375,-6.8359375,0.0
1676922701.0626142,-38.0859375,-41.9921875,-21.484375,-17.08984375,0.0
1676922701.0676036,-28.80859375,-12.20703125,18.06640625,-18.06640625,0.0
1676922701.072593,-12.6953125,-15.13671875,-6.34765625,-9.765625,0.0
1676922701.0775824,-13.671875,-37.109375,-23.4375,-10.25390625,0.0
1676922701.082572,-20.01953125,-28.3203125,0.9765625,-8.7890625,0.0
1676922701.0875614,-10.25390625,-18.5546875,-32.71484375,0.9765625,0.0
1676922701.0925508,7.32421875,-19.53125,-25.390625,18.5546875,0.0
1676922701.0975401,0.48828125,-54.19921875,2.44140625,-3.90625,0.0
1676922701.1025295,-29.78515625,-62.98828125,-30.2734375,-18.5546875,0.0
1676922701.107519,-31.73828125,-30.76171875,-35.15625,1.46484375,0.0
1676922701.110037,-26.85546875,-38.0859375,-18.5546875,-17.08984375,0.0
1676922701.112555,-38.57421875,-45.41015625,24.4140625,-35.15625,0.0
1676922701.1150732,-54.6875,-28.3203125,1.953125,-38.0859375,0.0
1676922701.1175911,-12.6953125,-8.30078125,-49.8046875,-20.5078125,0.0
1676922701.1201093,14.6484375,-16.6015625,-27.83203125,-29.296875,0.0
1676922701.1226273,-20.5078125,-39.0625,-24.90234375,-40.0390625,0.0
1676922701.1251454,-12.6953125,-45.8984375,-23.92578125,-16.11328125,0.0
1676922701.1276636,-14.6484375,-42.96875,-45.41015625,-22.4609375,0.0
1676922701.1301816,-5.37109375,-35.64453125,-40.0390625,-15.625,0.0
1676922701.1326997,1.46484375,-33.69140625,-0.48828125,-14.6484375,0.0
1676922701.1352177,-15.13671875,-47.36328125,-13.671875,3.90625,0.0
1676922701.1377358,-11.23046875,-51.7578125,-39.0625,4.39453125,0.0
1676922701.1427226,-16.11328125,-39.55078125,-18.5546875,-34.66796875,0.0
1676922701.1477094,-22.94921875,-27.34375,10.7421875,-26.85546875,0.0
1676922701.1526961,-13.18359375,-28.3203125,-0.9765625,-10.25390625,0.0
1676922701.157683,-1.46484375,-31.25,-13.18359375,-8.7890625,0.0
1676922701.1626697,-23.92578125,-40.52734375,-36.62109375,-31.73828125,0.0
1676922701.1676564,-31.73828125,-47.36328125,-37.59765625,-32.2265625,0.0
1676922701.1726434,-27.83203125,-49.8046875,-80.56640625,-15.13671875,0.0
1676922701.1776302,-23.92578125,-50.78125,-82.51953125,-23.4375,0.0
1676922701.182617,-22.4609375,-52.24609375,-10.25390625,-20.99609375,0.0
1676922701.1876037,-25.87890625,-35.15625,-26.85546875,-21.484375,0.0
1676922701.1925905,-28.3203125,-44.43359375,-25.390625,-24.90234375,0.0
1676922701.1975772,-18.5546875,-60.05859375,-20.99609375,-9.27734375,0.0
1676922701.2013276,-21.97265625,-57.6171875,-55.17578125,-9.765625,0.0
1676922701.2050776,-35.64453125,-69.3359375,-39.55078125,-9.27734375,0.0
1676922701.208828,-18.06640625,-52.24609375,-36.1328125,-12.6953125,0.0
1676922701.212578,-26.3671875,-26.85546875,-23.4375,-21.97265625,0.0
1676922701.2163284,-14.6484375,-25.390625,5.859375,-5.37109375,0.0
1676922701.2200785,-23.92578125,-36.1328125,-0.9765625,-8.7890625,0.0
1676922701.2238288,-56.15234375,-52.24609375,4.39453125,-15.625,0.0
1676922701.227579,-5.859375,-52.734375,-3.90625,-0.48828125,0.0
1676922701.2313292,4.39453125,-52.24609375,-19.04296875,-4.39453125,0.0
1676922701.2350795,-10.7421875,-48.828125,-29.296875,-25.87890625,0.0
1676922701.2388296,-40.52734375,-51.7578125,-44.921875,-16.11328125,0.0
1676922701.24258,-57.12890625,-64.94140625,-49.8046875,-9.27734375,0.0
1676922701.2463322,-1.46484375,-34.66796875,-48.33984375,11.23046875,0.0
1676922701.2500842,21.97265625,-31.73828125,-43.45703125,9.27734375,0.0
1676922701.2538362,-5.859375,-79.1015625,-20.01953125,-20.01953125,0.0
1676922701.2575884,-40.0390625,-59.5703125,-5.37109375,-15.625,0.0
1676922701.2613406,-40.0390625,-45.8984375,-4.39453125,-11.23046875,0.0
1676922701.2650926,-38.0859375,-66.40625,-15.13671875,-24.4140625,0.0
1676922701.2688446,-19.04296875,-40.0390625,-6.8359375,-20.5078125,0.0
1676922701.2725968,-21.97265625,-41.9921875,-0.9765625,-29.296875,0.0
1676922701.276349,-41.50390625,-49.31640625,-39.0625,-30.2734375,0.0
1676922701.280101,-35.64453125,-53.7109375,-54.19921875,-26.85546875,0.0
1676922701.283853,-20.01953125,-61.5234375,-31.25,-22.4609375,0.0
1676922701.2876053,-21.484375,-51.26953125,-18.06640625,-16.6015625,0.0
1676922701.2913508,-34.1796875,-47.8515625,-16.6015625,-24.90234375,0.0
1676922701.2950964,-45.8984375,-51.7578125,-28.3203125,-24.90234375,0.0
1676922701.298842,-7.8125,-40.0390625,-31.25,-8.30078125,0.0
1676922701.3025877,10.25390625,-43.9453125,-35.64453125,-8.30078125,0.0
1676922701.3063333,-1.953125,-54.6875,-73.2421875,-4.8828125,0.0
1676922701.3100789,-8.30078125,-57.6171875,-49.8046875,-7.32421875,0.0
1676922701.3138244,-34.1796875,-61.03515625,16.11328125,-39.0625,0.0
1676922701.31757,-19.53125,-59.5703125,19.53125,-22.4609375,0.0
1676922701.3213158,-22.4609375,-59.5703125,3.90625,-4.8828125,0.0
1676922701.3250613,-40.52734375,-39.55078125,-17.578125,-13.671875,0.0
1676922701.3288069,-45.8984375,-26.3671875,-78.61328125,-8.7890625,0.0
1676922701.3325524,-34.66796875,-49.31640625,-56.15234375,-6.34765625,0.0
1676922701.3387778,-7.8125,-78.125,10.25390625,-27.34375,0.0
1676922701.3450031,-24.4140625,-41.015625,-4.8828125,-39.55078125,0.0
1676922701.3512282,-60.546875,-9.27734375,0.0,-38.0859375,0.0
1676922701.3574536,-33.69140625,-21.484375,-24.90234375,-28.80859375,0.0
1676922701.363679,-20.01953125,-36.62109375,-50.78125,-30.2734375,0.0
1676922701.369904,-28.3203125,-41.9921875,-36.1328125,-31.73828125,0.0
1676922701.3761294,-39.0625,-47.36328125,-19.53125,-33.203125,0.0
1676922701.3823547,-30.76171875,-57.12890625,-10.25390625,-32.2265625,0.0
1676922701.38858,-14.16015625,-43.9453125,-13.671875,-18.06640625,0.0
1676922701.3948054,-32.2265625,-40.0390625,-18.5546875,-15.625,0.0
1676922701.4010305,-42.48046875,-49.8046875,-23.92578125,-23.4375,0.0
1676922701.407256,-18.5546875,-50.78125,-47.8515625,-17.08984375,0.0
1676922701.4084914,-14.6484375,-53.7109375,-44.921875,-20.01953125,0.0
1676922701.4097269,-44.921875,-61.5234375,-14.16015625,-25.87890625,0.0
1676922701.410962,-45.41015625,-46.38671875,-30.76171875,-23.92578125,0.0
1676922701.4121976,-15.625,-26.3671875,-39.55078125,-31.73828125,0.0
1676922701.413433,-7.32421875,-35.64453125,-39.55078125,-40.52734375,0.0
1676922701.4146686,-16.11328125,-34.1796875,-38.57421875,-27.83203125,0.0
1676922701.415904,-19.53125,-36.1328125,-17.08984375,-22.4609375,0.0
1676922701.4171395,-4.8828125,-40.52734375,-2.44140625,-29.78515625,0.0
1676922701.418375,-9.765625,-34.1796875,-28.3203125,-27.83203125,0.0
1676922701.4196103,-22.4609375,-43.9453125,-40.52734375,-44.43359375,0.0
1676922701.4208457,-20.01953125,-41.50390625,-2.44140625,-54.6875,0.0
1676922701.4220812,-30.76171875,-44.921875,20.01953125,-35.64453125,0.0
1676922701.4259477,-53.22265625,-56.640625,-7.32421875,-36.62109375,0.0
1676922701.4298143,-57.6171875,-50.78125,-44.43359375,-33.69140625,0.0
1676922701.4336808,-59.5703125,-39.55078125,-42.48046875,-20.99609375,0.0
1676922701.4375472,-66.40625,-59.08203125,-23.92578125,-22.94921875,0.0
1676922701.4414136,-29.78515625,-80.078125,-22.4609375,-32.71484375,0.0
1676922701.44528,-13.671875,-66.40625,-17.578125,-41.9921875,0.0
1676922701.4491467,-53.7109375,-46.38671875,-0.48828125,-46.875,0.0
1676922701.4530132,-55.6640625,-44.43359375,-7.8125,-52.734375,0.0
1676922701.4568796,-27.34375,-52.734375,-26.85546875,-36.62109375,0.0
1676922701.4607463,-36.1328125,-33.69140625,-22.4609375,-27.34375,0.0
1676922701.4646127,-32.2265625,-21.484375,-3.90625,-29.78515625,0.0
1676922701.4684792,-29.296875,-32.71484375,-10.25390625,-37.109375,0.0
1676922701.4721363,-27.83203125,-48.33984375,-1.953125,-40.0390625,0.0
1676922701.4757934,-56.640625,-50.29296875,-5.859375,-39.55078125,0.0
1676922701.4794502,-51.7578125,-47.36328125,-37.59765625,-42.48046875,0.0
1676922701.4831073,-41.9921875,-60.05859375,-38.57421875,-40.0390625,0.0
1676922701.4867644,-51.26953125,-65.91796875,-35.64453125,-59.5703125,0.0
1676922701.4904215,-38.0859375,-47.8515625,-68.84765625,-49.31640625,0.0
1676922701.4940786,-43.9453125,-29.296875,-87.890625,-20.5078125,0.0
1676922701.4977357,-61.03515625,-51.26953125,-50.29296875,-41.015625,0.0
1676922701.5013928,-68.359375,-56.15234375,-3.41796875,-43.45703125,0.0
1676922701.5050497,-29.296875,-48.828125,-8.30078125,-25.390625,0.0
1676922701.5087068,-8.7890625,-56.640625,-29.78515625,-41.015625,0.0
1676922701.512364,-40.0390625,-53.7109375,-33.69140625,-60.05859375,1.0
1676922701.5173905,-60.05859375,-63.4765625,-8.30078125,-49.31640625,0.0
1676922701.5224168,-32.2265625,-58.10546875,10.7421875,-23.92578125,0.0
1676922701.5274434,-40.0390625,-45.8984375,0.48828125,-21.97265625,0.0
1676922701.53247,-20.99609375,-43.9453125,-10.7421875,-42.48046875,0.0
1676922701.5374963,-8.7890625,-42.48046875,-25.390625,-37.109375,0.0
1676922701.542523,-27.34375,-43.9453125,-41.9921875,-18.06640625,0.0
1676922701.5475495,-39.0625,-35.15625,-53.22265625,-26.85546875,0.0
1676922701.5525758,-42.96875,-46.38671875,-73.73046875,-52.24609375,0.0
1676922701.5576024,-8.7890625,-58.59375,-51.7578125,-44.921875,0.0
1676922701.562629,-11.71875,-63.4765625,-20.99609375,-32.71484375,0.0
1676922701.5676553,-24.90234375,-56.15234375,6.34765625,-32.2265625,0.0
1676922701.572682,-7.8125,-22.94921875,26.3671875,-20.5078125,0.0
1676922701.5764098,-35.15625,-17.08984375,-20.99609375,-6.8359375,0.0
1676922701.5801377,-57.12890625,-41.50390625,-24.90234375,-18.5546875,0.0
1676922701.5838656,-14.16015625,-54.19921875,4.8828125,-26.3671875,0.0
1676922701.5875936,-16.11328125,-39.0625,-9.27734375,-24.90234375,0.0
1676922701.5913215,-31.73828125,-30.2734375,-47.8515625,-22.4609375,0.0
1676922701.5950494,-32.71484375,-47.36328125,-44.921875,-27.83203125,0.0
1676922701.5987773,-34.1796875,-56.640625,-10.7421875,-26.3671875,0.0
1676922701.6025052,-41.015625,-52.734375,-8.30078125,-30.2734375,0.0
1676922701.6062331,-36.1328125,-43.9453125,-7.32421875,-24.90234375,0.0
1676922701.609961,-59.08203125,-45.41015625,-21.484375,-36.1328125,0.0
1676922701.613689,-46.875,-58.59375,-35.15625,-37.109375,0.0
1676922701.6174169,7.8125,-47.36328125,-16.6015625,-5.37109375,0.0
1676922701.621184,3.41796875,-38.57421875,-19.53125,-23.92578125,0.0
1676922701.6249514,-11.23046875,-30.2734375,-3.41796875,-16.6015625,0.0
1676922701.6287189,-8.7890625,-18.06640625,-20.01953125,-3.41796875,0.0
1676922701.632486,-23.4375,-40.0390625,-80.56640625,-23.4375,0.0
1676922701.6362534,-26.85546875,-45.41015625,-41.50390625,-10.25390625,0.0
1676922701.6400206,-29.296875,-29.78515625,-5.859375,-0.9765625,0.0
1676922701.6437879,-40.52734375,-41.015625,-11.23046875,-18.5546875,0.0
1676922701.647555,-16.11328125,-39.0625,10.7421875,-38.57421875,0.0
1676922701.6513224,-19.04296875,-27.34375,-12.6953125,-24.4140625,0.0
1676922701.6550899,-40.52734375,-34.1796875,-49.8046875,-18.5546875,0.0
1676922701.658857,-38.0859375,-47.36328125,-13.671875,-16.11328125,0.0
1676922701.6626244,-24.90234375,-47.8515625,8.30078125,-6.34765625,0.0
1676922701.6663861,-22.94921875,-65.4296875,8.30078125,-18.06640625,0.0
1676922701.670148,-38.0859375,-91.30859375,-1.46484375,-16.11328125,0.0
1676922701.6739097,-26.3671875,-50.78125,-36.1328125,-7.32421875,0.0
1676922701.6776712,-0.48828125,-8.30078125,-63.96484375,-0.9765625,0.0
1676922701.681433,-8.30078125,-16.11328125,-52.24609375,-4.39453125,0.0
1676922701.6851947,-14.6484375,-40.52734375,-14.16015625,-17.578125,0.0
1676922701.6889565,-27.34375,-52.24609375,-2.44140625,-27.83203125,0.0
1676922701.6927183,-44.921875,-43.9453125,-20.99609375,-26.3671875,0.0
1676922701.6964798,-29.78515625,-33.69140625,-20.99609375,-16.6015625,0.0
1676922701.7002416,-11.23046875,-27.34375,-47.36328125,-17.578125,0.0
1676922701.7040033,-28.80859375,-30.76171875,-54.19921875,-27.34375,0.0
1676922701.707765,-48.828125,-45.41015625,-2.44140625,-26.3671875,0.0
1676922701.7114623,-24.4140625,-41.015625,-14.6484375,-29.78515625,0.0
1676922701.7151594,-17.08984375,-40.0390625,-28.3203125,-39.0625,0.0
1676922701.7188566,-34.1796875,-42.48046875,-3.41796875,-23.92578125,0.0
1676922701.7225537,-35.15625,-53.7109375,-27.83203125,-22.4609375,0.0
1676922701.726251,-38.0859375,-54.6875,-58.10546875,-41.015625,0.0
1676922701.729948,-43.45703125,-33.69140625,-63.4765625,-44.43359375,0.0
1676922701.7336454,-29.78515625,-19.04296875,-36.62109375,-39.55078125,0.0
1676922701.7373426,-23.92578125,-27.83203125,-53.22265625,-28.3203125,0.0
1676922701.7410398,-19.04296875,-34.1796875,-56.15234375,-9.27734375,0.0
1676922701.744737,-12.20703125,-32.71484375,22.94921875,-8.30078125,0.0
1676922701.748434,-11.71875,-46.38671875,0.48828125,-10.25390625,0.0
1676922701.7521312,-17.08984375,-49.8046875,-33.69140625,-18.06640625,0.0
1676922701.755881,-23.92578125,-45.41015625,-26.85546875,-26.85546875,0.0
1676922701.7596312,-21.97265625,-30.2734375,-8.30078125,-20.99609375,0.0
1676922701.763381,-15.625,-18.5546875,-20.5078125,-18.06640625,0.0
1676922701.7671309,-18.06640625,-17.08984375,5.37109375,-15.625,0.0
1676922701.7708807,-21.97265625,-39.0625,15.625,-33.69140625,0.0
1676922701.7746305,-11.23046875,-29.296875,-6.8359375,-23.92578125,0.0
1676922701.7783806,-16.11328125,-6.34765625,-10.25390625,-0.9765625,0.0
1676922701.7821305,-22.4609375,-22.94921875,-4.39453125,-13.671875,0.0
1676922701.7858803,-23.92578125,-38.57421875,-6.34765625,-20.01953125,0.0
1676922701.7896304,-34.1796875,-28.80859375,-17.578125,-21.484375,0.0
1676922701.7933803,-3.90625,-24.4140625,-27.83203125,-25.390625,0.0
1676922701.79713,7.8125,-22.4609375,-40.52734375,-23.92578125,0.0
1676922701.8021421,-50.78125,-44.43359375,-39.55078125,-25.390625,0.0
1676922701.8071542,-38.57421875,-55.17578125,-62.01171875,-32.71484375,0.0
1676922701.8121662,-23.92578125,-48.828125,-48.828125,-55.17578125,0.0
1676922701.817178,-41.50390625,-50.29296875,1.46484375,-50.78125,0.0
1676922701.82219,-57.6171875,-50.78125,-7.32421875,-27.83203125,0.0
1676922701.827202,-38.0859375,-58.59375,-10.25390625,-39.55078125,0.0
1676922701.832214,-5.37109375,-61.03515625,-28.80859375,-33.69140625,0.0
1676922701.8372262,-11.23046875,-63.96484375,-29.78515625,-41.9921875,0.0
1676922701.842238,-18.06640625,-53.22265625,2.9296875,-43.9453125,0.0
1676922701.84725,-46.38671875,-29.78515625,-9.27734375,-32.71484375,0.0
1676922701.852262,-60.05859375,-26.3671875,-16.11328125,-30.76171875,0.0
1676922701.857274,-30.2734375,-23.92578125,-22.4609375,-21.484375,0.0
1676922701.8597736,-37.109375,-30.76171875,-11.23046875,-44.43359375,0.0
1676922701.8622732,-48.33984375,-38.0859375,-8.30078125,-41.015625,0.0
1676922701.8647728,-16.6015625,-34.66796875,-21.97265625,-18.06640625,0.0
1676922701.8672726,-10.7421875,-36.62109375,-45.41015625,-19.04296875,0.0
1676922701.8697722,-39.55078125,-64.453125,-43.9453125,-30.2734375,0.0
1676922701.8722718,-27.34375,-69.82421875,-19.04296875,-26.85546875,0.0
1676922701.8747714,2.9296875,-45.41015625,-15.13671875,-5.859375,0.0
1676922701.877271,-5.37109375,-48.33984375,-1.46484375,-18.5546875,0.0
1676922701.8797708,-14.6484375,-41.015625,-2.44140625,-41.015625,0.0
1676922701.8822703,-20.01953125,-38.0859375,-55.6640625,-26.85546875,0.0
1676922701.88477,-43.45703125,-56.15234375,-41.9921875,-24.90234375,0.0
1676922701.8872695,-45.8984375,-50.29296875,2.9296875,-30.76171875,0.0
1676922701.8935456,-18.06640625,-53.7109375,-19.53125,-30.2734375,0.0
1676922701.8998218,-4.8828125,-41.50390625,-19.04296875,-16.6015625,0.0
1676922701.906098,-13.18359375,-28.80859375,-24.4140625,-9.765625,0.0
1676922701.912374,-30.2734375,-30.2734375,-41.015625,-25.390625,0.0
1676922701.9186502,-27.34375,-54.6875,-15.625,-36.62109375,0.0
1676922701.9249263,-22.94921875,-53.22265625,10.7421875,-29.78515625,0.0
1676922701.9312022,-22.94921875,-9.27734375,-4.39453125,-32.71484375,0.0
1676922701.9374783,-50.78125,-20.99609375,-26.3671875,-41.50390625,0.0
1676922701.9437544,-39.0625,-41.015625,-46.38671875,-22.94921875,0.0
1676922701.9500306,-19.04296875,-34.66796875,-39.55078125,-8.7890625,0.0
1676922701.9563067,-32.2265625,-45.8984375,-17.08984375,-24.90234375,0.0
1676922701.9625828,-57.12890625,-43.9453125,-43.45703125,-38.0859375,0.0
1676922701.9650815,-40.52734375,-36.62109375,-51.26953125,-51.26953125,0.0
1676922701.9675803,-26.85546875,-41.015625,-10.7421875,-40.52734375,0.0
1676922701.970079,-27.83203125,-50.78125,-0.48828125,-23.4375,0.0
1676922701.9725776,-40.0390625,-62.5,-20.01953125,-34.1796875,0.0
1676922701.9750764,-22.4609375,-45.41015625,-46.38671875,-23.4375,0.0
1676922701.977575,8.7890625,-31.73828125,-30.2734375,-15.625,0.0
1676922701.9800737,0.9765625,-26.85546875,0.48828125,-16.11328125,0.0
1676922701.9825726,-11.71875,-23.4375,-21.484375,-10.25390625,0.0
1676922701.9850712,-18.5546875,-35.64453125,-58.10546875,-17.578125,0.0
1676922701.9875698,-34.1796875,-55.17578125,-45.41015625,-27.34375,0.0
1676922701.9900687,-56.15234375,-69.3359375,-25.390625,-46.875,0.0
1676922701.9925673,-58.10546875,-52.24609375,-23.92578125,-51.26953125,0.0
1676922701.9963274,-48.33984375,-35.64453125,-12.6953125,-30.2734375,0.0
1676922702.0000873,-20.5078125,-48.33984375,-6.8359375,-18.06640625,0.0
1676922702.0038471,-19.04296875,-57.6171875,-34.1796875,-25.87890625,0.0
1676922702.0076072,-38.0859375,-67.3828125,-43.45703125,-42.48046875,0.0
1676922702.0113673,-44.921875,-49.31640625,-17.578125,-62.5,0.0
1676922702.0151272,-46.38671875,-31.25,-29.78515625,-62.01171875,0.0
1676922702.018887,-45.8984375,-42.96875,-45.41015625,-40.52734375,0.0
1676922702.0226471,-39.0625,-48.828125,-26.3671875,-32.2265625,0.0
1676922702.0264072,-27.83203125,-46.875,-17.08984375,-32.71484375,0.0
1676922702.030167,-21.484375,-56.15234375,-21.97265625,-7.8125,0.0
1676922702.033927,-1.46484375,-44.43359375,-19.04296875,-3.90625,0.0
1676922702.037687,3.41796875,-36.62109375,-55.17578125,-12.6953125,0.0
1676922702.0414286,-9.765625,-44.921875,-76.66015625,-14.16015625,0.0
1676922702.04517,-21.97265625,-38.57421875,-23.4375,-19.04296875,0.0
1676922702.0489116,-42.48046875,-56.15234375,-16.6015625,-41.015625,0.0
1676922702.052653,-38.0859375,-34.66796875,-8.30078125,-25.87890625,0.0
1676922702.0563946,-43.9453125,-33.203125,13.18359375,-26.3671875,0.0
1676922702.0601363,-56.640625,-62.01171875,-1.953125,-26.85546875,0.0
1676922702.0638778,-31.73828125,-84.47265625,-24.90234375,-8.30078125,0.0
1676922702.0676193,-25.390625,-81.0546875,-51.7578125,-32.71484375,0.0
1676922702.0713608,-28.3203125,-22.4609375,-41.9921875,-27.34375,0.0
1676922702.0751023,-41.50390625,-10.25390625,-19.04296875,-21.97265625,0.0
1676922702.0788438,-52.734375,-32.71484375,-59.08203125,-21.97265625,0.0
1676922702.0825853,-28.80859375,-29.296875,-38.0859375,-14.16015625,0.0
1676922702.086335,-16.11328125,-44.921875,28.3203125,-32.2265625,0.0
1676922702.0900846,-17.578125,-37.109375,16.6015625,-23.4375,0.0
1676922702.0938344,-20.99609375,-12.20703125,-21.97265625,-5.37109375,0.0
1676922702.097584,-34.1796875,-21.97265625,-30.76171875,-25.390625,0.0
1676922702.1013336,-42.96875,-28.3203125,-4.8828125,-25.87890625,0.0
1676922702.1050832,-33.69140625,-37.59765625,-19.04296875,-32.2265625,0.0
1676922702.1088328,-33.203125,-55.6640625,-32.2265625,-32.2265625,0.0
1676922702.1125824,-13.671875,-65.4296875,-18.06640625,-24.4140625,0.0
1676922702.116332,-30.76171875,-56.640625,-48.828125,-27.83203125,0.0
1676922702.120082,-52.734375,-39.0625,-84.9609375,-15.13671875,0.0
1676922702.1238315,-28.80859375,-36.1328125,-22.94921875,-26.3671875,0.0
1676922702.1275811,-13.18359375,-50.29296875,34.66796875,-27.83203125,0.0
1676922702.131409,-13.671875,-77.63671875,14.6484375,-13.18359375,0.0
1676922702.1352365,-17.578125,-67.87109375,-25.390625,-12.20703125,0.0
1676922702.1390643,-20.01953125,-40.52734375,-52.734375,-1.953125,0.0
1676922702.1428921,-24.4140625,-31.73828125,-25.390625,4.8828125,0.0
1676922702.1467197,-32.71484375,-39.55078125,-13.18359375,-6.8359375,0.0
1676922702.1505475,-38.57421875,-47.8515625,-11.23046875,-37.109375,0.0
1676922702.1543753,-33.203125,-38.57421875,-6.8359375,-45.41015625,0.0
1676922702.158203,-11.71875,-36.1328125,-9.27734375,-6.34765625,0.0
1676922702.1620307,-8.30078125,-31.25,-12.6953125,1.953125,0.0
1676922702.1658585,-6.34765625,-20.99609375,-19.53125,-13.671875,0.0
1676922702.169686,-31.73828125,-25.87890625,-27.83203125,-10.7421875,0.0
1676922702.173514,-47.36328125,-55.17578125,-5.37109375,-2.9296875,0.0
1676922702.1771467,-10.25390625,-81.54296875,-36.1328125,10.25390625,0.0
1676922702.1807792,-9.765625,-57.12890625,-103.515625,-18.5546875,0.0
1676922702.184412,-37.59765625,-12.20703125,-24.4140625,-39.55078125,0.0
1676922702.1880448,-27.34375,-14.16015625,53.7109375,-18.06640625,0.0
1676922702.1916773,-12.6953125,-22.94921875,6.8359375,-4.8828125,0.0
1676922702.19531,-2.44140625,-24.90234375,-7.8125,-6.34765625,0.0
1676922702.198943,-8.30078125,-41.50390625,5.37109375,-3.41796875,0.0
1676922702.2025754,-40.0390625,-36.62109375,-32.71484375,-6.34765625,0.0
1676922702.2062082,-34.66796875,-21.484375,-44.43359375,-3.90625,0.0
1676922702.209841,-15.13671875,-19.04296875,-20.5078125,-8.7890625,0.0
1676922702.2134736,-19.04296875,-26.85546875,-40.0390625,-12.20703125,0.0
1676922702.2171063,-20.5078125,-33.203125,-49.31640625,-15.13671875,0.0
1676922702.2208638,-9.765625,-36.62109375,-15.625,-20.5078125,0.0
1676922702.224621,2.9296875,-44.921875,-25.87890625,-12.20703125,0.0
1676922702.2283785,-13.671875,-53.7109375,-27.83203125,-23.92578125,0.0
1676922702.232136,-26.3671875,-59.5703125,-3.90625,-15.625,0.0
1676922702.2358932,-13.671875,-33.203125,-38.57421875,-12.20703125,0.0
1676922702.2396507,-26.85546875,-0.9765625,-41.015625,-17.578125,0.0
1676922702.2434082,-40.52734375,-16.6015625,-1.953125,-25.390625,0.0
1676922702.2471654,-25.87890625,-34.66796875,-12.20703125,-38.0859375,0.0
1676922702.250923,-24.4140625,-39.55078125,-27.34375,-29.78515625,0.0
1676922702.2546804,-19.04296875,-34.66796875,-23.4375,-27.34375,0.0
1676922702.2584376,-20.01953125,-40.52734375,-29.78515625,-26.85546875,0.0
1676922702.262195,-23.92578125,-44.43359375,-24.90234375,-17.578125,0.0
1676922702.2671897,-33.203125,-60.546875,-12.6953125,-23.4375,0.0
1676922702.2721844,-25.390625,-67.3828125,-2.44140625,-30.2734375,0.0
1676922702.277179,-21.97265625,-47.36328125,-17.08984375,-24.90234375,0.0
1676922702.2821736,-38.57421875,-41.015625,-36.1328125,-32.71484375,0.0
1676922702.2871683,-35.15625,-28.3203125,-37.59765625,-50.29296875,0.0
1676922702.292163,-22.4609375,-33.69140625,-38.0859375,-48.828125,0.0
1676922702.2971578,-27.83203125,-51.26953125,-54.6875,-40.52734375,0.0
1676922702.3021524,-46.38671875,-51.26953125,-62.01171875,-25.390625,0.0
1676922702.307147,-35.64453125,-43.9453125,-28.3203125,-2.44140625,0.0
1676922702.3121417,-42.96875,-51.26953125,-14.16015625,-17.578125,0.0
1676922702.3171363,-64.453125,-55.6640625,-28.80859375,-36.1328125,0.0
1676922702.322131,-43.45703125,-37.59765625,-57.6171875,-22.4609375,2.0
1676922702.3259134,-13.18359375,-43.45703125,-67.3828125,-5.859375,0.0
1676922702.329696,-33.69140625,-59.08203125,-30.76171875,-16.6015625,0.0
1676922702.3334785,-39.0625,-61.5234375,-20.01953125,-35.64453125,0.0
1676922702.337261,-27.83203125,-66.40625,-43.45703125,-31.25,0.0
1676922702.3410435,-43.9453125,-40.0390625,-29.296875,-35.64453125,0.0
1676922702.3448257,-44.921875,-40.0390625,-18.06640625,-51.26953125,0.0
1676922702.3486083,-25.390625,-48.33984375,-28.3203125,-26.3671875,0.0
1676922702.3523908,-31.73828125,-39.0625,-15.13671875,-23.4375,0.0
1676922702.3561733,-46.875,-45.41015625,-29.78515625,-23.92578125,0.0
1676922702.3599558,-38.57421875,-35.15625,-55.17578125,-7.32421875,0.0
1676922702.3637383,-19.53125,-16.11328125,-53.22265625,-2.44140625,0.0
1676922702.3675208,-11.23046875,-39.55078125,-42.96875,-8.7890625,0.0
1676922702.37138,-29.296875,-81.0546875,-38.0859375,-26.85546875,0.0
1676922702.3752394,-28.80859375,-72.75390625,-59.08203125,-30.76171875,0.0
1676922702.3790984,-32.71484375,-36.1328125,-29.296875,-28.80859375,0.0
1676922702.3829577,-113.76953125,-20.01953125,11.23046875,-34.66796875,0.0
1676922702.386817,-70.80078125,-17.578125,-4.39453125,-30.76171875,0.0
1676922702.3906763,17.08984375,-31.25,-3.90625,-31.25,0.0
1676922702.3945355,-16.11328125,-52.24609375,-1.953125,-13.671875,0.0
1676922702.3983948,-11.23046875,-49.8046875,-20.5078125,-1.46484375,0.0
1676922702.402254,-17.08984375,-33.69140625,-45.41015625,4.8828125,0.0
1676922702.4061131,-20.01953125,-30.2734375,-35.15625,11.23046875,0.0
1676922702.4099724,-31.73828125,-17.578125,-18.5546875,-6.8359375,0.0
1676922702.4138317,-36.62109375,-25.390625,-22.94921875,-17.08984375,0.0
1676922702.4174511,-5.859375,-49.31640625,-36.1328125,-45.41015625,0.0
1676922702.4210708,-28.3203125,-54.19921875,-30.76171875,-60.546875,0.0
1676922702.4246902,-34.1796875,-53.22265625,-4.39453125,-42.96875,0.0
1676922702.42831,-37.109375,-60.546875,-9.765625,-40.52734375,0.0
1676922702.4319293,-57.12890625,-72.75390625,-48.828125,-39.0625,0.0
1676922702.4355488,-45.8984375,-74.70703125,-42.48046875,-28.3203125,0.0
1676922702.4391685,-24.4140625,-72.75390625,-38.0859375,-30.2734375,0.0
1676922702.442788,-20.01953125,-74.70703125,-46.38671875,-38.57421875,0.0
1676922702.4464076,-19.04296875,-53.22265625,-53.22265625,-23.92578125,0.0
1676922702.450027,-30.76171875,-46.875,-49.31640625,-18.06640625,0.0
1676922702.4536467,-44.43359375,-46.38671875,-22.4609375,-33.69140625,0.0
1676922702.457266,-22.4609375,-37.109375,-22.94921875,-29.296875,0.0
1676922702.461006,-34.66796875,-58.59375,-31.73828125,-22.94921875,0.0
1676922702.4647458,-23.4375,-52.734375,-26.85546875,-27.83203125,0.0
1676922702.4684856,-15.13671875,-36.62109375,-26.85546875,-30.2734375,0.0
1676922702.4722254,-36.62109375,-43.9453125,-32.2265625,-27.83203125,0.0
1676922702.4759653,-46.38671875,-44.43359375,-13.18359375,-23.92578125,0.0
1676922702.479705,-46.875,-49.8046875,-15.625,-27.83203125,0.0
1676922702.483445,-33.69140625,-68.84765625,-61.03515625,-39.0625,0.0
1676922702.4871848,-57.6171875,-49.8046875,-62.01171875,-40.0390625,0.0
1676922702.4909246,-71.2890625,-49.8046875,-29.296875,-31.25,0.0
1676922702.4946644,-15.625,-64.94140625,7.32421875,-41.50390625,0.0
1676922702.4984043,-29.78515625,-47.8515625,9.765625,-45.8984375,0.0
1676922702.502144,-56.640625,-44.921875,-23.92578125,-38.57421875,0.0
1676922702.5058956,-30.2734375,-54.19921875,-33.69140625,-36.62109375,0.0
1676922702.5096474,-30.76171875,-54.6875,-33.203125,-41.50390625,0.0
1676922702.5133991,-54.6875,-23.92578125,-54.6875,-35.64453125,0.0
1676922702.5171506,-57.6171875,-47.36328125,-58.59375,-29.78515625,0.0
1676922702.5209022,-46.38671875,-63.4765625,-39.0625,-31.25,0.0
1676922702.524654,-42.96875,-15.625,-41.9921875,-33.69140625,0.0
1676922702.5284057,-37.59765625,-16.6015625,-31.25,-34.66796875,0.0
1676922702.5321572,-37.109375,-25.390625,-4.8828125,-37.59765625,0.0
1676922702.5359087,-36.62109375,-30.2734375,-4.39453125,-47.36328125,0.0
1676922702.5396605,-35.64453125,-44.921875,-30.2734375,-47.8515625,0.0
1676922702.5434122,-24.90234375,-49.31640625,-74.21875,-41.9921875,0.0
1676922702.5471637,-22.4609375,-51.26953125,-62.01171875,-38.0859375,0.0
1676922702.550908,-47.36328125,-38.57421875,-8.7890625,-45.41015625,0.0
1676922702.5546525,-51.26953125,-12.6953125,17.08984375,-19.53125,0.0
1676922702.5583968,-35.64453125,-22.4609375,1.46484375,-12.20703125,0.0
1676922702.562141,-34.1796875,-42.96875,-30.76171875,-25.87890625,0.0
1676922702.5658853,-25.87890625,-59.08203125,-50.29296875,-25.390625,0.0
1676922702.5696297,-31.25,-49.31640625,-43.45703125,-31.25,0.0
1676922702.573374,-44.921875,-18.06640625,-30.2734375,-11.71875,0.0
1676922702.5771184,-7.32421875,-24.90234375,-21.97265625,-5.859375,0.0
1676922702.5808625,4.39453125,-28.3203125,0.0,-5.37109375,0.0
1676922702.584607,-3.90625,-25.87890625,-4.8828125,1.953125,0.0
1676922702.5883512,-18.06640625,-46.38671875,-47.8515625,-14.16015625,0.0
1676922702.5920956,-26.85546875,-40.52734375,-63.4765625,-19.53125,0.0
1676922702.5959606,-31.25,-40.52734375,-56.640625,-23.4375,0.0
1676922702.5998256,-31.73828125,-56.15234375,-34.1796875,-25.87890625,0.0
1676922702.6036906,-39.55078125,-60.546875,-33.203125,-35.64453125,0.0
1676922702.6075556,-45.8984375,-53.7109375,-40.0390625,-46.38671875,0.0
1676922702.6114206,-41.50390625,-29.78515625,-24.4140625,-41.50390625,0.0
1676922702.6152859,-27.83203125,-23.92578125,-36.1328125,-40.0390625,0.0
1676922702.6191509,-20.5078125,-49.8046875,-84.9609375,-34.66796875,0.0
1676922702.6230159,-34.1796875,-47.8515625,-56.15234375,-23.4375,0.0
1676922702.626881,-34.1796875,-43.9453125,-1.46484375,-27.34375,0.0
1676922702.630746,-41.9921875,-55.17578125,0.48828125,-38.57421875,0.0
1676922702.634611,-46.38671875,-48.33984375,-5.859375,-22.4609375,0.0
1676922702.638476,-19.04296875,-48.33984375,-28.80859375,-19.53125,0.0
1676922702.6434088,-18.5546875,-51.7578125,-69.3359375,-20.5078125,0.0
1676922702.648342,-43.9453125,-54.6875,-49.31640625,-40.0390625,0.0
1676922702.6532748,-51.7578125,-52.734375,-11.71875,-49.8046875,0.0
1676922702.658208,-29.296875,-35.15625,-16.6015625,-33.69140625,0.0
1676922702.6631408,-33.69140625,-38.0859375,-43.45703125,-42.48046875,0.0
1676922702.6680737,-41.50390625,-59.5703125,-44.921875,-31.25,0.0
1676922702.6730068,-37.59765625,-49.8046875,-39.55078125,-32.2265625,0.0
1676922702.6779397,-83.49609375,-32.71484375,-41.015625,-54.6875,0.0
1676922702.6828728,-57.12890625,-27.34375,-20.01953125,-41.9921875,0.0
1676922702.6878057,-1.46484375,-32.2265625,-38.0859375,-29.78515625,0.0
1676922702.6927388,-12.6953125,-47.8515625,-71.2890625,-25.87890625,0.0
1676922702.6976717,-11.71875,-48.33984375,-44.921875,-30.2734375,0.0
1676922702.70141,-29.78515625,-41.9921875,-16.11328125,-30.2734375,0.0
1676922702.7051485,-37.109375,-49.8046875,-8.7890625,-27.34375,0.0
1676922702.7088869,-8.7890625,-44.43359375,-11.71875,-25.87890625,0.0
1676922702.7126253,-16.11328125,-55.6640625,-38.0859375,-18.5546875,0.0
1676922702.7163637,-52.734375,-60.546875,-69.82421875,-42.96875,0.0
1676922702.720102,-51.7578125,-57.6171875,-42.96875,-53.7109375,0.0
1676922702.7238405,-15.13671875,-68.359375,-4.8828125,-21.484375,0.0
1676922702.7275789,20.5078125,-24.90234375,5.859375,-0.9765625,0.0
1676922702.7313173,0.0,11.71875,10.7421875,-4.39453125,0.0
1676922702.7350557,-16.11328125,-20.01953125,3.41796875,-16.6015625,0.0
1676922702.738794,5.37109375,-44.921875,-30.76171875,-15.13671875,0.0
1676922702.7425325,-8.30078125,-21.484375,-67.87109375,-9.765625,0.0
1676922702.7462866,-31.25,-16.11328125,-46.875,-26.85546875,0.0
1676922702.750041,-37.109375,-26.85546875,-9.765625,-36.62109375,0.0
1676922702.7537951,-37.109375,-37.59765625,-16.6015625,-32.71484375,0.0
1676922702.7575493,-45.41015625,-31.25,-16.6015625,-25.390625,0.0
1676922702.7613037,-45.8984375,-40.52734375,-10.25390625,-19.04296875,0.0
1676922702.7650578,-27.83203125,-73.73046875,-11.71875,-21.97265625,0.0
1676922702.768812,-8.30078125,-43.45703125,-23.92578125,-25.390625,0.0
1676922702.7725663,-15.625,-36.62109375,-45.8984375,-29.78515625,0.0
1676922702.7763205,-31.25,-49.31640625,-45.8984375,-34.66796875,0.0
1676922702.7800746,-41.9921875,-27.83203125,-46.38671875,-29.78515625,0.0
1676922702.783829,-18.06640625,-7.8125,-30.2734375,-21.484375,0.0
1676922702.787583,-42.48046875,-17.08984375,-4.39453125,-17.578125,0.0
1676922702.7913334,-53.22265625,-43.45703125,-22.94921875,-15.13671875,0.0
1676922702.7950838,-11.23046875,-41.9921875,-55.6640625,-24.90234375,0.0
1676922702.798834,-3.90625,-41.015625,-32.71484375,-28.3203125,0.0
1676922702.8025844,-11.23046875,-36.62109375,-14.6484375,-31.73828125,0.0
1676922702.8063347,-22.94921875,-25.87890625,-12.6953125,-20.99609375,0.0
1676922702.8100848,-34.1796875,-52.24609375,1.46484375,-4.39453125,0.0
1676922702.8138351,-38.57421875,-68.359375,-5.859375,-13.671875,0.0
1676922702.8175855,-10.7421875,-56.640625,-10.7421875,-2.44140625,0.0
1676922702.8213358,-23.92578125,-60.546875,-35.15625,-7.32421875,0.0
1676922702.825086,-30.76171875,-87.40234375,-51.26953125,-34.66796875,0.0
1676922702.8288364,-32.2265625,-62.5,-22.94921875,-37.59765625,0.0
1676922702.8325868,-76.171875,-23.92578125,-9.27734375,-27.83203125,0.0
1676922702.8364408,-41.015625,-26.3671875,-12.6953125,-21.97265625,0.0
1676922702.8402946,-8.30078125,-39.0625,-28.3203125,-19.04296875,0.0
1676922702.8441486,4.8828125,-61.5234375,-22.94921875,-17.08984375,0.0
1676922702.8480024,-0.48828125,-59.5703125,-7.32421875,-10.7421875,0.0
1676922702.8518565,-50.78125,-44.921875,-8.30078125,-8.30078125,0.0
1676922702.8557105,-43.45703125,-46.875,-3.90625,-11.71875,0.0
1676922702.8595643,-13.18359375,-41.9921875,-18.06640625,-46.875,0.0
1676922702.8634183,-10.7421875,-32.71484375,-24.90234375,-52.24609375,0.0
1676922702.8672721,-45.41015625,-45.8984375,-30.76171875,-24.90234375,0.0
1676922702.8711262,-35.64453125,-40.52734375,1.46484375,-33.69140625,0.0
1676922702.87498,-26.85546875,-38.0859375,6.34765625,-28.3203125,0.0
1676922702.878834,-29.78515625,-42.96875,-14.16015625,-20.01953125,0.0
1676922702.8824825,-12.6953125,-33.203125,-18.06640625,-13.671875,0.0
1676922702.8861308,-12.6953125,-42.96875,-27.34375,-24.90234375,0.0
1676922702.8897793,-18.06640625,-59.08203125,-39.55078125,-16.11328125,0.0
1676922702.8934278,-8.7890625,-52.734375,-49.8046875,-9.27734375,0.0
1676922702.8970764,-20.01953125,-38.0859375,-30.76171875,-29.78515625,0.0
1676922702.900725,-14.16015625,-30.2734375,6.34765625,-8.7890625,0.0
1676922702.9043732,-17.08984375,-39.0625,12.6953125,2.44140625,0.0
1676922702.9080217,-41.9921875,-52.24609375,-19.04296875,-6.34765625,0.0
1676922702.9116702,-27.83203125,-57.12890625,-39.55078125,-3.41796875,0.0
1676922702.9153185,-27.34375,-20.01953125,-3.90625,0.9765625,0.0
1676922702.918967,-43.9453125,7.8125,19.04296875,-10.7421875,0.0
1676922702.9226155,-11.23046875,-20.01953125,10.25390625,-39.55078125,0.0
1676922702.926323,-1.46484375,-45.8984375,-19.53125,-34.1796875,0.0
1676922702.9300306,-9.27734375,-50.29296875,-31.25,-19.53125,0.0
1676922702.933738,-24.4140625,-41.50390625,-1.953125,-16.11328125,0.0
1676922702.9374456,-32.2265625,-42.48046875,-8.7890625,-17.08984375,0.0
1676922702.941153,-29.78515625,-43.45703125,-22.4609375,-24.90234375,0.0
1676922702.9448605,-48.828125,-50.29296875,-14.16015625,-13.671875,0.0
1676922702.948568,-47.36328125,-62.5,-34.66796875,-5.37109375,0.0
1676922702.9522755,-35.64453125,-77.1484375,-46.875,-19.04296875,0.0
1676922702.9559832,-24.4140625,-57.12890625,-10.7421875,-32.71484375,0.0
1676922702.9596906,-23.4375,-28.3203125,-1.46484375,-22.4609375,0.0
1676922702.9633982,-47.8515625,-29.296875,-25.390625,-24.4140625,0.0
1676922702.9671056,-49.8046875,-36.62109375,-28.80859375,-23.4375,0.0
1676922702.970865,-27.34375,-40.52734375,-26.3671875,-19.53125,0.0
1676922702.9746246,-19.04296875,-44.921875,-31.25,-12.6953125,0.0
1676922702.978384,-11.71875,-45.41015625,-38.0859375,-0.48828125,0.0
1676922702.9821434,-7.32421875,-44.921875,-49.31640625,-14.6484375,0.0
1676922702.985903,-7.8125,-47.8515625,-34.1796875,-35.15625,0.0
1676922702.9896624,-18.5546875,-45.41015625,-23.4375,-29.78515625,0.0
1676922702.9934218,-17.578125,-39.55078125,-23.4375,-21.484375,0.0
1676922702.9971814,-15.13671875,-31.25,-11.71875,-24.4140625,0.0
1676922703.0009408,-46.875,-62.98828125,-17.08984375,-41.9921875,0.0
1676922703.0047002,-46.875,-85.44921875,-30.2734375,-50.78125,0.0
1676922703.0084598,-17.08984375,-56.640625,-64.94140625,-23.4375,0.0
1676922703.0122192,-28.3203125,-38.0859375,-62.01171875,-21.484375,0.0
1676922703.0172107,-64.453125,-38.0859375,-11.23046875,-48.33984375,0.0
1676922703.0222025,-36.62109375,-31.25,2.44140625,-43.9453125,0.0
1676922703.027194,11.23046875,-33.203125,-2.44140625,-14.16015625,0.0
1676922703.0321858,-12.6953125,-29.296875,-15.13671875,-20.99609375,0.0
1676922703.0371773,-29.78515625,-23.92578125,-36.62109375,-28.80859375,0.0
1676922703.042169,-20.5078125,-24.90234375,-27.83203125,-8.7890625,0.0
1676922703.0471606,-28.3203125,-33.69140625,-19.04296875,-23.92578125,0.0
1676922703.0521522,-53.22265625,-49.8046875,-26.3671875,-35.64453125,0.0
1676922703.057144,-35.15625,-59.5703125,-21.484375,-42.96875,0.0
1676922703.0621355,-46.875,-54.6875,-26.3671875,-41.015625,0.0
1676922703.0671272,-24.90234375,-44.43359375,-30.2734375,-25.87890625,0.0
1676922703.0721188,-26.85546875,-64.94140625,-63.96484375,-28.80859375,0.0
1676922703.0758667,-64.94140625,-75.68359375,-75.68359375,-34.1796875,0.0
1676922703.0796146,-5.37109375,-43.9453125,-55.17578125,-20.5078125,0.0
1676922703.0833628,3.41796875,-38.57421875,-56.15234375,-18.5546875,0.0
1676922703.0871108,-37.109375,-58.10546875,-52.734375,-27.34375,0.0
1676922703.0908587,-27.34375,-45.8984375,-58.59375,-31.25,0.0
1676922703.0946069,-27.83203125,-47.8515625,-45.8984375,-39.0625,0.0
1676922703.0983548,-31.73828125,-61.5234375,-2.44140625,-23.92578125,0.0
1676922703.1021028,-21.97265625,-63.96484375,3.41796875,-16.11328125,0.0
1676922703.1058507,-17.08984375,-54.6875,-26.3671875,-13.671875,0.0
1676922703.1095986,-20.99609375,-24.90234375,-6.8359375,4.8828125,0.0
1676922703.1133468,-34.66796875,-36.62109375,3.41796875,-6.34765625,0.0
1676922703.1170948,-42.48046875,-68.359375,-31.25,-23.92578125,2.0
1676922703.1208715,-40.52734375,-76.171875,-43.45703125,-32.2265625,0.0
1676922703.1246483,-72.75390625,-65.91796875,-34.1796875,-39.55078125,0.0
1676922703.1284251,-56.640625,-50.78125,-18.5546875,-36.1328125,0.0
1676922703.132202,-10.7421875,-41.9921875,-25.87890625,-32.71484375,0.0
1676922703.1359787,-35.15625,-59.5703125,-55.6640625,-28.3203125,0.0
1676922703.1397555,-39.0625,-75.1953125,-42.48046875,-21.97265625,0.0
1676922703.1435323,-36.62109375,-42.48046875,-10.7421875,-24.90234375,0.0
1676922703.147309,-30.76171875,-24.90234375,-13.671875,-39.0625,0.0
1676922703.1510859,-19.53125,-48.33984375,-22.94921875,-31.73828125,0.0
1676922703.1548626,-43.9453125,-66.40625,-63.96484375,-8.7890625,0.0
1676922703.1586394,-75.1953125,-56.640625,-74.21875,-28.80859375,0.0
1676922703.1624162,-56.640625,-46.38671875,-21.97265625,-46.875,0.0
1676922703.1661854,-28.3203125,-56.15234375,-27.34375,-42.96875,0.0
1676922703.1699545,-18.5546875,-60.05859375,-31.73828125,-31.73828125,0.0
1676922703.1737237,-3.41796875,-46.875,-11.23046875,-29.78515625,0.0
1676922703.1774926,-37.59765625,-55.17578125,-55.6640625,-41.015625,0.0
1676922703.1812618,-46.38671875,-42.96875,-57.12890625,-33.69140625,0.0
1676922703.185031,-26.3671875,-29.78515625,-7.8125,-24.4140625,0.0
1676922703.1888,-46.38671875,-46.875,-5.859375,-32.71484375,0.0
1676922703.1925693,-36.62109375,-72.75390625,-40.0390625,-28.80859375,0.0
1676922703.1963382,-37.109375,-72.75390625,-66.40625,-20.5078125,0.0
1676922703.2001073,-57.6171875,-62.5,-49.8046875,-31.25,0.0
1676922703.2038765,-41.50390625,-46.38671875,-18.06640625,-24.90234375,0.0
1676922703.2076457,-18.5546875,-44.921875,5.37109375,-20.99609375,0.0
1676922703.2113652,-3.90625,-44.43359375,-16.11328125,-20.99609375,0.0
1676922703.215085,-12.6953125,-30.76171875,-49.31640625,-22.94921875,0.0
1676922703.2188048,-25.390625,-62.98828125,-43.45703125,-24.4140625,0.0
1676922703.2225244,-31.73828125,-59.08203125,-21.484375,-17.08984375,0.0
1676922703.226244,-43.45703125,-13.18359375,-13.18359375,-20.5078125,0.0
1676922703.2299638,-54.6875,-8.7890625,-9.27734375,-35.15625,0.0
1676922703.2336836,-39.55078125,-39.55078125,-36.1328125,-27.34375,0.0
1676922703.2374032,-22.94921875,-61.5234375,-86.9140625,-12.6953125,0.0
1676922703.2411227,-38.0859375,-61.03515625,-63.96484375,-22.94921875,0.0
1676922703.2448425,-35.15625,-53.7109375,-32.2265625,-31.25,0.0
1676922703.2485623,-26.3671875,-61.03515625,-25.87890625,-24.90234375,0.0
1676922703.252282,-49.31640625,-78.61328125,-18.5546875,-26.3671875,0.0
1676922703.256019,-30.76171875,-58.59375,-9.765625,-25.390625,0.0
1676922703.2597563,-3.90625,-57.12890625,-11.23046875,-23.4375,0.0
1676922703.2634935,-6.34765625,-63.4765625,-25.390625,-14.6484375,0.0
1676922703.2672307,-4.39453125,-29.78515625,-6.34765625,2.9296875,0.0
1676922703.270968,-7.8125,-14.16015625,-29.78515625,-23.4375,0.0
1676922703.2747052,-4.8828125,-31.25,-57.12890625,-38.57421875,0.0
1676922703.2784424,-8.30078125,-38.0859375,-36.62109375,-12.6953125,0.0
1676922703.2821796,-32.71484375,-22.94921875,-32.71484375,-7.8125,0.0
1676922703.2859168,-35.64453125,-34.1796875,-39.0625,-20.5078125,0.0
1676922703.289654,-30.76171875,-52.24609375,-47.8515625,-19.04296875,0.0
1676922703.2933912,-23.4375,-38.57421875,-65.91796875,-15.13671875,0.0
1676922703.2971284,-20.5078125,-41.9921875,-60.546875,-25.390625,0.0
1676922703.300991,-43.9453125,-57.6171875,-21.484375,-37.109375,0.0
1676922703.3048534,-46.875,-71.2890625,-3.90625,-34.1796875,0.0
1676922703.308716,-55.17578125,-76.171875,-34.1796875,-57.6171875,0.0
1676922703.3125787,-46.875,-33.203125,-24.90234375,-60.546875,0.0
1676922703.316441,-16.6015625,-12.20703125,-25.87890625,-23.4375,0.0
1676922703.3203037,-27.34375,-18.06640625,-57.12890625,-16.6015625,0.0
1676922703.3241663,-47.8515625,-19.53125,-50.78125,-35.15625,0.0
1676922703.3280287,-50.29296875,-24.4140625,-30.76171875,-42.48046875,0.0
1676922703.3318913,-58.10546875,-22.4609375,-47.8515625,-44.43359375,0.0
1676922703.335754,-51.7578125,-49.31640625,-59.5703125,-46.875,0.0
1676922703.3396163,1.46484375,-73.2421875,-42.48046875,-44.921875,0.0
1676922703.343479,1.46484375,-39.0625,-37.59765625,-41.9921875,0.0
1676922703.3471277,-31.25,-26.3671875,-26.3671875,-33.203125,0.0
1676922703.3507764,-55.17578125,-49.8046875,-33.69140625,-29.296875,0.0
1676922703.3544254,-62.01171875,-44.921875,-38.57421875,-21.97265625,0.0
1676922703.3580742,-42.96875,-47.8515625,-71.77734375,-33.69140625,0.0
1676922703.361723,-31.73828125,-71.77734375,-82.03125,-42.48046875,0.0
1676922703.3653717,-31.73828125,-66.40625,-25.87890625,-22.4609375,0.0
1676922703.3690205,-27.34375,-20.5078125,-10.7421875,-25.87890625,0.0
1676922703.3726692,-37.109375,-5.859375,-39.0625,-31.73828125,0.0
1676922703.376318,-21.97265625,-20.5078125,-52.24609375,-18.06640625,0.0
1676922703.379967,-36.62109375,-37.59765625,-37.109375,-8.30078125,0.0
1676922703.3836157,-54.6875,-41.9921875,-18.5546875,-32.71484375,0.0
1676922703.3872645,-27.83203125,-25.87890625,-30.2734375,-54.6875,0.0
1676922703.392279,-28.3203125,-31.25,-33.203125,-41.50390625,0.0
1676922703.3972936,-35.64453125,-48.828125,-11.23046875,-32.71484375,0.0
1676922703.402308,-29.296875,-46.875,-18.5546875,-25.390625,0.0
1676922703.4073224,-32.2265625,-35.64453125,-36.1328125,-30.2734375,0.0
1676922703.412337,-32.71484375,-22.94921875,-37.59765625,-25.390625,0.0
1676922703.4173515,-15.625,-18.06640625,-34.66796875,-13.18359375,0.0
1676922703.422366,8.30078125,-21.484375,-36.62109375,-8.7890625,0.0
1676922703.4273806,7.8125,-35.64453125,-68.84765625,-6.34765625,0.0
1676922703.432395,-52.24609375,-44.43359375,-68.359375,-20.5078125,0.0
1676922703.4374094,-70.3125,-18.5546875,-26.3671875,-27.83203125,0.0
1676922703.442424,-27.34375,-42.48046875,-25.390625,-37.109375,0.0
1676922703.4474385,-26.3671875,-42.96875,-28.80859375,-45.8984375,0.0
1676922703.4524477,-32.2265625,-12.20703125,-7.32421875,-32.71484375,0.0
1676922703.4574568,-18.5546875,-18.06640625,1.953125,-19.04296875,0.0
1676922703.4624658,-14.6484375,-30.76171875,-17.578125,-20.99609375,0.0
1676922703.467475,-27.83203125,-49.31640625,-31.25,-28.80859375,0.0
1676922703.472484,-53.7109375,-50.29296875,-29.78515625,-38.0859375,0.0
1676922703.4774933,-23.92578125,-37.109375,-33.69140625,-35.64453125,0.0
1676922703.4825025,-20.5078125,-28.3203125,-59.08203125,-37.109375,0.0
1676922703.4875116,-24.90234375,-18.5546875,-41.015625,-24.4140625,0.0
1676922703.4925208,0.9765625,-52.24609375,-8.7890625,-3.41796875,0.0
1676922703.4975297,-27.83203125,-77.63671875,-23.4375,-4.8828125,0.0
1676922703.502539,-50.29296875,-49.31640625,-36.62109375,-25.87890625,0.0
1676922703.507548,-30.2734375,-13.18359375,-12.6953125,-12.6953125,0.0
1676922703.5100508,-8.7890625,-16.6015625,-25.390625,0.48828125,0.0
1676922703.5125537,-32.71484375,-66.40625,-49.31640625,-36.62109375,0.0
1676922703.5150566,-22.94921875,-62.5,-38.57421875,-37.109375,0.0
1676922703.5175593,-16.6015625,-31.73828125,-35.64453125,-29.296875,0.0
1676922703.520062,-68.359375,-40.0390625,-26.85546875,-39.0625,0.0
1676922703.522565,-44.921875,-35.64453125,-20.5078125,-40.0390625,0.0
1676922703.5250678,-16.11328125,-32.71484375,-16.6015625,-30.76171875,0.0
1676922703.5275705,-33.69140625,-57.12890625,-18.06640625,-30.2734375,0.0
1676922703.5300732,-39.0625,-68.84765625,-19.04296875,-36.1328125,0.0
1676922703.532576,-59.5703125,-42.96875,-14.16015625,-44.921875,0.0
1676922703.535079,-41.50390625,-38.0859375,-20.99609375,-37.109375,0.0
1676922703.5375817,-19.04296875,-49.31640625,-35.64453125,-20.01953125,0.0
1676922703.5413625,-21.97265625,-48.828125,-27.34375,-21.484375,0.0
1676922703.5451434,-30.76171875,-41.015625,-21.484375,-27.83203125,0.0
1676922703.548924,-34.1796875,-32.2265625,-20.99609375,-31.25,0.0
1676922703.5527048,-26.3671875,-38.57421875,-14.16015625,-31.25,0.0
1676922703.5564857,-41.9921875,-51.26953125,-27.83203125,-33.203125,0.0
1676922703.5602665,-33.203125,-42.48046875,-76.171875,-23.4375,0.0
1676922703.5640473,-15.625,-40.0390625,-67.87109375,-19.53125,0.0
1676922703.5678282,-23.92578125,-52.24609375,-21.484375,-33.69140625,0.0
1676922703.571609,-33.203125,-44.43359375,2.44140625,-21.484375,0.0
1676922703.5753896,-30.2734375,-34.1796875,3.90625,-29.296875,0.0
1676922703.5791705,-9.27734375,-28.3203125,-0.9765625,-30.76171875,0.0
1676922703.5829513,-7.8125,-27.83203125,-1.46484375,-17.578125,0.0
1676922703.5866485,-20.01953125,-24.4140625,-24.90234375,-20.01953125,0.0
1676922703.5903456,-39.0625,-23.92578125,-38.57421875,-17.578125,0.0
1676922703.5940428,-25.87890625,-27.34375,-25.87890625,-14.6484375,0.0
1676922703.59774,-6.34765625,-25.390625,-23.92578125,-21.484375,0.0
1676922703.601437,-28.80859375,-33.203125,-34.66796875,-27.34375,0.0
1676922703.605134,-25.390625,-35.64453125,-40.0390625,-26.85546875,0.0
1676922703.6088312,-7.32421875,-24.90234375,-38.0859375,-27.83203125,0.0
1676922703.6125283,-11.71875,-40.0390625,-37.109375,-30.2734375,0.0
1676922703.6162255,-24.90234375,-58.10546875,-45.8984375,-19.04296875,0.0
1676922703.6199226,-14.16015625,-56.15234375,-49.8046875,-17.08984375,0.0
