timestamps,TP9,Fp1,Fp2,TP10,stim
1676923734.2109432,528.3203125,-174.31640625,31.25,-59.08203125,0.0
1676923734.2159266,592.7734375,-188.96484375,41.50390625,-36.62109375,0.0
1676923734.2209098,593.26171875,-582.03125,-265.13671875,7.8125,0.0
1676923734.225893,534.66796875,-389.16015625,-129.39453125,-3.90625,0.0
1676923734.2284327,503.41796875,-42.96875,126.953125,-35.15625,0.0
1676923734.2309723,548.828125,-118.65234375,74.70703125,-41.50390625,0.0
1676923734.233512,622.55859375,-205.56640625,14.6484375,-25.390625,0.0
1676923734.2360516,613.28125,-74.21875,116.69921875,-11.71875,0.0
1676923734.2385912,550.78125,4.39453125,162.59765625,-26.85546875,0.0
1676923734.2411308,549.31640625,-349.12109375,-105.95703125,-28.3203125,0.0
1676923734.2436702,622.0703125,-509.765625,-196.2890625,-14.6484375,0.0
1676923734.2462099,646.484375,-147.4609375,76.66015625,-11.71875,0.0
1676923734.2487495,581.54296875,88.8671875,238.28125,-35.15625,0.0
1676923734.2512891,571.2890625,-99.12109375,93.26171875,-47.36328125,0.0
1676923734.2538288,610.3515625,-639.16015625,-326.171875,-34.1796875,0.0
1676923734.2563684,642.578125,-426.26953125,-154.296875,-15.625,0.0
1676923734.26019,614.74609375,-128.41796875,91.30859375,-6.8359375,0.0
1676923734.2640116,568.359375,-481.93359375,-190.91796875,-11.23046875,0.0
1676923734.2678332,604.00390625,-513.671875,-223.6328125,-3.41796875,0.0
1676923734.2716546,646.97265625,-46.38671875,122.55859375,0.48828125,0.0
1676923734.2754762,611.81640625,107.421875,244.140625,-9.765625,0.0
1676923734.2792978,545.41015625,-405.76171875,-140.13671875,-15.13671875,0.0
1676923734.2831194,547.36328125,-625.9765625,-324.21875,-35.15625,0.0
1676923734.286941,618.1640625,-94.23828125,76.171875,-40.0390625,0.0
1676923734.2907624,649.4140625,145.5078125,270.99609375,-23.92578125,0.0
1676923734.294584,581.0546875,-435.546875,-184.5703125,-32.2265625,0.0
1676923734.2984056,566.40625,-627.44140625,-343.75,-61.03515625,0.0
1676923734.3022273,662.109375,28.80859375,178.22265625,-66.89453125,0.0
1676923734.3083827,694.82421875,63.4765625,213.37890625,-39.55078125,0.0
1676923734.314538,620.60546875,-129.39453125,54.19921875,-56.15234375,0.0
1676923734.3206935,602.5390625,-85.9375,98.6328125,-68.359375,0.0
1676923734.326849,653.3203125,-149.4140625,47.36328125,-53.22265625,0.0
1676923734.3330045,719.7265625,-133.7890625,56.640625,-27.83203125,0.0
1676923734.33916,693.359375,-591.30859375,-323.73046875,-18.5546875,0.0
1676923734.3453152,627.9296875,-687.5,-419.43359375,-60.546875,0.0
1676923734.3514707,687.5,-23.92578125,122.55859375,-68.84765625,0.0
1676923734.3576262,753.90625,-88.8671875,80.56640625,-25.390625,0.0
1676923734.3637815,727.5390625,-409.66796875,-182.12890625,-26.3671875,0.0
1676923734.369937,670.8984375,-198.2421875,-49.8046875,-74.70703125,0.0
1676923734.3760924,692.87109375,47.8515625,130.37109375,-91.30859375,0.0
1676923734.3786044,728.02734375,-198.73046875,-44.921875,-63.96484375,0.0
1676923734.3811166,698.73046875,-296.38671875,-111.328125,-59.5703125,0.0
1676923734.3836286,658.203125,-78.61328125,35.64453125,-86.42578125,0.0
1676923734.3861408,668.45703125,20.01953125,97.65625,-99.609375,0.0
1676923734.3886528,715.8203125,-330.56640625,-157.71484375,-68.84765625,0.0
1676923734.3911648,728.02734375,-701.66015625,-426.7578125,-39.55078125,0.0
1676923734.393677,660.15625,-520.99609375,-274.90234375,-63.4765625,0.0
1676923734.396189,620.1171875,-345.703125,-145.5078125,-83.0078125,0.0
1676923734.3987012,659.66796875,-441.40625,-217.7734375,-72.265625,0.0
1676923734.4012132,695.3125,-358.88671875,-145.5078125,-46.875,0.0
1676923734.4037254,641.11328125,-69.82421875,75.68359375,-56.15234375,0.0
1676923734.4062374,564.453125,-9.27734375,144.53125,-106.93359375,0.0
1676923734.4100726,595.21484375,-518.06640625,-285.64453125,-92.28515625,0.0
1676923734.413908,615.72265625,-852.5390625,-611.81640625,-71.2890625,0.0
1676923734.4177432,581.54296875,-168.45703125,-6.34765625,-88.8671875,0.0
1676923734.4215786,539.55078125,-46.38671875,132.32421875,-104.00390625,0.0
1676923734.4254138,555.17578125,-269.53125,-38.57421875,-111.328125,0.0
1676923734.4292493,643.5546875,-356.93359375,-81.0546875,-77.63671875,0.0
1676923734.4330845,627.9296875,-319.82421875,-50.29296875,-66.89453125,0.0
1676923734.4369197,558.10546875,-155.76171875,69.3359375,-81.0546875,0.0
1676923734.4407551,569.82421875,-657.71484375,-386.23046875,-75.68359375,0.0
1676923734.4445903,633.7890625,-751.46484375,-471.6796875,-79.58984375,0.0
1676923734.4484258,687.01171875,-33.203125,142.578125,-67.87109375,0.0
1676923734.452261,643.06640625,-74.21875,131.8359375,-52.734375,0.0
1676923734.4559138,591.30859375,-334.47265625,-62.98828125,-80.078125,0.0
1676923734.4595666,630.37109375,-113.28125,86.42578125,-97.16796875,0.0
1676923734.4632196,690.4296875,31.73828125,194.82421875,-69.3359375,0.0
1676923734.4668725,648.92578125,-217.7734375,7.32421875,-51.26953125,0.0
1676923734.4705253,583.0078125,-418.45703125,-147.4609375,-71.77734375,0.0
1676923734.474178,611.81640625,-345.703125,-94.7265625,-83.0078125,0.0
1676923734.477831,678.7109375,-208.984375,25.390625,-64.453125,0.0
1676923734.4814837,666.50390625,-404.296875,-122.0703125,-40.52734375,0.0
1676923734.4851365,585.44921875,-893.5546875,-565.91796875,-59.5703125,0.0
1676923734.4887896,597.16796875,-290.52734375,-103.02734375,-103.02734375,0.0
1676923734.4924424,673.828125,118.65234375,257.32421875,-83.0078125,0.0
1676923734.4960952,685.546875,-124.0234375,81.0546875,-57.12890625,0.0
1676923734.4999416,603.515625,-325.1953125,-62.01171875,-82.03125,0.0
1676923734.503788,572.75390625,-112.79296875,80.078125,-116.69921875,0.0
1676923734.5076344,629.8828125,25.87890625,178.22265625,-105.46875,0.0
1676923734.5114808,655.2734375,-288.57421875,-54.19921875,-79.1015625,0.0
1676923734.5153272,615.234375,-270.99609375,-31.25,-87.40234375,0.0
1676923734.5191736,574.70703125,-208.0078125,19.04296875,-108.88671875,0.0
1676923734.5230203,609.86328125,-273.4375,-23.4375,-103.02734375,0.0
1676923734.5268667,659.66796875,-609.375,-282.71484375,-57.12890625,0.0
1676923734.530713,641.11328125,-441.89453125,-176.7578125,-56.640625,0.0
1676923734.5345595,606.4453125,92.7734375,230.95703125,-83.49609375,0.0
1676923734.538406,613.76953125,-104.00390625,88.8671875,-74.70703125,0.0
1676923734.5422523,659.66796875,-199.70703125,12.6953125,-48.33984375,0.0
1676923734.5459523,659.1796875,5.859375,153.3203125,-42.48046875,0.0
1676923734.5496523,607.421875,87.40234375,209.9609375,-58.59375,0.0
1676923734.5533524,608.88671875,-180.6640625,3.41796875,-71.77734375,0.0
1676923734.5570524,658.69140625,-455.56640625,-195.3125,-66.40625,0.0
1676923734.5607524,675.29296875,-198.73046875,4.8828125,-57.6171875,0.0
1676923734.5644524,604.00390625,-148.4375,54.6875,-73.2421875,0.0
1676923734.5681524,565.4296875,-563.4765625,-242.67578125,-76.66015625,0.0
1676923734.5718524,594.7265625,-899.90234375,-576.171875,-58.10546875,0.0
1676923734.5755525,644.53125,-333.984375,-145.5078125,-59.08203125,0.0
1676923734.5792525,624.51171875,92.28515625,237.79296875,-58.59375,0.0
1676923734.5829525,576.66015625,-121.09375,70.80078125,-67.87109375,0.0
1676923734.5866525,606.4453125,-99.609375,69.82421875,-73.73046875,0.0
1676923734.5903463,654.78515625,51.7578125,206.54296875,-48.828125,0.0
1676923734.5940404,628.41796875,0.48828125,194.3359375,-31.25,0.0
1676923734.5977342,557.12890625,-186.03515625,27.34375,-46.875,0.0
1676923734.6014283,565.91796875,-109.375,65.4296875,-58.59375,0.0
1676923734.605122,624.51171875,61.03515625,204.1015625,-37.59765625,0.0
1676923734.6088161,619.140625,-175.29296875,65.91796875,-16.11328125,0.0
1676923734.61251,521.97265625,-792.48046875,-485.83984375,-29.296875,0.0
1676923734.6162038,498.046875,-704.58984375,-443.359375,-71.77734375,0.0
1676923734.6198978,588.37890625,14.16015625,214.35546875,-79.1015625,0.0
1676923734.6235917,608.3984375,-28.80859375,186.5234375,-46.875,0.0
1676923734.6272857,507.8125,-651.3671875,-303.7109375,-62.5,0.0
1676923734.6309795,418.9453125,-394.53125,-104.98046875,-109.86328125,0.0
1676923734.6347408,441.40625,-26.3671875,191.40625,-100.5859375,0.0
1676923734.6385024,501.953125,-366.69921875,-55.17578125,-81.54296875,0.0
1676923734.642264,486.81640625,-261.71875,27.34375,-90.33203125,0.0
1676923734.6460252,436.03515625,-21.484375,219.23828125,-111.328125,0.0
1676923734.6497865,434.5703125,53.7109375,280.2734375,-115.72265625,0.0
1676923734.653548,444.3359375,-418.9453125,-75.1953125,-70.3125,0.0
1676923734.6573095,432.6171875,-702.1484375,-298.33984375,-77.63671875,0.0
1676923734.6610708,451.66015625,-109.86328125,135.25390625,-118.1640625,0.0
1676923734.664832,485.3515625,101.07421875,305.17578125,-112.79296875,0.0
1676923734.6685936,524.90234375,-421.875,-77.1484375,-82.03125,0.0
1676923734.6723552,524.90234375,-517.08984375,-158.69140625,-63.96484375,0.0
1676923734.6761165,471.19140625,15.13671875,241.2109375,-107.421875,0.0
1676923734.6811116,481.4453125,35.15625,254.39453125,-131.8359375,0.0
1676923734.6861064,521.484375,-363.76953125,-41.50390625,-122.0703125,0.0
1676923734.6911016,503.90625,-344.7265625,-28.80859375,-140.625,0.0
1676923734.6960967,439.94140625,29.78515625,241.69921875,-176.7578125,0.0
1676923734.7010915,410.15625,-68.359375,161.1328125,-208.0078125,0.0
1676923734.7060866,460.9375,-463.37890625,-139.6484375,-208.0078125,0.0
1676923734.7110817,495.60546875,-490.234375,-169.43359375,-205.078125,0.0
1676923734.7160766,433.59375,-104.98046875,123.53515625,-252.9296875,0.0
1676923734.7210717,385.25390625,-156.73828125,81.54296875,-304.19921875,0.0
1676923734.7260668,402.34375,-618.65234375,-262.6953125,-323.73046875,0.0
1676923734.7310617,428.7109375,-395.5078125,-82.03125,-322.75390625,0.0
1676923734.7360568,408.203125,-32.71484375,202.1484375,-330.078125,0.0
1676923734.7398102,338.37890625,-447.265625,-98.14453125,-357.91015625,0.0
1676923734.7435637,322.75390625,-658.69140625,-264.16015625,-373.046875,0.0
1676923734.7473168,357.421875,-213.37890625,79.58984375,-375.0,0.0
1676923734.7510703,361.328125,-3.90625,269.04296875,-349.12109375,0.0
1676923734.7548237,305.17578125,-327.1484375,35.64453125,-347.65625,0.0
1676923734.7585769,277.34375,-687.98828125,-240.234375,-369.62890625,0.0
1676923734.7623303,332.03125,-429.19921875,-15.625,-338.8671875,0.0
1676923734.7660837,387.20703125,-101.5625,252.9296875,-281.73828125,0.0
1676923734.7698371,330.078125,-391.11328125,42.48046875,-281.73828125,0.0
1676923734.7735906,272.94921875,-491.2109375,-22.94921875,-287.59765625,0.0
1676923734.7773438,298.33984375,-124.51171875,270.01953125,-250.9765625,0.0
1676923734.7810972,316.40625,-13.671875,366.2109375,-206.54296875,0.0
1676923734.7848473,243.65234375,-553.7109375,-49.31640625,-181.15234375,0.0
1676923734.7885976,161.62109375,-638.671875,-105.95703125,-198.73046875,0.0
1676923734.7923477,224.609375,-145.5078125,287.59765625,-175.78125,0.0
1676923734.7960978,277.83203125,-366.69921875,136.23046875,-119.140625,0.0
1676923734.799848,247.55859375,-652.83203125,-82.03125,-93.26171875,0.0
1676923734.8035982,173.33984375,-683.10546875,-97.16796875,-107.421875,0.0
1676923734.8073483,152.34375,-379.39453125,154.296875,-117.1875,0.0
1676923734.8110986,210.44921875,-250.48828125,253.90625,-80.078125,0.0
1676923734.8148487,222.65625,-723.6328125,-157.2265625,-29.78515625,0.0
1676923734.8185987,168.45703125,-568.359375,-52.734375,-30.2734375,0.0
1676923734.822349,168.45703125,-72.75390625,355.95703125,-57.6171875,0.0
1676923734.8260992,220.703125,-299.31640625,156.73828125,-37.59765625,0.0
1676923734.8298497,273.4375,-468.75,17.578125,-12.20703125,0.0
1676923734.8336003,297.8515625,-225.09765625,188.96484375,-9.765625,0.0
1676923734.8373508,312.98828125,-134.765625,216.796875,-16.11328125,0.0
1676923734.8411014,385.7421875,-373.046875,-3.41796875,-19.53125,0.0
1676923734.844852,463.37890625,-471.19140625,-110.83984375,10.25390625,0.0
1676923734.8486025,433.59375,-497.0703125,-151.3671875,22.4609375,0.0
1676923734.852353,375.9765625,-642.578125,-248.046875,7.8125,0.0
1676923734.8561037,377.9296875,-853.02734375,-512.20703125,27.34375,0.0
1676923734.8598542,402.83203125,-850.09765625,-649.4140625,43.9453125,0.0
1676923734.8636048,444.3359375,-357.421875,-164.0625,44.921875,0.0
1676923734.8673553,416.015625,-168.45703125,77.63671875,20.99609375,0.0
1676923734.871106,423.33984375,-663.0859375,-399.4140625,20.5078125,0.0
1676923734.8748553,556.640625,-791.9921875,-584.9609375,34.1796875,0.0
1676923734.8786044,646.484375,-202.1484375,-33.203125,13.18359375,0.0
1676923734.8823538,565.91796875,-189.453125,-5.859375,-9.765625,0.0
1676923734.8861032,528.3203125,-482.91015625,-243.65234375,-41.9921875,0.0
1676923734.8898525,608.88671875,-369.140625,-158.69140625,-40.0390625,0.0
1676923734.893602,724.609375,-361.81640625,-145.01953125,5.37109375,0.0
1676923734.897351,759.27734375,-496.09375,-217.28515625,11.23046875,0.0
1676923734.9011004,673.828125,-745.1171875,-468.75,-11.71875,0.0
1676923734.9048498,695.80078125,-595.21484375,-358.3984375,-38.57421875,0.0
1676923734.908599,824.21875,-239.74609375,-8.7890625,-30.2734375,0.0
1676923734.9123483,835.44921875,-361.81640625,-102.5390625,-21.484375,0.0
1676923734.9160976,733.3984375,-414.55078125,-141.6015625,-52.734375,0.0
1676923734.9198482,716.796875,-113.28125,77.1484375,-66.40625,0.0
1676923734.9235988,812.5,93.75,243.1640625,-47.36328125,0.0
1676923734.9273493,870.60546875,-248.53515625,-10.25390625,-36.1328125,0.0
1676923734.9311,812.5,-458.0078125,-174.8046875,-69.3359375,0.0
1676923734.9348505,740.72265625,-65.4296875,131.8359375,-120.60546875,0.0
1676923734.938601,787.109375,-104.4921875,116.69921875,-105.46875,0.0
1676923734.9423516,846.19140625,-586.9140625,-251.953125,-60.05859375,0.0
1676923734.9461021,804.19921875,-704.58984375,-365.72265625,-95.703125,0.0
1676923734.9498527,766.11328125,-63.96484375,115.234375,-172.36328125,0.0
1676923734.9536033,784.66796875,168.9453125,296.38671875,-171.875,0.0
1676923734.9573538,795.8984375,-14.6484375,165.0390625,-130.37109375,0.0
1676923734.9611044,750.0,28.80859375,208.0078125,-103.02734375,0.0
1676923734.964931,665.0390625,19.53125,208.49609375,-99.12109375,0.0
1676923734.9687579,679.19921875,50.29296875,221.6796875,-89.84375,0.0
1676923734.9725845,722.65625,-90.33203125,93.75,-67.3828125,0.0
1676923734.976411,707.51953125,-32.2265625,110.3515625,-66.89453125,0.0
1676923734.980238,646.97265625,190.4296875,271.97265625,-84.9609375,0.0
1676923734.9840646,609.375,-23.4375,109.86328125,-91.796875,0.0
1676923734.9878912,645.01953125,-491.2109375,-266.11328125,-78.125,0.0
1676923734.991718,691.40625,-292.48046875,-126.46484375,-77.1484375,0.0
1676923734.9955447,656.25,355.46875,370.1171875,-83.49609375,0.0
1676923734.9993713,652.34375,138.671875,192.87109375,-63.4765625,0.0
1676923735.0031981,703.61328125,-41.015625,49.8046875,-26.3671875,0.0
1676923735.0070248,718.26171875,224.12109375,256.34765625,-9.27734375,0.0
1676923735.0119271,630.859375,294.43359375,318.359375,-36.62109375,0.0
1676923735.0168297,508.7890625,32.2265625,110.83984375,-52.734375,0.0
1676923735.021732,550.29296875,-94.23828125,20.99609375,-31.25,0.0
1676923735.0266345,626.46484375,-41.015625,68.359375,-11.23046875,0.0
1676923735.031537,539.0625,96.19140625,173.828125,-20.5078125,0.0
1676923735.0364394,354.98046875,-227.5390625,-52.24609375,-39.55078125,0.0
1676923735.0413418,266.6015625,-846.6796875,-546.875,-54.19921875,0.0
1676923735.0462444,251.46484375,-267.578125,-88.8671875,-73.2421875,0.0
1676923735.0511467,197.75390625,222.16796875,306.15234375,-66.89453125,0.0
1676923735.056049,122.0703125,-17.08984375,107.91015625,-78.61328125,0.0
1676923735.0609517,142.08984375,18.06640625,142.578125,-110.83984375,0.0
1676923735.065854,277.34375,248.046875,321.77734375,-116.2109375,0.0
1676923735.0696254,276.3671875,43.45703125,183.59375,-109.86328125,0.0
1676923735.0733967,154.78515625,-190.4296875,2.44140625,-138.18359375,0.0
1676923735.077168,158.69140625,-4.39453125,153.3203125,-158.69140625,0.0
1676923735.080939,185.546875,125.48828125,254.8828125,-140.625,0.0
1676923735.0847104,237.79296875,15.625,160.15625,-96.19140625,0.0
1676923735.0884817,261.71875,-311.5234375,-65.91796875,-84.9609375,0.0
1676923735.092253,221.19140625,-405.2734375,-122.55859375,-114.74609375,0.0
1676923735.0960243,291.015625,-165.0390625,54.19921875,-122.55859375,0.0
1676923735.0997953,370.60546875,34.1796875,229.98046875,-107.421875,0.0
1676923735.1035666,363.76953125,-653.80859375,-318.359375,-82.51953125,0.0
1676923735.107338,322.75390625,-712.40234375,-375.48828125,-113.76953125,0.0
1676923735.1111093,342.28515625,109.375,302.24609375,-160.64453125,0.0
1676923735.1148593,385.25390625,16.11328125,236.81640625,-139.6484375,0.0
1676923735.1186092,329.1015625,-100.09765625,142.578125,-130.37109375,0.0
1676923735.1223593,299.31640625,139.16015625,286.62109375,-171.38671875,0.0
1676923735.1261094,367.1875,175.78125,313.96484375,-191.89453125,0.0
1676923735.1298592,443.84765625,-51.7578125,151.3671875,-172.36328125,0.0
1676923735.1336093,459.9609375,-308.59375,-41.9921875,-152.34375,0.0
1676923735.1373594,453.61328125,-236.328125,6.34765625,-171.875,0.0
1676923735.1411092,452.63671875,137.20703125,290.0390625,-197.265625,0.0
1676923735.1448593,375.9765625,-246.58203125,19.04296875,-175.29296875,0.0
1676923735.1486094,354.00390625,-725.09765625,-322.75390625,-140.625,0.0
1676923735.1523592,360.3515625,-83.0078125,167.48046875,-158.69140625,0.0
1676923735.1561093,422.36328125,230.95703125,387.6953125,-179.6875,0.0
1676923735.1598592,480.95703125,-340.8203125,-61.5234375,-169.43359375,0.0
1676923735.1636093,540.52734375,-443.84765625,-129.8828125,-154.296875,0.0
1676923735.167359,624.0234375,114.74609375,288.0859375,-149.4140625,0.0
1676923735.171109,677.734375,56.640625,208.0078125,-147.4609375,0.0
1676923735.174859,746.09375,-145.99609375,28.3203125,-144.04296875,0.0
1676923735.178609,782.2265625,-294.921875,-85.44921875,-119.140625,0.0
1676923735.1823587,791.015625,-262.6953125,-53.7109375,-99.609375,0.0
1676923735.1861088,680.6640625,-99.609375,69.3359375,-117.67578125,0.0
1676923735.1898587,557.12890625,-587.40234375,-311.5234375,-140.13671875,0.0
1676923735.1936085,624.0234375,-496.09375,-237.79296875,-161.62109375,0.0
1676923735.1973586,703.125,106.93359375,229.98046875,-136.71875,0.0
1676923735.2011085,610.83984375,-101.5625,83.0078125,-117.1875,0.0
1676923735.204905,584.47265625,-391.11328125,-138.18359375,-145.01953125,0.0
1676923735.2087016,693.359375,-125.0,56.640625,-139.6484375,0.0
1676923735.2124982,733.3984375,145.5078125,267.578125,-67.87109375,0.0
1676923735.216295,728.02734375,-211.42578125,9.27734375,5.859375,0.0
1676923735.2200916,784.66796875,-451.66015625,-137.20703125,36.1328125,0.0
1676923735.2238882,862.3046875,-224.12109375,38.0859375,60.546875,0.0
1676923735.2276847,937.98828125,-189.453125,62.5,117.67578125,0.0
1676923735.2314813,969.23828125,-480.95703125,-142.578125,173.33984375,0.0
1676923735.2352781,966.30859375,-637.6953125,-271.484375,184.5703125,0.0
1676923735.2390747,967.7734375,-48.828125,156.73828125,198.2421875,0.0
1676923735.2428713,967.7734375,104.4921875,274.4140625,247.55859375,0.0
1676923735.2466679,967.7734375,-94.23828125,122.55859375,295.8984375,0.0
1676923735.2516205,968.26171875,-87.890625,125.9765625,299.31640625,0.0
1676923735.2565734,967.28515625,84.47265625,260.25390625,266.6015625,0.0
1676923735.261526,966.30859375,-16.6015625,204.1015625,258.7890625,0.0
1676923735.266479,971.19140625,-309.5703125,4.8828125,262.6953125,0.0
1676923735.2714317,913.0859375,-210.9375,77.63671875,237.3046875,0.0
1676923735.2763844,857.421875,-248.53515625,45.8984375,198.2421875,0.0
1676923735.2813373,894.04296875,-465.8203125,-131.8359375,160.64453125,0.0
1676923735.28629,952.63671875,-607.91015625,-275.87890625,131.8359375,0.0
1676923735.2912428,970.21484375,-374.51171875,-128.41796875,101.5625,0.0
1676923735.2961955,965.8203125,-25.390625,101.5625,61.5234375,0.0
1676923735.3011484,968.26171875,-214.35546875,-59.5703125,37.59765625,0.0
1676923735.306101,968.26171875,-712.40234375,-477.05078125,30.2734375,0.0
1676923735.309851,967.7734375,-479.00390625,-329.1015625,-4.8828125,0.0
1676923735.3136008,968.26171875,-35.64453125,0.9765625,-48.828125,0.0
1676923735.3173504,967.7734375,-351.5625,-275.87890625,-74.70703125,0.0
1676923735.3211002,967.7734375,-494.140625,-417.48046875,-85.44921875,0.0
1676923735.32485,967.7734375,-206.0546875,-223.6328125,-94.7265625,0.0
1676923735.3286,968.26171875,-400.87890625,-358.88671875,-126.46484375,0.0
1676923735.3323498,967.7734375,-817.87109375,-738.28125,-161.62109375,0.0
1676923735.3360996,967.7734375,-771.97265625,-768.5546875,-185.546875,0.0
1676923735.3398495,967.7734375,-281.25,-350.5859375,-210.9375,0.0
1676923735.343599,967.7734375,-142.578125,-227.05078125,-237.79296875,0.0
1676923735.347349,967.7734375,-627.44140625,-642.578125,-269.53125,0.0
1676923735.3510988,968.26171875,-942.87109375,-949.70703125,-300.29296875,0.0
1676923735.3535948,967.7734375,-432.6171875,-509.27734375,-319.82421875,0.0
1676923735.356091,967.7734375,-251.953125,-324.70703125,-295.41015625,0.0
1676923735.358587,967.7734375,-475.09765625,-500.0,-304.19921875,0.0
1676923735.3610833,967.7734375,-443.359375,-479.98046875,-325.68359375,0.0
1676923735.3635793,967.7734375,-365.72265625,-416.015625,-325.1953125,0.0
1676923735.3660755,967.7734375,-652.34375,-613.76953125,-319.82421875,0.0
1676923735.3685715,968.26171875,-752.9296875,-686.5234375,-326.66015625,0.0
1676923735.3710675,963.37890625,-457.51953125,-483.88671875,-347.16796875,0.0
1676923735.3735638,971.6796875,-419.43359375,-444.3359375,-349.609375,0.0
1676923735.3760598,944.82421875,-744.62890625,-686.5234375,-326.66015625,0.0
1676923735.378556,787.109375,-987.79296875,-950.68359375,-333.49609375,0.0
1676923735.381052,709.9609375,-784.66796875,-807.12890625,-358.88671875,0.0
1676923735.3860452,799.8046875,-436.03515625,-469.7265625,-330.078125,0.0
1676923735.3910382,857.91015625,-631.34765625,-619.140625,-307.12890625,0.0
1676923735.3960314,783.69140625,-913.57421875,-886.71875,-317.87109375,0.0
1676923735.4010243,854.00390625,-590.33203125,-616.2109375,-304.19921875,0.0
1676923735.4060175,977.5390625,-441.89453125,-456.0546875,-235.3515625,0.0
1676923735.4110107,965.8203125,-797.8515625,-772.94921875,-160.15625,0.0
1676923735.4160037,965.8203125,-961.9140625,-934.08203125,-114.74609375,0.0
1676923735.420997,968.75,-615.234375,-599.12109375,-102.05078125,0.0
1676923735.4259899,967.7734375,-435.546875,-422.8515625,-71.2890625,0.0
1676923735.430983,968.26171875,-767.578125,-738.76953125,-11.71875,0.0
1676923735.435976,967.7734375,-822.265625,-798.33984375,29.296875,0.0
1676923735.4409692,967.7734375,-554.6875,-493.65234375,43.9453125,0.0
1676923735.444724,967.7734375,-746.09375,-593.75,45.41015625,0.0
1676923735.4484787,967.7734375,-923.33984375,-800.78125,62.98828125,0.0
1676923735.4522333,968.26171875,-723.14453125,-658.203125,82.51953125,0.0
1676923735.4559882,967.7734375,-430.6640625,-330.078125,82.03125,0.0
1676923735.459743,968.26171875,-500.0,-343.75,69.82421875,0.0
1676923735.4634976,966.796875,-871.09375,-606.93359375,82.51953125,0.0
1676923735.4672523,967.7734375,-780.76171875,-519.04296875,108.88671875,0.0
1676923735.471007,968.75,-389.6484375,-218.75,94.23828125,0.0
1676923735.474762,923.828125,-455.078125,-255.37109375,88.37890625,0.0
1676923735.4785166,865.72265625,-861.328125,-698.73046875,102.5390625,0.0
1676923735.4822712,880.859375,-659.66796875,-556.640625,102.5390625,0.0
1676923735.486026,929.19921875,-216.796875,-73.2421875,100.5859375,0.0
1676923735.4897947,845.703125,-462.890625,-251.46484375,90.33203125,0.0
1676923735.4935632,843.75,-576.66015625,-351.5625,101.07421875,0.0
1676923735.4973319,954.1015625,-275.87890625,-116.69921875,120.1171875,0.0
1676923735.5011005,954.58984375,-366.2109375,-162.109375,136.23046875,0.0
1676923735.504869,894.53125,-691.40625,-436.5234375,150.390625,0.0
1676923735.5086377,856.93359375,-855.46875,-584.9609375,150.87890625,0.0
1676923735.5124063,916.50390625,-517.08984375,-342.7734375,116.69921875,0.0
1676923735.5161748,973.14453125,-69.82421875,-17.578125,87.40234375,0.0
1676923735.5199435,969.23828125,-480.46875,-374.0234375,88.37890625,0.0
1676923735.5237122,950.68359375,-798.33984375,-695.80078125,89.35546875,0.0
1676923735.5274806,944.82421875,-217.28515625,-247.0703125,87.40234375,0.0
1676923735.5312493,969.7265625,-89.35546875,-159.1796875,115.234375,0.0
1676923735.534992,967.7734375,-293.45703125,-323.73046875,128.90625,0.0
1676923735.538735,967.28515625,-274.90234375,-330.078125,129.39453125,0.0
1676923735.5424776,968.26171875,-143.06640625,-246.09375,159.66796875,0.0
1676923735.5462203,961.9140625,-235.83984375,-308.10546875,231.4453125,0.0
1676923735.549963,979.00390625,-460.44921875,-460.9375,287.59765625,0.0
1676923735.5537057,890.13671875,-650.87890625,-585.44921875,261.23046875,0.0
1676923735.5574486,726.07421875,-705.078125,-620.1171875,217.7734375,0.0
1676923735.5611913,670.8984375,-628.41796875,-479.00390625,203.125,0.0
1676923735.564934,587.890625,-885.7421875,-777.83203125,221.6796875,0.0
1676923735.568677,414.0625,-827.63671875,-788.57421875,188.4765625,0.0
1676923735.5724196,324.21875,-347.16796875,-236.81640625,112.79296875,0.0
1676923735.5761623,344.7265625,-470.21484375,-283.69140625,101.5625,0.0
1676923735.579907,362.79296875,-554.6875,-321.77734375,107.91015625,0.0
1676923735.5836518,310.05859375,-296.875,-101.07421875,61.5234375,0.0
1676923735.5873964,252.9296875,-199.70703125,-19.53125,-1.953125,0.0
1676923735.5911412,271.484375,-431.15234375,-180.17578125,-22.4609375,0.0
1676923735.5948858,342.7734375,-498.046875,-208.49609375,11.71875,0.0
1676923735.5986304,352.5390625,-466.30859375,-142.578125,33.203125,0.0
1676923735.6023753,260.25390625,-370.60546875,-32.2265625,-5.37109375,0.0
1676923735.6061199,236.328125,-511.71875,-144.53125,-16.11328125,0.0
1676923735.6098647,319.82421875,-778.3203125,-352.05078125,-2.44140625,0.0
1676923735.6136093,355.46875,-349.609375,49.31640625,-10.25390625,0.0
1676923735.6173542,338.37890625,-35.15625,315.4296875,-43.9453125,0.0
1676923735.6210988,363.28125,-278.3203125,107.421875,-87.40234375,0.0
1676923735.624849,449.21875,-282.71484375,103.02734375,-94.7265625,0.0
1676923735.6285992,542.48046875,169.921875,463.37890625,-106.93359375,0.0
1676923735.6323495,525.390625,129.8828125,423.33984375,-165.52734375,0.0
1676923735.6360998,462.40234375,-20.01953125,288.57421875,-245.60546875,0.0
1676923735.6398501,465.33203125,19.04296875,298.33984375,-295.41015625,0.0
1676923735.6436005,530.76171875,-55.17578125,249.51171875,-310.05859375,0.0
1676923735.6473505,504.8828125,-166.9921875,161.62109375,-381.8359375,0.0
1676923735.6511009,463.37890625,-555.17578125,-167.96875,-522.94921875,0.0
1676923735.6548512,511.71875,-407.2265625,-82.03125,-638.671875,0.0
1676923735.6586013,579.1015625,163.0859375,336.9140625,-695.80078125,0.0
1676923735.6623516,572.75390625,-17.578125,194.3359375,-777.34375,0.0
1676923735.666102,460.44921875,-242.1875,30.76171875,-838.37890625,0.0
1676923735.6699286,396.484375,-271.97265625,-1.953125,-863.76953125,0.0
1676923735.6737552,435.05859375,-6.8359375,210.9375,-931.15234375,0.0
1676923735.677582,430.17578125,-166.015625,121.58203125,-972.16796875,0.0
1676923735.6814086,301.7578125,-452.1484375,-86.42578125,-989.74609375,0.0
1676923735.6852353,224.609375,-128.41796875,179.6875,-999.51171875,0.0
1676923735.689062,236.81640625,-162.59765625,193.359375,-1000.0,0.0
1676923735.6928887,255.37109375,-552.24609375,-62.98828125,-976.5625,0.0
1676923735.6967154,205.56640625,-738.76953125,-227.05078125,-949.70703125,0.0
1676923735.700542,146.97265625,-190.91796875,173.828125,-942.87109375,0.0
1676923735.7043686,188.96484375,-11.23046875,338.37890625,-870.1171875,0.0
1676923735.7081954,229.4921875,-222.65625,207.03125,-792.96875,0.0
1676923735.712022,104.4921875,-187.98828125,251.46484375,-763.671875,0.0
1676923735.7156954,-43.9453125,-22.4609375,380.37109375,-751.953125,0.0
1676923735.7193685,-35.64453125,-61.5234375,343.75,-711.42578125,0.0
1676923735.7230418,23.4375,-262.20703125,213.37890625,-682.6171875,0.0
1676923735.726715,-5.37109375,-341.30859375,189.453125,-658.203125,0.0
1676923735.7303882,-78.125,-193.359375,302.734375,-626.953125,0.0
1676923735.7340615,-70.80078125,-176.26953125,350.5859375,-609.86328125,0.0
1676923735.7377348,24.4140625,-739.2578125,-120.60546875,-566.40625,0.0
1676923735.7414079,62.01171875,-751.953125,-174.31640625,-581.54296875,0.0
1676923735.7450812,-2.9296875,23.4375,480.46875,-660.15625,0.0
1676923735.7487545,-45.41015625,-7.8125,437.5,-691.40625,0.0
1676923735.7524276,-15.625,-234.375,240.72265625,-652.83203125,0.0
1676923735.756101,-4.39453125,-20.99609375,395.01953125,-586.42578125,0.0
1676923735.7598598,-133.7890625,48.33984375,462.40234375,-556.15234375,0.0
1676923735.7636187,-198.73046875,-239.2578125,231.4453125,-545.8984375,0.0
1676923735.7673774,-89.35546875,-346.6796875,127.9296875,-517.578125,0.0
1676923735.7711363,-49.31640625,-81.0546875,338.8671875,-439.453125,0.0
1676923735.7748952,-138.671875,-15.13671875,416.50390625,-343.75,0.0
1676923735.778654,-262.6953125,-530.2734375,12.6953125,-297.8515625,0.0
1676923735.782413,-308.10546875,-924.31640625,-313.4765625,-290.0390625,0.0
1676923735.786172,-279.296875,-498.046875,73.73046875,-258.30078125,0.0
1676923735.7899308,-242.67578125,-82.03125,430.6640625,-204.1015625,0.0
1676923735.7936895,-323.73046875,-529.296875,81.54296875,-172.8515625,0.0
1676923735.7974484,-347.65625,-777.34375,-101.07421875,-149.90234375,0.0
1676923735.8012073,-207.03125,-181.640625,395.01953125,-95.703125,0.0
1676923735.8061981,-120.60546875,-80.56640625,496.58203125,-87.40234375,0.0
1676923735.8111892,-159.66796875,-304.6875,336.42578125,-130.37109375,0.0
1676923735.8161802,-251.953125,-259.27734375,364.2578125,-167.48046875,0.0
1676923735.821171,-238.76953125,-121.09375,498.53515625,-167.48046875,0.0
1676923735.8261619,-153.3203125,-162.59765625,500.0,-133.7890625,0.0
1676923735.831153,-160.64453125,-516.11328125,238.28125,-150.390625,0.0
1676923735.836144,-223.14453125,-569.3359375,178.22265625,-196.77734375,0.0
1676923735.8411348,-200.68359375,-161.62109375,480.46875,-217.28515625,0.0
1676923735.8461256,-88.8671875,-191.40625,490.72265625,-190.91796875,0.0
1676923735.8511167,-70.3125,-731.4453125,10.7421875,-158.69140625,0.0
1676923735.8561077,-128.41796875,-559.5703125,119.62890625,-218.75,0.0
1676923735.8610985,-0.48828125,-57.12890625,532.71484375,-231.4453125,0.0
1676923735.864836,185.546875,-313.96484375,297.36328125,-160.64453125,0.0
1676923735.8685737,255.37109375,-546.38671875,121.09375,-122.0703125,0.0
1676923735.872311,250.9765625,-290.0390625,304.19921875,-125.0,0.0
1676923735.8760488,294.921875,-139.16015625,407.2265625,-135.7421875,0.0
1676923735.8797863,418.45703125,-377.9296875,225.09765625,-81.0546875,0.0
1676923735.883524,503.90625,-711.9140625,-18.06640625,10.7421875,0.0
1676923735.8872614,521.97265625,-570.80078125,101.5625,45.41015625,0.0
1676923735.8909988,557.6171875,-212.40234375,394.04296875,55.17578125,0.0
1676923735.8947365,634.765625,-558.10546875,72.75390625,107.421875,0.0
1676923735.898474,721.19140625,-834.9609375,-195.80078125,178.22265625,0.0
1676923735.9022117,749.0234375,-264.16015625,354.98046875,207.51953125,0.0
1676923735.905949,707.51953125,-119.140625,511.71875,198.73046875,0.0
1676923735.909689,714.84375,-521.97265625,210.9375,192.3828125,0.0
1676923735.9134285,803.22265625,-541.50390625,210.44921875,237.3046875,0.0
1676923735.9171684,841.30859375,-108.3984375,553.22265625,292.48046875,0.0
1676923735.9209082,763.18359375,-190.91796875,481.93359375,294.43359375,0.0
1676923735.9246478,718.26171875,-530.76171875,216.30859375,281.73828125,0.0
1676923735.9283876,760.25390625,-661.62109375,118.65234375,312.98828125,0.0
1676923735.9321275,758.7890625,-530.76171875,213.8671875,349.12109375,0.0
1676923735.935867,674.31640625,-403.3203125,306.640625,364.74609375,0.0
1676923735.939607,665.52734375,-788.57421875,-104.4921875,386.71875,0.0
1676923735.9433467,801.7578125,-629.39453125,32.2265625,416.015625,0.0
1676923735.9470863,953.61328125,-80.078125,569.3359375,489.74609375,0.0
1676923735.9508262,946.77734375,-249.0234375,419.43359375,533.69140625,0.0
1676923735.9546025,860.3515625,-432.12890625,258.30078125,510.7421875,0.0
1676923735.9583788,848.6328125,-179.6875,440.91796875,507.32421875,0.0
1676923735.962155,872.0703125,-102.05078125,517.08984375,527.34375,0.0
1676923735.9659314,830.56640625,-561.03515625,176.26953125,534.66796875,0.0
1676923735.9697077,739.2578125,-719.23828125,31.73828125,500.9765625,0.0
1676923735.973484,692.3828125,-461.9140625,221.6796875,454.1015625,0.0
1676923735.97726,719.23828125,-427.734375,277.34375,457.03125,0.0
1676923735.9810364,713.37890625,-677.734375,51.26953125,466.30859375,0.0
1676923735.9848127,593.75,-807.6171875,-124.51171875,400.390625,0.0
1676923735.988589,535.15625,-249.51171875,353.02734375,322.75390625,0.0
1676923735.9923654,599.12109375,-56.15234375,539.0625,317.3828125,0.0
1676923735.9961417,637.20703125,-246.58203125,398.4375,311.03515625,0.0
1676923735.9998853,569.3359375,-271.484375,396.97265625,271.484375,0.0
1676923736.0036287,506.34765625,-125.0,497.0703125,228.02734375,0.0
1676923736.0073724,548.828125,-157.71484375,455.56640625,235.3515625,0.0
1676923736.011116,613.28125,-313.4765625,335.44921875,276.85546875,0.0
1676923736.0148597,560.546875,-272.4609375,361.81640625,277.83203125,0.0
1676923736.0186033,469.7265625,-424.31640625,229.00390625,250.9765625,0.0
1676923736.0223467,489.2578125,-581.54296875,149.90234375,261.71875,0.0
1676923736.0260904,541.015625,-873.046875,-226.5625,299.31640625,0.0
1676923736.029834,510.25390625,-791.015625,-257.8125,293.45703125,0.0
1676923736.0335774,444.82421875,-165.0390625,416.015625,266.6015625,0.0
1676923736.037321,430.6640625,-290.52734375,351.07421875,254.39453125,0.0
1676923736.0410647,472.16796875,-437.5,241.69921875,242.67578125,0.0
1676923736.0448182,471.6796875,-169.43359375,462.890625,232.91015625,0.0
1676923736.0485716,382.32421875,-103.02734375,503.90625,199.70703125,0.0
1676923736.0523248,337.890625,-388.18359375,275.390625,166.015625,0.0
1676923736.0560782,389.16015625,-469.7265625,231.4453125,146.97265625,0.0
1676923736.0598316,441.40625,-182.12890625,462.40234375,137.6953125,0.0
1676923736.0635848,406.73828125,-325.68359375,377.44140625,104.98046875,0.0
1676923736.0673382,367.1875,-767.578125,-4.8828125,40.0390625,0.0
1676923736.0710917,414.0625,-788.0859375,-119.140625,4.8828125,0.0
1676923736.074845,507.8125,-270.5078125,342.28515625,-10.7421875,0.0
1676923736.0785985,490.72265625,-304.6875,353.515625,-49.31640625,0.0
1676923736.0823517,409.1796875,-718.26171875,-9.765625,-114.2578125,0.0
1676923736.086105,425.29296875,-567.3828125,78.125,-155.76171875,0.0
1676923736.0898511,498.53515625,-72.75390625,444.82421875,-162.59765625,0.0
1676923736.0935974,438.4765625,-133.7890625,399.4140625,-195.80078125,0.0
1676923736.0973434,346.19140625,-370.1171875,191.89453125,-248.53515625,0.0
1676923736.1010895,444.82421875,-237.3046875,257.8125,-258.30078125,0.0
1676923736.1048357,575.68359375,-131.8359375,317.3828125,-232.421875,0.0
1676923736.1085818,646.484375,-351.07421875,178.7109375,-206.54296875,0.0
1676923736.1123278,568.84765625,-798.828125,-312.01171875,-237.79296875,0.0
1676923736.116074,450.68359375,-641.6015625,-259.27734375,-339.35546875,0.0
1676923736.11982,505.859375,-76.66015625,313.96484375,-374.0234375,0.0
1676923736.1235662,571.2890625,-191.40625,233.3984375,-333.984375,0.0
1676923736.1273124,494.140625,-304.6875,148.4375,-369.140625,0.0
1676923736.1310585,413.57421875,-187.01171875,241.69921875,-423.33984375,0.0
1676923736.1349087,420.41015625,-231.4453125,209.9609375,-453.61328125,0.0
1676923736.138759,456.0546875,-380.859375,114.2578125,-473.14453125,0.0
1676923736.1426091,398.92578125,-529.78515625,7.8125,-483.88671875,0.0
1676923736.1464596,315.4296875,-197.265625,244.140625,-518.5546875,0.0
1676923736.1503098,317.87109375,-3.41796875,422.36328125,-544.43359375,0.0
1676923736.15416,357.421875,-463.37890625,125.0,-520.01953125,0.0
1676923736.1580102,342.28515625,-651.3671875,-9.765625,-500.48828125,0.0
1676923736.1618605,259.765625,-150.87890625,356.93359375,-538.0859375,0.0
1676923736.165711,218.26171875,27.83203125,487.3046875,-548.828125,0.0
1676923736.1695611,257.32421875,-410.64453125,167.48046875,-517.08984375,0.0
1676923736.1734114,278.80859375,-476.07421875,146.97265625,-503.41796875,0.0
1676923736.1772616,222.65625,14.6484375,542.48046875,-526.85546875,0.0
1676923736.182199,199.70703125,-47.36328125,494.140625,-522.94921875,0.0
1676923736.1871362,236.328125,-181.640625,404.296875,-479.4921875,0.0
1676923736.1920736,256.34765625,-124.51171875,480.46875,-423.33984375,0.0
1676923736.1970108,206.54296875,-207.03125,428.22265625,-404.78515625,0.0
1676923736.2019482,150.390625,-107.91015625,509.765625,-402.34375,0.0
1676923736.2068853,160.15625,-587.40234375,75.68359375,-344.23828125,0.0
1676923736.2118227,228.515625,-739.2578125,-66.40625,-317.87109375,0.0
1676923736.2167602,241.69921875,14.6484375,610.3515625,-325.68359375,0.0
1676923736.2216973,185.05859375,-17.578125,583.0078125,-336.42578125,0.0
1676923736.2266347,210.9375,-235.3515625,394.04296875,-347.16796875,0.0
1676923736.231572,303.7109375,-12.20703125,554.6875,-333.0078125,0.0
1676923736.2365093,379.39453125,208.0078125,716.796875,-323.73046875,0.0
1676923736.240226,384.765625,-16.6015625,552.734375,-351.07421875,0.0
1676923736.2439427,392.08984375,-167.48046875,408.203125,-350.09765625,0.0
1676923736.2476594,480.95703125,96.19140625,590.8203125,-317.3828125,0.0
1676923736.2513762,563.4765625,223.14453125,684.08203125,-302.24609375,0.0
1676923736.2550929,552.734375,-29.296875,472.16796875,-307.6171875,0.0
1676923736.2588096,542.48046875,-320.80078125,238.28125,-336.9140625,0.0
1676923736.262526,627.9296875,-241.69921875,293.9453125,-341.30859375,0.0
1676923736.2662427,710.44921875,62.01171875,512.6953125,-325.1953125,0.0
1676923736.2699594,681.15234375,-110.83984375,360.3515625,-340.33203125,0.0
1676923736.2736762,611.328125,-857.91015625,-251.46484375,-385.25390625,0.0
1676923736.2773929,667.96875,-325.68359375,145.5078125,-405.76171875,0.0
1676923736.2811096,782.2265625,364.2578125,686.03515625,-365.234375,0.0
1676923736.2848542,801.26953125,208.49609375,548.33984375,-361.328125,0.0
1676923736.288599,746.58203125,236.81640625,563.96484375,-401.3671875,0.0
1676923736.2923436,737.3046875,404.78515625,687.01171875,-432.12890625,0.0
1676923736.2960882,793.9453125,321.2890625,621.58203125,-447.75390625,0.0
1676923736.2998328,814.453125,169.921875,519.04296875,-428.7109375,0.0
1676923736.3035774,743.1640625,6.8359375,395.99609375,-377.9296875,0.0
1676923736.3073223,701.171875,59.5703125,441.40625,-332.03125,0.0
1676923736.3110669,763.18359375,346.19140625,668.45703125,-283.69140625,0.0
1676923736.3148115,802.24609375,-236.328125,246.09375,-204.1015625,0.0
1676923736.3185563,727.5390625,-403.3203125,133.7890625,-173.828125,0.0
1676923736.322301,694.82421875,335.9375,724.12109375,-174.31640625,0.0
1676923736.3260455,750.9765625,306.640625,721.19140625,-136.23046875,0.0
1676923736.329775,791.9921875,-20.01953125,495.1171875,-107.421875,0.0
1676923736.3335047,761.71875,236.81640625,698.73046875,-132.32421875,0.0
1676923736.3372343,697.75390625,464.35546875,864.74609375,-174.8046875,0.0
1676923736.3409638,708.984375,274.4140625,731.93359375,-166.015625,0.0
1676923736.3446934,772.4609375,199.21875,688.96484375,-114.2578125,0.0
1676923736.348423,787.109375,146.97265625,641.11328125,-81.54296875,0.0
1676923736.3521528,755.37109375,186.5234375,637.20703125,-104.4921875,0.0
1676923736.3558824,788.0859375,1.46484375,479.4921875,-92.28515625,0.0
1676923736.359612,867.67578125,-296.38671875,235.83984375,-62.01171875,0.0
1676923736.3633416,955.56640625,331.0546875,706.54296875,-54.19921875,0.0
1676923736.3670712,953.125,563.4765625,882.8125,-22.4609375,0.0
1676923736.3708007,914.0625,257.8125,642.578125,7.8125,0.0
1676923736.3758326,944.3359375,133.7890625,562.98828125,59.08203125,0.0
1676923736.3808644,974.12109375,452.1484375,811.5234375,128.41796875,0.0
1676923736.3858962,956.0546875,529.78515625,874.51171875,163.57421875,0.0
1676923736.390928,896.97265625,115.234375,566.89453125,170.8984375,0.0
1676923736.3959599,925.29296875,168.9453125,637.20703125,216.30859375,0.0
1676923736.400992,952.63671875,324.21875,806.640625,251.953125,0.0
1676923736.4060237,870.60546875,239.74609375,758.30078125,239.2578125,0.0
1676923736.4110556,787.109375,-172.36328125,448.2421875,232.91015625,0.0
1676923736.4160874,766.6015625,-36.62109375,565.4296875,226.5625,0.0
1676923736.4211192,785.64453125,603.02734375,-975.09765625,257.32421875,0.0
1676923736.426151,715.33203125,432.12890625,918.45703125,296.38671875,0.0
1676923736.4311829,531.73828125,248.53515625,859.375,277.34375,0.0
1676923736.4336843,449.70703125,410.64453125,951.171875,263.18359375,0.0
1676923736.436186,450.1953125,557.12890625,-994.62890625,288.0859375,0.0
1676923736.4386878,393.5546875,275.87890625,853.515625,327.63671875,0.0
1676923736.4411893,340.33203125,-7.8125,708.0078125,320.3125,0.0
1676923736.4436908,315.4296875,237.79296875,873.046875,297.36328125,0.0
1676923736.4461925,374.51171875,208.0078125,861.81640625,328.125,0.0
1676923736.4486942,494.140625,-196.77734375,568.359375,383.7890625,0.0
1676923736.4511957,538.0859375,-241.69921875,535.64453125,390.625,0.0
1676923736.4536972,544.43359375,238.76953125,874.51171875,359.86328125,0.0
1676923736.456199,650.390625,478.02734375,-962.890625,382.8125,0.0
1676923736.4587007,781.73828125,-93.26171875,596.6796875,444.3359375,0.0
1676923736.4612021,813.96484375,-423.828125,320.80078125,460.44921875,0.0
1676923736.4649444,786.62109375,204.1015625,770.01953125,451.171875,0.0
1676923736.4686863,806.640625,252.44140625,775.87890625,458.49609375,0.0
1676923736.4724283,856.93359375,56.640625,600.5859375,493.1640625,0.0
1676923736.4761705,849.12109375,100.09765625,594.23828125,524.90234375,0.0
1676923736.4799128,836.42578125,138.18359375,573.73046875,531.25,0.0
1676923736.4836547,876.953125,-56.640625,405.2734375,555.17578125,0.0
1676923736.4873967,941.89453125,-668.9453125,-120.60546875,563.4765625,0.0
1676923736.491139,969.23828125,-609.375,-125.48828125,563.4765625,0.0
1676923736.4948812,965.8203125,192.87109375,490.234375,543.9453125,0.0
1676923736.4986231,967.7734375,75.1953125,369.140625,534.1796875,0.0
1676923736.502365,966.796875,-196.77734375,159.66796875,555.6640625,0.0
1676923736.5061073,966.796875,72.265625,371.09375,554.6875,0.0
1676923736.5098634,966.30859375,270.99609375,516.11328125,551.26953125,0.0
1676923736.5136194,901.3671875,1.953125,311.5234375,566.89453125,0.0
1676923736.5173752,833.0078125,-146.484375,198.2421875,563.4765625,0.0
1676923736.5211313,823.2421875,82.51953125,390.625,569.82421875,0.0
1676923736.5248873,768.06640625,195.3125,494.62890625,571.2890625,0.0
1676923736.5286431,665.0390625,-270.99609375,170.41015625,550.29296875,0.0
1676923736.5323992,611.81640625,-622.55859375,-91.30859375,522.94921875,0.0
1676923736.5361552,641.6015625,-9.765625,366.2109375,492.67578125,0.0
1676923736.5399113,642.08984375,332.03125,652.83203125,487.79296875,0.0
1676923736.5436673,573.2421875,-246.58203125,220.703125,457.03125,0.0
1676923736.5474231,532.2265625,-418.9453125,57.6171875,392.08984375,0.0
1676923736.5511792,550.78125,253.90625,552.734375,353.515625,0.0
1676923736.5561733,550.29296875,329.58984375,606.4453125,369.140625,0.0
1676923736.5611675,470.21484375,50.29296875,368.1640625,341.30859375,0.0
1676923736.5661616,410.15625,51.7578125,338.8671875,280.76171875,0.0
1676923736.5711555,430.6640625,244.62890625,459.47265625,257.8125,0.0
1676923736.5761497,461.42578125,215.33203125,419.43359375,247.0703125,0.0
1676923736.5811439,417.96875,-145.01953125,149.4140625,197.265625,0.0
1676923736.586138,337.40234375,-225.5859375,81.54296875,117.67578125,0.0
1676923736.5911322,322.265625,145.01953125,312.98828125,61.03515625,0.0
1676923736.596126,330.56640625,113.28125,269.04296875,27.83203125,0.0
1676923736.6011202,279.296875,-273.4375,-21.97265625,-16.11328125,0.0
1676923736.6061144,211.9140625,-99.12109375,94.7265625,-90.33203125,0.0
1676923736.6111085,217.28515625,158.203125,292.48046875,-130.37109375,0.0
1676923736.614858,260.25390625,-188.96484375,31.73828125,-136.23046875,0.0
1676923736.618607,245.60546875,-476.07421875,-201.171875,-176.7578125,0.0
1676923736.6223564,172.8515625,-99.609375,58.59375,-245.60546875,0.0
1676923736.6261058,141.6015625,163.57421875,242.1875,-283.69140625,0.0
1676923736.629855,164.0625,-86.42578125,57.12890625,-292.96875,0.0
1676923736.6336043,170.41015625,-401.3671875,-164.0625,-289.55078125,0.0
1676923736.6373537,118.1640625,-274.90234375,-61.03515625,-314.94140625,0.0
1676923736.6411028,68.84765625,89.84375,202.63671875,-360.3515625,0.0
1676923736.6448522,62.01171875,-366.69921875,-155.76171875,-359.86328125,0.0
1676923736.6486015,73.2421875,-740.234375,-453.61328125,-358.88671875,0.0
1676923736.6523507,71.2890625,-87.890625,40.52734375,-392.08984375,0.0
1676923736.6561,25.87890625,36.62109375,106.4453125,-411.62109375,0.0
1676923736.659847,26.3671875,-248.53515625,-152.83203125,-423.828125,0.0
1676923736.6635942,55.17578125,-152.83203125,-104.00390625,-412.59765625,0.0
1676923736.6673412,37.109375,-58.10546875,-28.3203125,-392.08984375,0.0
1676923736.6710882,6.34765625,-357.421875,-257.32421875,-394.53125,0.0
1676923736.6748354,5.859375,-673.828125,-543.9453125,-413.0859375,0.0
1676923736.6785824,22.4609375,-751.953125,-608.88671875,-408.203125,0.0
1676923736.6823294,52.24609375,-435.546875,-373.53515625,-384.27734375,0.0
1676923736.6860766,57.12890625,-265.625,-244.140625,-383.30078125,0.0
1676923736.6898236,42.96875,-743.1640625,-676.7578125,-381.8359375,0.0
1676923736.6935706,100.5859375,-608.88671875,-613.28125,-361.328125,0.0
1676923736.6973178,188.96484375,-70.80078125,-146.484375,-326.171875,0.0
1676923736.7010648,213.8671875,-274.90234375,-312.5,-318.359375,0.0
1676923736.7048187,218.75,-488.76953125,-467.7734375,-335.9375,0.0
1676923736.7085726,274.4140625,-271.484375,-303.7109375,-331.0546875,0.0
1676923736.7123265,349.609375,-136.71875,-210.44921875,-295.41015625,0.0
1676923736.7160804,325.68359375,-360.83984375,-362.79296875,-282.2265625,0.0
1676923736.7198343,267.08984375,-486.328125,-446.77734375,-284.66796875,0.0
1676923736.7235882,270.5078125,-499.51171875,-455.56640625,-273.4375,0.0
1676923736.7273421,327.63671875,-513.18359375,-445.80078125,-258.30078125,0.0
1676923736.731096,344.7265625,-709.47265625,-611.81640625,-242.1875,0.0
1676923736.73485,321.2890625,-710.9375,-633.7890625,-261.23046875,0.0
1676923736.7386038,363.28125,-187.01171875,-234.375,-279.78515625,0.0
1676923736.7423577,442.87109375,-35.64453125,-130.859375,-253.41796875,0.0
1676923736.7461116,468.26171875,-470.703125,-468.75,-246.58203125,0.0
1676923736.749854,416.015625,-615.234375,-606.93359375,-277.34375,0.0
1676923736.7535963,396.97265625,-131.34765625,-246.09375,-303.22265625,0.0
1676923736.7573388,447.265625,-18.06640625,-166.50390625,-291.9921875,0.0
1676923736.761081,460.9375,-532.2265625,-568.84765625,-264.6484375,0.0
1676923736.7648234,422.36328125,-575.68359375,-593.75,-279.78515625,0.0
1676923736.7685657,407.2265625,-312.5,-395.01953125,-303.22265625,0.0
1676923736.772308,409.1796875,-418.9453125,-478.02734375,-286.62109375,0.0
1676923736.7760506,411.1328125,-689.453125,-721.6796875,-255.859375,0.0
1676923736.7797928,360.83984375,-626.953125,-677.734375,-270.01953125,0.0
1676923736.7835352,294.43359375,-247.0703125,-345.703125,-303.7109375,0.0
1676923736.7872775,290.0390625,-289.55078125,-377.44140625,-317.87109375,0.0
1676923736.79102,280.2734375,-468.75,-527.34375,-322.265625,0.0
1676923736.794781,253.90625,-228.02734375,-360.3515625,-330.56640625,0.0
1676923736.798542,206.54296875,16.11328125,-153.80859375,-344.7265625,0.0
1676923736.8023033,195.80078125,-312.98828125,-416.9921875,-340.33203125,0.0
1676923736.8060644,233.88671875,-447.75390625,-551.7578125,-329.58984375,0.0
1676923736.8098254,199.70703125,-169.43359375,-339.35546875,-323.73046875,0.0
1676923736.8135867,66.89453125,-349.609375,-454.58984375,-318.359375,0.0
1676923736.8173478,-30.76171875,-761.71875,-775.87890625,-307.12890625,0.0
1676923736.8211088,-66.89453125,-802.734375,-829.1015625,-292.96875,0.0
1676923736.8248699,-75.1953125,-232.421875,-339.35546875,-270.5078125,0.0
1676923736.828631,-129.8828125,-32.2265625,-151.3671875,-252.44140625,0.0
1676923736.8323922,-227.05078125,-278.3203125,-333.0078125,-280.2734375,0.0
1676923736.8361533,-215.8203125,-282.71484375,-296.875,-306.15234375,0.0
1676923736.843695,-133.7890625,-244.140625,-245.60546875,-323.2421875,0.0
1676923736.8512363,-108.88671875,-128.90625,-157.2265625,-348.14453125,0.0
1676923736.858778,-130.37109375,-359.86328125,-322.265625,-368.65234375,0.0
1676923736.8663194,-132.8125,-320.80078125,-287.59765625,-402.83203125,0.0
1676923736.873861,-76.66015625,58.10546875,29.296875,-382.8125,0.0
1676923736.8814025,-46.875,-211.9140625,-150.87890625,-334.9609375,0.0
1676923736.8889441,-112.3046875,-401.3671875,-291.50390625,-353.02734375,0.0
1676923736.8964858,-83.49609375,-166.015625,-144.53125,-336.9140625,0.0
1676923736.9040272,17.08984375,83.49609375,27.34375,-263.18359375,0.0
1676923736.9115689,35.64453125,-23.92578125,-15.625,-180.6640625,0.0
1676923736.9191103,-78.61328125,-475.09765625,-367.1875,-137.6953125,0.0
1676923736.926652,-113.28125,-281.25,-254.39453125,-135.25390625,0.0
1676923736.9278598,32.71484375,101.5625,40.0390625,-98.6328125,0.0
1676923736.9290676,62.5,-134.27734375,-146.484375,-45.8984375,0.0
1676923736.9302752,-82.03125,-352.05078125,-310.546875,-24.90234375,0.0
1676923736.931483,-79.58984375,-340.8203125,-320.3125,-39.55078125,0.0
1676923736.9326909,59.5703125,-170.8984375,-202.1484375,-33.69140625,0.0
1676923736.9338984,168.9453125,-492.1875,-432.6171875,17.578125,0.0
1676923736.9351063,198.73046875,-708.0078125,-611.81640625,44.43359375,0.0
1676923736.936314,202.63671875,-152.34375,-187.98828125,45.8984375,0.0
1676923736.937522,260.25390625,45.8984375,-34.66796875,57.6171875,0.0
1676923736.9387298,359.86328125,-312.5,-327.63671875,97.65625,0.0
1676923736.9399374,447.265625,-385.25390625,-398.92578125,125.9765625,0.0
1676923736.9411452,451.171875,-48.33984375,-154.78515625,118.65234375,0.0
1676923736.9448924,447.265625,-58.59375,-157.71484375,115.72265625,0.0
1676923736.9486399,514.6484375,-545.41015625,-532.71484375,141.6015625,0.0
1676923736.952387,591.796875,-571.77734375,-566.40625,164.0625,0.0
1676923736.9561343,602.5390625,-103.515625,-211.42578125,151.85546875,0.0
1676923736.9598818,593.26171875,-89.84375,-188.4765625,142.08984375,0.0
1676923736.963629,645.5078125,-630.37109375,-658.203125,170.41015625,0.0
1676923736.9673762,688.4765625,-951.66015625,-946.2890625,185.05859375,0.0
1676923736.9711237,676.7578125,-496.09375,-543.45703125,160.64453125,0.0
1676923736.974871,649.90234375,-184.5703125,-276.3671875,147.94921875,0.0
1676923736.9786181,659.66796875,-714.35546875,-730.95703125,168.9453125,0.0
1676923736.9823656,716.796875,-771.97265625,-795.41015625,175.78125,0.0
1676923736.9861128,749.0234375,-16.11328125,-148.4375,160.15625,0.0
1676923736.991113,691.89453125,-125.0,-222.16796875,141.6015625,0.0
1676923736.9961133,676.7578125,-266.11328125,-327.63671875,120.1171875,0.0
1676923737.0011134,718.26171875,-16.6015625,-138.671875,119.62890625,0.0
1676923737.0061135,750.9765625,37.59765625,-83.49609375,128.41796875,0.0
1676923737.0111136,712.40234375,-185.05859375,-238.28125,117.67578125,0.0
1676923737.0161138,655.2734375,-529.296875,-515.625,91.796875,0.0
1676923737.021114,679.6875,-350.09765625,-383.7890625,83.0078125,0.0
1676923737.0261142,728.02734375,89.84375,-40.52734375,110.83984375,0.0
1676923737.0311143,671.38671875,-357.91015625,-384.27734375,120.60546875,0.0
1676923737.0361147,580.078125,-838.8671875,-810.05859375,95.703125,0.0
1676923737.0411148,594.23828125,-229.4921875,-337.890625,80.078125,0.0
1676923737.046115,649.90234375,93.26171875,-36.62109375,104.00390625,0.0
1676923737.0486026,616.2109375,-489.74609375,-484.375,130.37109375,0.0
1676923737.05109,538.57421875,-670.41015625,-632.32421875,109.375,0.0
1676923737.0535777,535.15625,-93.26171875,-182.6171875,89.84375,0.0
1676923737.0560653,585.9375,-52.24609375,-144.53125,123.046875,0.0
1676923737.0585527,605.46875,-243.1640625,-270.99609375,151.85546875,0.0
1676923737.0610404,548.828125,-449.21875,-436.5234375,145.01953125,0.0
1676923737.063528,530.2734375,-357.91015625,-386.23046875,134.765625,0.0
1676923737.0660155,592.28515625,-180.17578125,-236.328125,166.015625,0.0
1676923737.0685031,636.23046875,-306.15234375,-331.54296875,200.68359375,0.0
1676923737.0709908,614.74609375,-195.3125,-276.85546875,201.171875,0.0
1676923737.0734782,589.84375,-36.62109375,-181.15234375,183.59375,0.0
1676923737.075966,624.51171875,-171.38671875,-243.1640625,201.171875,0.0
1676923737.0798268,660.15625,-822.75390625,-783.69140625,251.953125,0.0
1676923737.0836875,571.2890625,-698.73046875,-742.1875,214.84375,0.0
1676923737.0875485,494.140625,-41.9921875,-177.24609375,191.40625,0.0
1676923737.0914094,536.62109375,-229.98046875,-307.6171875,208.984375,0.0
1676923737.0952702,557.6171875,-369.62890625,-391.11328125,181.15234375,0.0
1676923737.099131,543.9453125,-349.12109375,-365.234375,159.1796875,0.0
1676923737.102992,506.34765625,-410.64453125,-435.546875,132.8125,0.0
1676923737.1068528,502.9296875,-664.55078125,-661.62109375,118.1640625,0.0
1676923737.1107137,542.96875,-752.9296875,-755.859375,109.375,0.0
1676923737.1145747,559.5703125,-189.94140625,-290.0390625,83.984375,0.0
1676923737.1184354,514.6484375,7.8125,-116.69921875,63.96484375,0.0
1676923737.1222963,500.48828125,-210.9375,-312.5,43.9453125,0.0
1676923737.12594,553.22265625,-207.03125,-326.171875,42.96875,0.0
1676923737.1295838,593.26171875,29.296875,-141.11328125,74.70703125,0.0
1676923737.1332276,560.546875,-47.36328125,-193.84765625,92.28515625,0.0
1676923737.1368713,498.046875,-285.64453125,-385.25390625,85.44921875,0.0
1676923737.140515,529.78515625,-174.31640625,-322.265625,88.8671875,0.0
1676923737.1441588,587.890625,-219.23828125,-348.6328125,111.328125,0.0
1676923737.1478026,541.50390625,-317.3828125,-406.25,116.2109375,0.0
1676923737.1514463,473.14453125,-707.03125,-736.81640625,101.07421875,0.0
1676923737.15509,503.41796875,-765.625,-830.078125,49.8046875,0.0
1676923737.1587338,579.58984375,16.6015625,-212.40234375,41.9921875,0.0
1676923737.1623776,556.15234375,-14.6484375,-224.12109375,84.47265625,0.0
1676923737.1660213,460.44921875,-241.2109375,-396.97265625,61.5234375,0.0
1676923737.169777,439.453125,-120.1171875,-291.50390625,29.78515625,0.0
1676923737.1735325,491.69921875,26.85546875,-180.17578125,39.0625,0.0
1676923737.177288,481.93359375,-110.3515625,-281.25,61.03515625,0.0
1676923737.1810436,419.921875,-211.9140625,-354.00390625,60.05859375,0.0
1676923737.1847992,416.9921875,21.484375,-179.6875,38.0859375,0.0
1676923737.1885548,458.49609375,-135.25390625,-284.66796875,46.875,0.0
1676923737.19231,469.23828125,-554.6875,-578.125,79.58984375,0.0
1676923737.1960657,406.73828125,-745.60546875,-745.1171875,58.10546875,0.0
1676923737.1998212,365.72265625,-148.4375,-291.9921875,18.06640625,0.0
1676923737.2035768,396.97265625,254.8828125,29.78515625,26.3671875,0.0
1676923737.2073324,409.66796875,-344.7265625,-434.5703125,54.19921875,0.0
1676923737.211088,370.1171875,-564.94140625,-620.1171875,36.62109375,0.0
1676923737.21484,354.00390625,66.89453125,-146.97265625,-5.37109375,0.0
1676923737.2185917,381.34765625,108.88671875,-113.28125,-6.8359375,0.0
1676923737.2223437,414.55078125,-92.28515625,-275.390625,3.90625,0.0
1676923737.2260957,409.66796875,-33.69140625,-221.19140625,7.32421875,0.0
1676923737.2298477,366.69921875,48.33984375,-158.203125,-13.671875,0.0
1676923737.2335997,352.5390625,-156.25,-321.2890625,-38.57421875,0.0
1676923737.2373514,371.09375,-684.5703125,-731.4453125,-28.80859375,0.0
1676923737.2411034,405.2734375,-505.37109375,-595.21484375,-33.69140625,0.0
1676923737.2448554,406.25,80.56640625,-137.6953125,-58.59375,0.0
1676923737.2486072,383.30078125,-227.5390625,-383.7890625,-64.453125,0.0
1676923737.2523592,415.0390625,-441.89453125,-564.94140625,-73.73046875,0.0
1676923737.2561111,457.03125,-68.359375,-284.66796875,-75.68359375,0.0
1676923737.2598672,438.4765625,230.95703125,-42.96875,-80.078125,0.0
1676923737.2636232,411.1328125,-41.9921875,-252.9296875,-86.9140625,0.0
1676923737.2673793,441.89453125,-190.91796875,-377.44140625,-90.8203125,0.0
1676923737.2711353,496.09375,90.8203125,-156.25,-83.984375,0.0
1676923737.2748914,467.7734375,144.04296875,-113.28125,-97.16796875,0.0
1676923737.2786474,406.25,-354.98046875,-485.83984375,-117.1875,0.0
1676923737.2824035,421.38671875,-662.59765625,-736.328125,-128.90625,0.0
1676923737.2861595,475.09765625,-105.95703125,-329.1015625,-140.625,0.0
1676923737.2899156,490.234375,130.859375,-138.671875,-129.39453125,0.0
1676923737.2936716,444.82421875,-191.40625,-393.06640625,-136.71875,0.0
1676923737.2974277,445.80078125,-214.35546875,-426.7578125,-158.203125,0.0
1676923737.3011837,507.32421875,26.85546875,-236.81640625,-151.3671875,0.0
1676923737.3050823,528.3203125,-130.859375,-339.84375,-122.0703125,0.0
1676923737.308981,471.6796875,-442.87109375,-563.96484375,-126.46484375,0.0
1676923737.3128796,460.44921875,-276.85546875,-457.03125,-146.484375,0.0
1676923737.3167782,503.90625,130.859375,-146.97265625,-147.4609375,0.0
1676923737.3206768,524.4140625,93.26171875,-153.3203125,-138.18359375,0.0
1676923737.3245754,483.88671875,-317.3828125,-473.14453125,-144.53125,0.0
1676923737.328474,425.29296875,-355.95703125,-514.6484375,-168.9453125,0.0
1676923737.3323727,454.1015625,40.52734375,-224.609375,-166.50390625,0.0
1676923737.3362713,506.34765625,29.78515625,-235.83984375,-153.80859375,0.0
1676923737.34017,476.07421875,-439.453125,-595.703125,-147.94921875,0.0
1676923737.3440685,433.10546875,-286.62109375,-496.09375,-158.69140625,0.0
1676923737.3479671,469.23828125,187.5,-130.859375,-155.2734375,0.0
1676923737.3528118,516.6015625,-9.765625,-266.6015625,-118.65234375,0.0
1676923737.3576567,505.37109375,-157.2265625,-383.7890625,-99.609375,0.0
1676923737.3625014,448.73046875,-13.671875,-264.16015625,-94.23828125,0.0
1676923737.3673463,419.921875,-150.87890625,-354.00390625,-89.84375,0.0
1676923737.372191,445.80078125,-446.77734375,-578.125,-72.75390625,0.0
1676923737.3770356,437.01171875,-839.35546875,-886.23046875,-44.43359375,0.0
1676923737.3818805,378.90625,-527.83203125,-646.97265625,-78.61328125,0.0
1676923737.3867252,361.328125,92.7734375,-148.92578125,-116.2109375,0.0
1676923737.39157,382.32421875,-272.94921875,-427.734375,-100.09765625,0.0
1676923737.3964148,416.50390625,-535.64453125,-630.37109375,-87.40234375,0.0
1676923737.4012597,404.296875,64.94140625,-177.734375,-102.5390625,0.0
1676923737.4061043,350.09765625,177.734375,-81.0546875,-109.86328125,0.0
1676923737.4098506,348.6328125,-107.91015625,-284.1796875,-119.140625,0.0
1676923737.4135966,388.671875,-93.75,-265.625,-111.81640625,0.0
1676923737.417343,392.08984375,142.578125,-70.80078125,-103.02734375,0.0
1676923737.4210892,328.61328125,67.87109375,-127.44140625,-114.2578125,0.0
1676923737.4248352,316.40625,-157.2265625,-304.6875,-123.53515625,0.0
1676923737.4285815,380.37109375,-289.55078125,-417.48046875,-111.81640625,0.0
1676923737.4323277,410.15625,-303.22265625,-443.359375,-107.91015625,0.0
1676923737.4360738,367.1875,-248.046875,-395.99609375,-135.7421875,0.0
1676923737.43982,329.58984375,-711.42578125,-763.18359375,-145.99609375,0.0
1676923737.4435663,383.30078125,-724.609375,-797.8515625,-145.5078125,0.0
1676923737.4473124,459.47265625,56.15234375,-186.5234375,-150.87890625,0.0
1676923737.4510586,438.4765625,3.41796875,-224.12109375,-143.06640625,0.0
1676923737.4548123,399.4140625,-175.29296875,-380.859375,-138.671875,0.0
1676923737.458566,432.12890625,27.34375,-235.83984375,-142.08984375,0.0
1676923737.4623194,487.79296875,128.41796875,-162.59765625,-115.234375,0.0
1676923737.466073,490.72265625,-110.3515625,-337.890625,-80.078125,0.0
1676923737.4698267,428.22265625,-217.28515625,-417.48046875,-85.44921875,0.0
1676923737.4735804,420.41015625,-211.9140625,-399.4140625,-92.7734375,0.0
1676923737.477334,484.375,-159.1796875,-363.76953125,-81.54296875,0.0
1676923737.4810877,489.74609375,-303.7109375,-486.328125,-62.5,0.0
1676923737.4848413,417.48046875,-541.50390625,-646.97265625,-75.1953125,0.0
1676923737.4885948,409.66796875,-261.23046875,-429.6875,-100.09765625,0.0
1676923737.4923484,462.40234375,46.38671875,-209.47265625,-85.9375,0.0
1676923737.496102,477.5390625,-334.9609375,-479.00390625,-47.8515625,0.0
1676923737.4998527,417.96875,-652.83203125,-718.75,-69.3359375,0.0
1676923737.5036032,396.97265625,0.48828125,-239.74609375,-106.4453125,0.0
1676923737.5073538,432.6171875,103.515625,-157.71484375,-98.14453125,0.0
1676923737.5111043,462.890625,-37.109375,-270.99609375,-77.63671875,0.0
1676923737.514855,446.2890625,-3.90625,-247.0703125,-66.89453125,0.0
1676923737.5186055,398.4375,-145.01953125,-339.35546875,-82.03125,0.0
1676923737.522356,412.109375,-254.39453125,-442.3828125,-91.796875,0.0
1676923737.5261066,452.1484375,-611.328125,-727.5390625,-63.96484375,0.0
1676923737.5298572,434.08203125,-461.42578125,-606.4453125,-60.05859375,0.0
1676923737.5336077,389.6484375,156.73828125,-132.8125,-78.125,0.0
1676923737.5373583,385.7421875,2.44140625,-248.046875,-86.42578125,0.0
1676923737.5411088,403.3203125,-212.890625,-405.2734375,-73.73046875,0.0
1676923737.5461178,400.390625,-196.77734375,-377.44140625,-65.4296875,0.0
1676923737.551127,353.02734375,43.45703125,-188.4765625,-89.35546875,0.0
1676923737.556136,309.5703125,-128.90625,-312.98828125,-85.9375,0.0
1676923737.561145,330.078125,-439.94140625,-551.26953125,-73.2421875,0.0
1676923737.566154,346.6796875,-146.484375,-329.1015625,-80.56640625,0.0
1676923737.5711632,287.59765625,-157.2265625,-313.4765625,-83.984375,0.0
1676923737.576172,247.0703125,-561.03515625,-604.4921875,-81.54296875,0.0
1676923737.581181,281.73828125,-724.12109375,-761.23046875,-74.70703125,0.0
1676923737.5861902,345.21484375,-137.20703125,-322.75390625,-68.84765625,0.0
1676923737.5911992,346.6796875,97.65625,-104.00390625,-55.17578125,0.0
1676923737.5962083,298.828125,-200.1953125,-336.9140625,-61.03515625,0.0
1676923737.6012173,311.03515625,-192.3828125,-354.98046875,-72.265625,0.0
1676923737.603719,353.515625,-48.33984375,-241.69921875,-59.5703125,0.0
1676923737.6062207,350.09765625,-61.5234375,-248.046875,-50.78125,0.0
1676923737.6087222,306.640625,-218.75,-362.79296875,-60.546875,0.0
1676923737.611224,312.98828125,-331.54296875,-437.98828125,-69.82421875,0.0
1676923737.6137257,383.7890625,-130.37109375,-287.59765625,-56.640625,0.0
1676923737.6162271,418.9453125,-188.4765625,-320.80078125,-33.69140625,0.0
1676923737.6187289,377.44140625,-713.8671875,-730.46875,-34.66796875,0.0
1676923737.6212306,375.0,-624.51171875,-681.640625,-60.05859375,0.0
1676923737.6237323,428.7109375,16.11328125,-188.96484375,-55.6640625,0.0
1676923737.626234,458.0078125,7.8125,-195.3125,-21.484375,0.0
1676923737.6287355,412.59765625,-605.95703125,-673.828125,-21.97265625,0.0
1676923737.6312373,379.39453125,-465.33203125,-576.171875,-52.734375,0.0
1676923737.634966,461.9140625,98.6328125,-137.20703125,-47.36328125,0.0
1676923737.6386943,522.94921875,-100.09765625,-285.15625,-15.625,0.0
1676923737.642423,489.74609375,-190.91796875,-350.09765625,-19.04296875,0.0
1676923737.6461515,441.40625,39.55078125,-184.5703125,-42.48046875,0.0
1676923737.6498802,435.05859375,77.63671875,-166.9921875,-54.19921875,0.0
1676923737.6536088,473.14453125,-381.8359375,-502.9296875,-24.4140625,0.0
1676923737.6573372,473.14453125,-776.85546875,-807.12890625,-9.27734375,0.0
1676923737.6610658,430.6640625,-327.1484375,-476.5625,-46.38671875,0.0
1676923737.6647944,448.2421875,161.1328125,-107.421875,-57.12890625,0.0
1676923737.6685228,478.02734375,-315.91796875,-460.9375,-7.8125,0.0
1676923737.6722515,473.6328125,-629.8828125,-693.84765625,16.6015625,0.0
1676923737.67598,434.08203125,-23.4375,-232.91015625,-12.6953125,0.0
1676923737.680991,397.4609375,58.10546875,-176.7578125,-22.94921875,0.0
1676923737.686002,421.875,-191.40625,-381.8359375,-27.34375,0.0
1676923737.6910129,450.68359375,-126.46484375,-336.9140625,-23.4375,0.0
1676923737.6960237,417.96875,-6.8359375,-235.83984375,-30.76171875,0.0
1676923737.7010348,378.41796875,-43.45703125,-256.34765625,-48.33984375,0.0
1676923737.7060456,399.4140625,-377.44140625,-514.6484375,-44.43359375,0.0
1676923737.7110565,424.31640625,-391.6015625,-523.4375,-38.0859375,0.0
1676923737.7160676,423.828125,17.08984375,-210.44921875,-40.0390625,0.0
1676923737.7210784,394.04296875,5.37109375,-187.98828125,-63.4765625,0.0
1676923737.7260892,404.296875,-677.24609375,-718.75,-66.40625,0.0
1676923737.7311003,462.890625,-643.06640625,-736.81640625,-72.265625,0.0
1676923737.7361112,465.8203125,61.03515625,-184.5703125,-95.21484375,0.0
1676923737.7398617,399.4140625,-108.3984375,-305.6640625,-104.4921875,0.0
1676923737.743612,374.0234375,-307.6171875,-460.44921875,-126.46484375,0.0
1676923737.7473626,421.38671875,-88.8671875,-291.50390625,-139.6484375,0.0
1676923737.751113,489.2578125,52.734375,-178.22265625,-126.46484375,0.0
1676923737.7548635,446.77734375,-185.05859375,-350.09765625,-163.57421875,0.0
1676923737.758614,364.74609375,-515.13671875,-601.07421875,-218.75,0.0
1676923737.7623644,408.69140625,-372.0703125,-504.39453125,-226.5625,0.0
1676923737.766115,431.640625,34.1796875,-192.3828125,-228.515625,0.0
1676923737.7698653,375.9765625,-352.05078125,-475.5859375,-233.88671875,0.0
1676923737.7736158,347.16796875,-757.32421875,-811.5234375,-273.4375,0.0
1676923737.7773662,376.953125,-133.7890625,-349.609375,-330.078125,0.0
1676923737.7811167,376.953125,-3.90625,-209.47265625,-343.75,0.0
1676923737.7848728,321.2890625,-340.8203125,-449.21875,-355.95703125,0.0
1676923737.7886286,310.05859375,-259.765625,-407.71484375,-378.90625,0.0
1676923737.7923846,351.07421875,20.01953125,-192.87109375,-398.4375,0.0
1676923737.7961404,414.0625,-8.30078125,-191.40625,-392.08984375,0.0
1676923737.7998965,392.08984375,-280.2734375,-386.71875,-386.23046875,0.0
1676923737.8036523,303.7109375,-435.546875,-471.6796875,-407.71484375,0.0
1676923737.8074083,292.48046875,-389.16015625,-437.5,-432.6171875,0.0
1676923737.8111644,371.58203125,-193.84765625,-303.7109375,-406.25,0.0
1676923737.8149202,396.97265625,-596.6796875,-617.1875,-357.91015625,0.0
1676923737.8186762,320.3125,-591.30859375,-606.93359375,-367.67578125,0.0
1676923737.822432,347.65625,28.3203125,-126.46484375,-386.23046875,0.0
1676923737.826188,428.7109375,-78.125,-211.42578125,-360.83984375,0.0
1676923737.8299325,465.8203125,-192.87109375,-288.0859375,-311.03515625,0.0
1676923737.8336768,458.984375,20.5078125,-126.953125,-293.45703125,0.0
1676923737.8374212,430.17578125,66.89453125,-88.8671875,-292.48046875,0.0
1676923737.8411655,472.65625,-368.65234375,-408.69140625,-253.41796875,0.0
1676923737.84491,524.90234375,-570.3125,-569.3359375,-205.56640625,0.0
1676923737.8486543,504.8828125,-371.09375,-415.0390625,-185.05859375,0.0
1676923737.8523989,470.21484375,-185.05859375,-265.13671875,-198.73046875,0.0
1676923737.8561432,495.60546875,-405.2734375,-444.82421875,-179.19921875,0.0
1676923737.8598876,557.6171875,-742.1875,-739.2578125,-177.734375,0.0
1676923737.863632,579.1015625,-151.3671875,-273.92578125,-202.1484375,0.0
1676923737.8673763,494.140625,68.84765625,-78.61328125,-200.1953125,0.0
1676923737.8711207,421.38671875,-204.1015625,-306.15234375,-230.46875,0.0
1676923737.8748705,435.546875,-237.79296875,-321.2890625,-250.48828125,0.0
1676923737.8786201,473.14453125,-23.92578125,-147.4609375,-255.859375,0.0
1676923737.88237,420.41015625,-58.10546875,-174.31640625,-266.6015625,0.0
1676923737.8861198,312.98828125,-281.25,-365.234375,-311.03515625,0.0
1676923737.8898695,287.59765625,-242.1875,-346.19140625,-362.3046875,0.0
1676923737.8936193,304.19921875,-359.375,-438.96484375,-359.86328125,0.0
1676923737.8973691,256.34765625,-453.125,-527.83203125,-388.18359375,0.0
1676923737.9011188,187.5,-768.5546875,-793.45703125,-438.96484375,0.0
1676923737.9048686,164.0625,-865.72265625,-898.4375,-464.35546875,0.0
1676923737.9086185,213.37890625,-218.75,-407.71484375,-481.4453125,0.0
1676923737.912368,204.58984375,-212.890625,-378.90625,-496.58203125,0.0
1676923737.916118,94.23828125,-359.375,-486.81640625,-543.45703125,0.0
1676923737.9211233,58.10546875,-94.23828125,-313.4765625,-583.984375,0.0
1676923737.9261284,111.328125,6.34765625,-234.86328125,-611.328125,0.0
1676923737.9311337,125.48828125,-245.1171875,-418.9453125,-660.15625,0.0
1676923737.936139,64.453125,-377.9296875,-524.4140625,-723.6328125,0.0
1676923737.9411442,46.875,-185.05859375,-378.41796875,-767.578125,0.0
1676923737.9461496,68.359375,-344.7265625,-511.23046875,-772.4609375,0.0
1676923737.951155,70.80078125,-701.66015625,-783.69140625,-715.33203125,0.0
1676923737.95616,35.64453125,-811.5234375,-875.9765625,-681.15234375,0.0
1676923737.9611654,3.90625,-370.60546875,-555.17578125,-720.21484375,0.0
1676923737.9661708,16.6015625,-302.734375,-482.421875,-695.3125,0.0
1676923737.971176,46.875,-697.75390625,-775.87890625,-622.55859375,0.0
1676923737.9761813,15.13671875,-580.56640625,-698.2421875,-606.4453125,0.0
1676923737.9786718,-76.171875,-128.41796875,-354.98046875,-627.44140625,0.0
1676923737.9811623,-97.65625,-176.7578125,-377.44140625,-599.609375,0.0
1676923737.983653,-46.38671875,-386.71875,-523.92578125,-549.31640625,0.0
1676923737.9861436,5.859375,-316.89453125,-469.23828125,-524.4140625,0.0
1676923737.988634,-0.48828125,-183.10546875,-359.86328125,-509.27734375,0.0
1676923737.9911246,-2.9296875,-479.00390625,-559.5703125,-475.09765625,0.0
1676923737.9936152,59.5703125,-730.46875,-751.46484375,-416.9921875,0.0
1676923737.9961057,108.3984375,-471.19140625,-549.31640625,-350.09765625,0.0
1676923737.9985962,74.70703125,-205.56640625,-310.05859375,-308.59375,0.0
1676923738.001087,82.51953125,-298.828125,-342.28515625,-259.765625,0.0
1676923738.0035775,139.6484375,-799.31640625,-779.296875,-201.171875,0.0
1676923738.006068,195.3125,-653.80859375,-658.69140625,-153.3203125,0.0
1676923738.0099058,199.70703125,-382.8125,-360.83984375,-111.81640625,0.0
1676923738.0137434,171.875,-656.25,-557.6171875,-88.8671875,0.0
1676923738.017581,195.3125,-715.33203125,-604.98046875,-62.5,0.0
1676923738.0214188,273.92578125,-316.89453125,-295.8984375,-17.08984375,0.0
1676923738.0252566,346.19140625,-102.05078125,-89.35546875,34.1796875,0.0
1676923738.0290942,323.73046875,-578.125,-444.3359375,51.7578125,0.0
1676923738.0329318,307.12890625,-785.15625,-616.69921875,51.7578125,0.0
1676923738.0367696,336.9140625,-246.09375,-177.734375,51.26953125,0.0
1676923738.0406075,335.9375,-12.20703125,20.99609375,66.40625,0.0
1676923738.044445,305.6640625,-497.55859375,-351.5625,67.87109375,0.0
1676923738.0482826,304.6875,-654.78515625,-489.74609375,41.015625,0.0
1676923738.0521204,355.95703125,-122.55859375,-73.73046875,44.921875,0.0
1676923738.0570276,396.97265625,-61.03515625,-14.16015625,72.75390625,0.0
1676923738.0619345,352.05078125,-248.53515625,-157.2265625,76.66015625,0.0
1676923738.0668416,304.6875,-282.71484375,-167.96875,45.41015625,0.0
1676923738.0717487,291.9921875,-315.4296875,-198.2421875,5.37109375,0.0
1676923738.0766559,343.75,-153.3203125,-37.109375,25.87890625,0.0
1676923738.081563,316.40625,-574.21875,-434.5703125,56.15234375,0.0
1676923738.08647,250.0,-806.15234375,-694.82421875,29.296875,0.0
1676923738.091377,312.01171875,-151.3671875,-66.89453125,23.4375,0.0
1676923738.0962842,382.32421875,-114.74609375,-5.859375,76.171875,0.0
1676923738.101191,390.625,-340.8203125,-179.6875,123.046875,0.0
1676923738.1060982,336.9140625,-152.83203125,-20.99609375,133.30078125,0.0
1676923738.1110053,348.14453125,77.63671875,158.69140625,140.625,0.0
1676923738.1147685,413.57421875,-160.64453125,6.8359375,163.57421875,0.0
1676923738.1185317,426.26953125,-316.89453125,-91.796875,167.96875,0.0
1676923738.1222947,376.953125,-90.33203125,79.58984375,135.25390625,0.0
1676923738.1260579,335.9375,-21.484375,134.765625,122.55859375,0.0
1676923738.129821,364.74609375,-298.33984375,-67.3828125,120.60546875,0.0
1676923738.133584,425.78125,-606.4453125,-278.80859375,122.0703125,0.0
1676923738.1373472,411.62109375,-563.96484375,-229.00390625,105.95703125,0.0
1676923738.1411104,314.453125,-299.31640625,0.0,70.80078125,0.0
1676923738.1448736,304.19921875,-479.98046875,-148.92578125,66.40625,0.0
1676923738.1486368,341.30859375,-953.61328125,-633.30078125,71.2890625,0.0
1676923738.1523998,329.58984375,-459.9609375,-208.49609375,39.55078125,0.0
1676923738.156163,267.08984375,-96.6796875,163.0859375,7.32421875,0.0
1676923738.1599088,228.02734375,-307.12890625,-19.04296875,0.48828125,0.0
1676923738.1636546,298.33984375,-283.69140625,-15.625,-0.48828125,0.0
1676923738.1674004,353.02734375,-95.703125,119.140625,7.8125,0.0
1676923738.1711462,318.359375,-196.77734375,41.9921875,14.6484375,0.0
1676923738.174892,327.1484375,-431.640625,-145.99609375,20.5078125,0.0
1676923738.178638,375.9765625,-613.28125,-280.76171875,62.98828125,0.0
1676923738.1823838,395.5078125,-512.6953125,-207.51953125,114.2578125,0.0
1676923738.1861296,366.2109375,-257.32421875,-0.48828125,130.859375,0.0
1676923738.1898754,347.65625,-717.28515625,-476.5625,152.83203125,0.0
1676923738.1936212,380.37109375,-845.703125,-607.91015625,141.11328125,0.0
1676923738.197367,419.921875,-254.8828125,-58.10546875,127.9296875,0.0
1676923738.2011127,392.578125,-315.91796875,-115.72265625,165.0390625,0.0
1676923738.2048633,375.0,-649.90234375,-385.7421875,193.84765625,0.0
1676923738.2086136,439.94140625,-440.91796875,-243.1640625,209.47265625,0.0
1676923738.2123642,509.765625,-197.75390625,-65.91796875,235.3515625,0.0
1676923738.2161145,479.98046875,-412.109375,-245.1171875,255.37109375,0.0
1676923738.219865,421.38671875,-565.91796875,-378.41796875,263.18359375,0.0
1676923738.2236156,500.9765625,-549.8046875,-395.01953125,274.90234375,0.0
1676923738.227366,622.0703125,-682.6171875,-489.2578125,290.0390625,0.0
1676923738.2311165,636.23046875,-844.7265625,-682.12890625,322.265625,0.0
1676923738.2348669,596.6796875,-845.21484375,-803.7109375,325.68359375,0.0
1676923738.2386174,625.0,-409.1796875,-400.87890625,311.03515625,0.0
1676923738.2423677,753.41796875,-223.6328125,-225.09765625,342.7734375,0.0
1676923738.2461183,842.7734375,-482.421875,-450.68359375,348.6328125,0.0
1676923738.249967,758.7890625,-659.66796875,-583.0078125,319.3359375,0.0
1676923738.2538161,720.703125,-391.6015625,-401.85546875,301.26953125,0.0
1676923738.2576652,880.859375,-257.32421875,-330.078125,312.01171875,0.0
1676923738.261514,927.734375,-621.58203125,-611.328125,291.9921875,0.0
1676923738.2653627,899.4140625,-645.01953125,-645.01953125,216.30859375,0.0
1676923738.2692118,916.9921875,-518.06640625,-557.6171875,196.2890625,0.0
1676923738.2730608,903.80859375,-634.765625,-646.484375,177.24609375,0.0
1676923738.2769096,890.625,-851.5625,-851.07421875,160.15625,0.0
1676923738.2807584,897.4609375,-690.91796875,-750.9765625,148.4375,0.0
1676923738.2846074,858.88671875,-226.07421875,-354.00390625,105.95703125,0.0
1676923738.2884564,812.98828125,-373.046875,-457.51953125,87.40234375,0.0
1676923738.2923052,813.96484375,-500.0,-539.0625,86.42578125,0.0
1676923738.2959566,799.8046875,-278.80859375,-351.07421875,92.7734375,0.0
1676923738.299608,730.46875,-131.34765625,-220.703125,95.703125,0.0
1676923738.3032594,683.10546875,-412.109375,-404.296875,86.9140625,0.0
1676923738.3069108,711.42578125,-694.82421875,-607.91015625,50.29296875,0.0
1676923738.3105621,727.5390625,-390.13671875,-359.375,52.734375,0.0
1676923738.3142133,644.04296875,-451.171875,-352.5390625,70.80078125,0.0
1676923738.3178647,511.23046875,-809.5703125,-643.5546875,52.734375,0.0
1676923738.321516,479.00390625,-985.3515625,-934.08203125,73.73046875,0.0
1676923738.3251674,524.90234375,-578.61328125,-541.50390625,75.1953125,0.0
1676923738.3288188,492.1875,-200.1953125,-121.58203125,88.8671875,0.0
1676923738.3324702,406.25,-427.734375,-287.109375,93.75,0.0
1676923738.3361216,417.96875,-422.36328125,-270.01953125,81.54296875,0.0
1676923738.3398712,474.609375,-194.82421875,-83.0078125,107.421875,0.0
1676923738.3436205,423.828125,-240.234375,-91.796875,132.32421875,0.0
1676923738.3473701,316.89453125,-462.40234375,-285.15625,105.95703125,0.0
1676923738.3511195,320.3125,-398.4375,-258.7890625,83.49609375,0.0
1676923738.3548691,392.08984375,-274.90234375,-162.109375,99.609375,0.0
1676923738.3586187,398.4375,-527.83203125,-304.6875,122.0703125,0.0
1676923738.362368,326.171875,-912.59765625,-763.18359375,104.00390625,0.0
1676923738.3661177,312.5,-770.01953125,-753.41796875,62.5,0.0
1676923738.369867,358.3984375,-224.609375,-177.734375,64.94140625,0.0
1676923738.3736167,390.13671875,-285.15625,-202.1484375,93.75,0.0
1676923738.377366,383.7890625,-537.109375,-418.45703125,74.70703125,0.0
1676923738.3811157,331.0546875,-359.375,-297.8515625,38.0859375,0.0
1676923738.3848794,378.41796875,-122.0703125,-130.37109375,49.8046875,0.0
1676923738.3886433,460.44921875,-353.02734375,-327.63671875,71.2890625,0.0
1676923738.392407,481.4453125,-594.23828125,-504.39453125,55.17578125,0.0
1676923738.3961706,440.4296875,-292.96875,-274.4140625,24.4140625,0.0
1676923738.3999345,431.640625,-148.92578125,-165.52734375,16.6015625,0.0
1676923738.4036982,496.58203125,-577.1484375,-502.44140625,49.8046875,0.0
1676923738.407462,509.27734375,-789.0625,-732.91015625,53.22265625,0.0
1676923738.4112258,469.23828125,-293.9453125,-352.05078125,0.0,0.0
1676923738.4149895,474.12109375,-113.28125,-172.8515625,1.953125,0.0
1676923738.4187531,521.97265625,-622.55859375,-587.890625,30.76171875,0.0
1676923738.422517,510.7421875,-751.46484375,-710.44921875,19.04296875,0.0
1676923738.4262807,461.9140625,-141.6015625,-208.984375,5.859375,0.0
1676923738.4312632,428.22265625,-244.140625,-281.73828125,9.765625,0.0
1676923738.436246,448.2421875,-523.92578125,-504.8828125,31.73828125,0.0
1676923738.4412284,493.1640625,-277.83203125,-310.05859375,90.8203125,0.0
1676923738.446211,458.0078125,-75.68359375,-140.625,120.1171875,0.0
1676923738.4511936,385.25390625,-111.81640625,-170.41015625,116.2109375,0.0
1676923738.4561763,382.8125,-463.8671875,-412.59765625,140.625,0.0
1676923738.4611588,425.78125,-525.390625,-448.73046875,183.10546875,0.0
1676923738.4661412,423.33984375,-101.07421875,-138.18359375,213.37890625,0.0
1676923738.471124,347.16796875,-53.22265625,-90.33203125,231.4453125,0.0
1676923738.4761064,341.796875,-520.99609375,-446.77734375,236.328125,0.0
1676923738.481089,448.2421875,-370.60546875,-340.33203125,265.13671875,0.0
1676923738.4860716,490.72265625,57.6171875,-14.6484375,312.01171875,0.0
1676923738.4898257,420.41015625,-266.6015625,-264.16015625,303.7109375,0.0
1676923738.4935799,426.26953125,-484.86328125,-447.265625,288.57421875,0.0
1676923738.497334,502.9296875,-62.5,-144.53125,301.7578125,0.0
1676923738.5010881,537.109375,203.125,62.98828125,325.1953125,0.0
1676923738.5048423,504.39453125,-60.546875,-138.671875,345.21484375,0.0
1676923738.5085964,486.328125,-377.9296875,-375.9765625,363.28125,0.0
1676923738.5123508,550.29296875,-168.45703125,-207.51953125,360.83984375,0.0
1676923738.516105,617.67578125,254.8828125,117.1875,374.51171875,0.0
1676923738.519859,575.1953125,-119.62890625,-155.2734375,377.9296875,0.0
1676923738.5236132,500.9765625,-387.20703125,-363.28125,345.703125,0.0
1676923738.5273674,534.1796875,177.24609375,58.10546875,333.984375,0.0
1676923738.5311215,594.23828125,340.33203125,178.7109375,351.5625,0.0
1676923738.534877,565.4296875,-96.6796875,-144.53125,369.140625,0.0
1676923738.5386326,476.5625,-110.83984375,-151.85546875,333.49609375,0.0
1676923738.5423882,477.05078125,292.96875,153.80859375,298.828125,0.0
1676923738.5461438,509.765625,71.77734375,-0.48828125,306.640625,0.0
1676923738.5498993,494.62890625,-207.51953125,-198.73046875,297.36328125,0.0
1676923738.553655,422.36328125,-260.25390625,-227.05078125,270.5078125,0.0
1676923738.5574105,359.375,-21.97265625,-36.1328125,250.9765625,0.0
1676923738.561166,397.94921875,255.859375,187.98828125,253.90625,0.0
1676923738.5649216,371.09375,-273.4375,-209.47265625,265.625,0.0
1676923738.5686772,302.24609375,-228.515625,-187.01171875,230.95703125,0.0
1676923738.5724328,275.87890625,437.01171875,318.359375,193.84765625,0.0
1676923738.5761883,238.28125,243.65234375,175.78125,192.87109375,0.0
1676923738.5799327,284.1796875,70.80078125,51.26953125,219.7265625,0.0
1676923738.5836768,299.8046875,291.50390625,214.84375,209.9609375,0.0
1676923738.5874212,285.15625,391.6015625,275.87890625,164.0625,0.0
1676923738.5911653,311.5234375,149.4140625,88.37890625,151.3671875,0.0
1676923738.5949097,364.2578125,-18.06640625,-32.2265625,155.2734375,0.0
1676923738.5986538,363.28125,-50.78125,-60.05859375,145.99609375,0.0
1676923738.6023982,298.33984375,-60.546875,-80.078125,93.75,0.0
1676923738.6061425,271.484375,-248.53515625,-223.14453125,61.03515625,0.0
1676923738.6098866,312.5,-715.33203125,-592.7734375,67.3828125,0.0
1676923738.613631,356.93359375,-131.34765625,-157.2265625,30.2734375,0.0
1676923738.6173751,321.2890625,363.76953125,225.5859375,-9.765625,0.0
1676923738.6211195,291.50390625,107.91015625,13.671875,-19.04296875,0.0
1676923738.6248698,307.12890625,180.17578125,69.3359375,-33.69140625,0.0
1676923738.62862,332.03125,397.94921875,242.1875,-66.89453125,0.0
1676923738.6323702,304.19921875,353.515625,207.51953125,-86.42578125,0.0
1676923738.6361203,186.5234375,124.51171875,31.25,-130.859375,0.0
1676923738.6398706,134.765625,123.53515625,26.3671875,-192.3828125,0.0
1676923738.643621,184.5703125,62.01171875,2.9296875,-202.1484375,0.0
1676923738.647371,190.91796875,-64.94140625,-92.28515625,-227.5390625,0.0
1676923738.6511214,97.16796875,-442.87109375,-413.0859375,-288.57421875,0.0
1676923738.6548715,55.17578125,-333.0078125,-325.68359375,-339.84375,0.0
1676923738.6586218,116.2109375,173.33984375,74.70703125,-349.12109375,0.0
1676923738.6623719,120.60546875,131.8359375,20.01953125,-336.42578125,0.0
1676923738.6661222,45.8984375,-69.82421875,-166.015625,-361.81640625,0.0
1676923738.669919,-15.13671875,120.60546875,-35.64453125,-391.6015625,0.0
1676923738.6737156,-12.6953125,382.32421875,166.015625,-364.74609375,0.0
1676923738.6775124,45.41015625,145.01953125,-13.18359375,-302.24609375,0.0
1676923738.681309,-1.953125,25.390625,-113.28125,-275.390625,0.0
1676923738.6851058,-40.52734375,226.5625,32.2265625,-251.46484375,0.0
1676923738.6889024,58.59375,77.63671875,-80.56640625,-193.84765625,0.0
1676923738.6926992,145.5078125,-325.1953125,-392.08984375,-133.30078125,0.0
1676923738.696496,136.23046875,-485.83984375,-531.73828125,-109.375,0.0
1676923738.7002926,115.72265625,79.58984375,-122.0703125,-121.09375,0.0
1676923738.7040894,169.921875,318.359375,41.9921875,-93.75,0.0
1676923738.707886,230.46875,83.0078125,-144.53125,-52.734375,0.0
1676923738.7116828,243.65234375,94.23828125,-95.703125,-36.1328125,0.0
1676923738.7155318,213.37890625,108.88671875,-68.359375,-41.015625,0.0
1676923738.719381,234.86328125,214.84375,-10.7421875,-49.31640625,0.0
1676923738.7232301,310.546875,-31.73828125,-198.2421875,-39.55078125,0.0
1676923738.7270792,314.94140625,-83.49609375,-239.74609375,-24.90234375,0.0
1676923738.7309284,282.71484375,228.02734375,-16.6015625,-26.3671875,0.0
1676923738.7347775,300.78125,75.1953125,-127.9296875,-36.1328125,0.0
1676923738.7386265,324.70703125,-566.89453125,-613.76953125,-5.37109375,0.0
1676923738.7424757,345.703125,-569.82421875,-615.72265625,24.4140625,0.0
1676923738.7463248,342.7734375,236.81640625,-11.23046875,16.11328125,0.0
1676923738.7501738,322.75390625,157.71484375,-75.1953125,6.34765625,0.0
1676923738.754023,291.50390625,-0.9765625,-197.265625,-3.90625,0.0
1676923738.757872,289.0625,242.1875,0.0,11.71875,0.0
1676923738.7614815,306.15234375,330.078125,64.94140625,30.2734375,0.0
1676923738.7650912,263.18359375,77.1484375,-160.15625,6.34765625,0.0
1676923738.7687006,285.64453125,-124.0234375,-311.03515625,-0.9765625,0.0
1676923738.77231,349.12109375,-74.21875,-266.6015625,19.53125,0.0
1676923738.7759197,333.49609375,145.01953125,-98.14453125,17.08984375,0.0
1676923738.779529,275.390625,-38.0859375,-240.72265625,3.41796875,0.0
1676923738.7831385,229.00390625,-891.6015625,-916.9921875,-6.34765625,0.0
1676923738.7867482,259.27734375,-524.90234375,-643.06640625,-20.5078125,0.0
1676923738.7903576,310.546875,355.95703125,39.55078125,-16.6015625,0.0
1676923738.793967,240.72265625,178.22265625,-108.3984375,-30.76171875,0.0
1676923738.7975767,192.3828125,100.09765625,-175.78125,-54.6875,0.0
1676923738.801186,230.46875,329.58984375,0.9765625,-44.921875,0.0
1676923738.8061562,272.94921875,292.48046875,-11.71875,-23.4375,0.0
1676923738.8111262,232.421875,84.9609375,-156.25,-40.0390625,0.0
1676923738.8160963,176.26953125,114.74609375,-160.15625,-52.734375,0.0
1676923738.8210664,217.7734375,281.25,-29.296875,-40.52734375,0.0
1676923738.8260365,260.7421875,246.58203125,-29.296875,-29.78515625,0.0
1676923738.8310065,219.23828125,-99.609375,-288.0859375,-27.34375,0.0
1676923738.8359764,161.1328125,-297.36328125,-438.96484375,-52.734375,0.0
1676923738.8409464,177.24609375,-63.4765625,-265.13671875,-64.94140625,0.0
1676923738.8459165,220.21484375,199.21875,-50.29296875,-46.875,0.0
1676923738.8508866,192.87109375,-419.43359375,-507.8125,-28.3203125,0.0
1676923738.8558567,152.83203125,-466.30859375,-545.8984375,-61.5234375,0.0
1676923738.8608267,198.2421875,286.62109375,28.3203125,-107.91015625,0.0
1676923738.8646011,272.4609375,113.28125,-92.7734375,-101.07421875,0.0
1676923738.8683755,281.25,-213.37890625,-335.9375,-89.84375,0.0
1676923738.87215,190.91796875,75.68359375,-120.1171875,-124.0234375,0.0
1676923738.8759243,157.71484375,272.94921875,54.19921875,-153.3203125,0.0
1676923738.8796988,219.7265625,37.109375,-128.41796875,-157.2265625,0.0
1676923738.8834732,245.60546875,-261.23046875,-352.5390625,-141.11328125,0.0
1676923738.8872476,210.44921875,-111.81640625,-232.421875,-150.390625,0.0
1676923738.891022,194.3359375,273.92578125,56.15234375,-183.10546875,0.0
1676923738.8947964,221.6796875,-110.3515625,-230.95703125,-170.8984375,0.0
1676923738.8985708,229.00390625,-707.03125,-684.08203125,-150.390625,0.0
1676923738.9023452,196.77734375,-80.078125,-197.265625,-173.828125,0.0
1676923738.9061196,149.90234375,281.73828125,77.63671875,-189.94140625,0.0
1676923738.9098692,149.90234375,-20.01953125,-157.2265625,-196.2890625,0.0
1676923738.9136188,184.08203125,-17.578125,-139.16015625,-193.359375,0.0
1676923738.9173684,180.17578125,215.8203125,51.26953125,-188.4765625,0.0
1676923738.921118,124.51171875,218.26171875,53.22265625,-200.1953125,0.0
1676923738.9248676,118.65234375,-8.7890625,-118.1640625,-220.21484375,0.0
1676923738.9286172,148.4375,-218.26171875,-262.20703125,-212.40234375,0.0
1676923738.9323668,130.37109375,-107.91015625,-163.57421875,-202.1484375,0.0
1676923738.9361165,104.4921875,135.7421875,24.4140625,-215.8203125,0.0
1676923738.939866,49.31640625,-430.17578125,-405.76171875,-218.26171875,0.0
1676923738.9436157,27.83203125,-399.90234375,-376.46484375,-217.28515625,0.0
1676923738.9473653,96.19140625,312.01171875,176.26953125,-205.56640625,0.0
1676923738.951115,100.5859375,145.99609375,68.84765625,-204.58984375,0.0
1676923738.954899,62.01171875,-117.1875,-112.79296875,-222.65625,0.0
1676923738.9586833,72.75390625,67.87109375,-3.41796875,-234.86328125,0.0
1676923738.9624674,116.69921875,276.3671875,128.90625,-221.19140625,0.0
1676923738.9662516,125.0,9.765625,-74.70703125,-211.9140625,0.0
1676923738.9700358,84.9609375,-338.37890625,-352.5390625,-221.6796875,0.0
1676923738.9738197,67.3828125,-275.390625,-327.63671875,-248.046875,0.0
1676923738.977604,113.28125,-76.66015625,-181.640625,-266.6015625,0.0
1676923738.981388,151.3671875,-193.84765625,-254.8828125,-245.1171875,0.0
1676923738.9851723,89.35546875,-561.03515625,-539.0625,-267.08984375,0.0
1676923738.9889565,79.58984375,-59.5703125,-182.12890625,-324.21875,0.0
1676923738.9927406,105.95703125,227.5390625,35.64453125,-313.4765625,0.0
1676923738.9965248,102.05078125,0.48828125,-131.34765625,-291.9921875,0.0
1676923739.0002406,63.96484375,-14.6484375,-145.5078125,-299.31640625,0.0
1676923739.0039563,33.203125,182.12890625,2.9296875,-299.31640625,0.0
1676923739.0076723,54.19921875,104.4921875,-44.921875,-299.31640625,0.0
1676923739.011388,76.66015625,-173.33984375,-250.0,-302.734375,0.0
1676923739.0151038,18.5546875,-101.5625,-189.94140625,-298.828125,0.0
1676923739.0188196,-53.22265625,-106.93359375,-180.6640625,-303.22265625,0.0
1676923739.0225353,-32.71484375,-145.01953125,-211.42578125,-304.6875,0.0
1676923739.026251,9.27734375,-587.890625,-568.359375,-272.4609375,0.0
1676923739.0299668,22.4609375,-634.765625,-621.09375,-259.27734375,0.0
1676923739.0336828,43.45703125,177.734375,15.13671875,-264.6484375,0.0
1676923739.0373986,77.63671875,121.09375,-50.29296875,-246.09375,0.0
1676923739.0411143,142.08984375,-46.38671875,-195.3125,-221.6796875,0.0
1676923739.0448651,201.66015625,136.23046875,-40.0390625,-198.2421875,0.0
1676923739.0486157,173.828125,258.30078125,43.45703125,-197.265625,0.0
1676923739.0523665,141.6015625,14.6484375,-166.015625,-198.2421875,0.0
1676923739.056117,156.25,-104.00390625,-249.0234375,-175.78125,0.0
1676923739.0598679,186.03515625,153.3203125,-37.59765625,-130.37109375,0.0
1676923739.0636187,190.91796875,-20.01953125,-171.38671875,-103.02734375,0.0
1676923739.0673692,175.78125,-422.36328125,-473.14453125,-107.421875,0.0
1676923739.07112,204.1015625,-871.09375,-846.19140625,-107.421875,0.0
1676923739.0748706,260.25390625,-339.84375,-442.87109375,-125.0,0.0
1676923739.0786214,259.765625,287.59765625,90.8203125,-137.6953125,0.0
1676923739.082372,205.56640625,-14.16015625,-142.578125,-146.97265625,0.0
1676923739.0861228,217.28515625,-27.34375,-163.57421875,-151.3671875,0.0
1676923739.0898724,282.2265625,227.05078125,58.10546875,-135.7421875,0.0
1676923739.0936222,260.7421875,187.01171875,40.0390625,-139.16015625,0.0
1676923739.0973718,177.24609375,-44.43359375,-142.08984375,-158.69140625,0.0
1676923739.1011214,194.82421875,-38.0859375,-142.578125,-162.59765625,0.0
1676923739.104871,270.5078125,114.74609375,-16.6015625,-127.44140625,0.0
1676923739.1086206,276.3671875,-26.3671875,-102.05078125,-97.16796875,0.0
1676923739.1123705,215.33203125,-620.60546875,-547.8515625,-99.12109375,0.0
1676923739.11612,193.359375,-536.62109375,-509.27734375,-119.62890625,0.0
1676923739.1198697,239.74609375,91.796875,-32.2265625,-112.79296875,0.0
1676923739.1236196,283.69140625,-123.046875,-186.03515625,-70.80078125,0.0
1676923739.1273692,244.140625,-356.4453125,-374.0234375,-64.94140625,0.0
1676923739.1311188,212.40234375,-66.89453125,-174.31640625,-70.80078125,0.0
1676923739.1348748,255.37109375,186.03515625,12.20703125,-57.6171875,0.0
1676923739.1386309,320.80078125,-56.640625,-157.2265625,-33.203125,0.0
1676923739.142387,344.23828125,-182.12890625,-254.8828125,-18.06640625,0.0
1676923739.146143,303.7109375,70.80078125,-74.21875,-35.15625,0.0
1676923739.149899,312.98828125,202.1484375,25.87890625,-41.50390625,0.0
1676923739.153655,368.65234375,-247.55859375,-301.7578125,4.39453125,0.0
1676923739.1574113,364.2578125,-592.28515625,-566.89453125,16.6015625,0.0
1676923739.1611674,306.640625,-57.12890625,-187.01171875,-24.90234375,0.0
1676923739.1649234,312.01171875,189.453125,-7.32421875,-29.78515625,0.0
1676923739.1686795,365.234375,-127.44140625,-250.48828125,-7.32421875,0.0
1676923739.1724355,390.13671875,-145.5078125,-266.11328125,15.625,0.0
1676923739.1761916,345.703125,64.453125,-92.7734375,20.01953125,0.0
1676923739.1800618,310.05859375,-127.9296875,-225.09765625,17.578125,0.0
1676923739.183932,347.16796875,-484.86328125,-514.16015625,25.87890625,0.0
1676923739.1878023,369.62890625,-336.9140625,-420.8984375,41.9921875,0.0
1676923739.1916726,332.51953125,97.65625,-73.2421875,37.59765625,0.0
1676923739.1955428,291.015625,64.94140625,-72.265625,37.109375,0.0
1676923739.1994128,303.22265625,-300.29296875,-336.9140625,47.8515625,0.0
1676923739.203283,344.7265625,-351.5625,-383.30078125,50.29296875,0.0
1676923739.2071533,335.44921875,76.66015625,-33.69140625,52.24609375,0.0
1676923739.2110236,268.06640625,80.56640625,10.7421875,34.66796875,0.0
1676923739.2148938,239.74609375,-464.35546875,-407.2265625,23.92578125,0.0
1676923739.218764,267.578125,-311.5234375,-283.203125,33.203125,0.0
1676923739.2226343,290.52734375,187.5,108.3984375,42.48046875,0.0
1676923739.227508,245.60546875,-18.06640625,-35.15625,42.96875,0.0
1676923739.2323818,218.75,-188.96484375,-166.50390625,38.0859375,0.0
1676923739.2372556,258.30078125,-22.94921875,-27.34375,39.0625,0.0
1676923739.242129,302.24609375,-89.84375,-60.546875,55.6640625,0.0
1676923739.2470028,264.6484375,-372.55859375,-276.3671875,49.31640625,0.0
1676923739.2518766,210.44921875,-680.17578125,-514.16015625,28.3203125,0.0
1676923739.2567503,236.328125,-331.0546875,-265.625,13.18359375,0.0
1676923739.261624,308.59375,197.265625,142.08984375,28.3203125,0.0
1676923739.2664976,297.36328125,-207.03125,-157.2265625,41.9921875,0.0
1676923739.2713714,251.953125,-543.9453125,-449.21875,31.73828125,0.0
1676923739.276245,311.5234375,26.85546875,-34.66796875,24.4140625,0.0
1676923739.2811189,360.3515625,129.8828125,47.8515625,50.78125,0.0
1676923739.284846,301.26953125,-182.6171875,-199.21875,60.546875,0.0
1676923739.2885735,225.09765625,-123.53515625,-150.390625,35.64453125,0.0
1676923739.2923007,219.7265625,111.81640625,27.83203125,11.71875,0.0
1676923739.2960281,278.80859375,86.42578125,8.30078125,26.85546875,0.0
1676923739.2997553,309.08203125,-145.01953125,-156.73828125,59.5703125,0.0
1676923739.3034825,288.0859375,-339.84375,-287.109375,72.265625,0.0
1676923739.30721,302.24609375,-335.9375,-285.64453125,73.73046875,0.0
1676923739.3109372,345.703125,-212.890625,-178.7109375,55.6640625,0.0
1676923739.3146646,357.421875,-647.94921875,-560.546875,83.984375,0.0
1676923739.3183918,324.70703125,-730.46875,-668.45703125,97.65625,0.0
1676923739.3221192,294.921875,7.32421875,-41.9921875,48.828125,0.0
1676923739.3258464,314.94140625,-9.27734375,-42.96875,57.6171875,0.0
1676923739.3296194,355.95703125,-147.94921875,-149.4140625,103.515625,0.0
1676923739.3333924,333.984375,23.4375,-32.71484375,100.5859375,0.0
1676923739.3371654,308.10546875,150.390625,59.08203125,98.6328125,0.0
1676923739.3409383,328.125,-168.45703125,-167.96875,120.1171875,0.0
1676923739.3447113,358.3984375,-364.2578125,-325.68359375,117.67578125,0.0
1676923739.348484,341.796875,-188.96484375,-178.7109375,109.86328125,0.0
1676923739.352257,262.6953125,-241.2109375,-207.03125,92.28515625,0.0
1676923739.35603,210.44921875,-446.77734375,-370.60546875,78.61328125,0.0
1676923739.359803,223.14453125,-683.10546875,-555.6640625,72.75390625,0.0
1676923739.363576,263.671875,-312.98828125,-265.625,62.01171875,0.0
1676923739.367349,265.625,86.9140625,48.33984375,53.7109375,0.0
1676923739.371122,243.1640625,-218.26171875,-206.54296875,36.62109375,0.0
1676923739.374872,275.390625,-325.1953125,-303.7109375,31.25,0.0
1676923739.378622,324.70703125,137.20703125,58.59375,57.6171875,0.0
1676923739.382372,295.8984375,137.6953125,61.03515625,68.359375,0.0
1676923739.386122,240.72265625,-27.34375,-70.3125,42.96875,0.0
1676923739.389872,263.671875,32.2265625,-35.15625,41.50390625,0.0
1676923739.3936222,298.33984375,-51.7578125,-87.40234375,62.5,0.0
1676923739.3973722,255.37109375,-184.5703125,-190.4296875,48.33984375,0.0
1676923739.4011223,178.7109375,-595.21484375,-534.1796875,14.6484375,0.0
1676923739.4048724,188.4765625,-482.421875,-461.42578125,-11.23046875,0.0
1676923739.4086223,244.140625,184.5703125,65.91796875,0.48828125,0.0
1676923739.4123724,45.41015625,62.5,-9.765625,25.87890625,0.0
1676923739.4161224,-146.484375,-163.0859375,-183.59375,19.04296875,0.0
1676923739.4200096,-54.6875,-158.69140625,-168.9453125,12.20703125,0.0
1676923739.4238968,69.3359375,120.1171875,44.43359375,20.01953125,0.0
1676923739.427784,114.74609375,31.73828125,-19.04296875,37.109375,0.0
1676923739.431671,55.17578125,-285.64453125,-263.671875,18.06640625,0.0
1676923739.435558,69.3359375,-10.7421875,-70.3125,-21.484375,0.0
1676923739.4394453,181.640625,-29.296875,-86.42578125,-6.34765625,0.0
1676923739.4433324,250.9765625,-395.99609375,-354.98046875,28.3203125,0.0
1676923739.4472196,214.84375,-601.07421875,-520.5078125,36.1328125,0.0
1676923739.4511065,196.2890625,-69.3359375,-135.25390625,30.76171875,0.0
1676923739.4549937,291.50390625,216.796875,104.00390625,35.15625,0.0
1676923739.458881,360.3515625,-37.109375,-89.35546875,47.8515625,0.0
1676923739.462768,359.86328125,-20.5078125,-95.21484375,60.05859375,0.0
1676923739.4663801,322.265625,179.6875,50.29296875,31.25,0.0
1676923739.469992,311.5234375,204.1015625,60.546875,8.7890625,0.0
1676923739.4736037,368.65234375,-105.95703125,-192.3828125,22.94921875,0.0
1676923739.4772158,381.8359375,-228.02734375,-292.96875,32.71484375,0.0
1676923739.4808278,314.453125,-3.41796875,-106.93359375,30.2734375,0.0
1676923739.4844396,296.38671875,-69.82421875,-135.25390625,1.953125,0.0
1676923739.4880514,337.890625,-642.578125,-621.09375,-27.83203125,0.0
1676923739.4916635,349.609375,-840.33203125,-849.609375,-18.06640625,0.0
1676923739.4952755,332.03125,-68.84765625,-222.16796875,-45.8984375,0.0
1676923739.4988873,311.03515625,41.50390625,-123.53515625,-100.5859375,0.0
1676923739.502499,333.49609375,-205.56640625,-343.75,-150.87890625,0.0
1676923739.5061111,386.23046875,-34.66796875,-234.375,-162.109375,0.0
1676923739.5098662,379.8828125,52.24609375,-169.43359375,-157.2265625,0.0
1676923739.513621,340.33203125,-152.83203125,-321.2890625,-178.22265625,0.0
1676923739.5173762,358.3984375,-267.08984375,-416.015625,-193.84765625,0.0
1676923739.5211313,405.2734375,-43.45703125,-254.39453125,-192.87109375,0.0
1676923739.5248861,399.4140625,48.33984375,-171.875,-172.36328125,0.0
1676923739.5286412,333.49609375,-389.16015625,-473.14453125,-165.52734375,0.0
1676923739.5323963,326.171875,-811.5234375,-809.5703125,-202.1484375,0.0
1676923739.5361512,369.62890625,-375.9765625,-479.00390625,-224.12109375,0.0
1676923739.5399063,420.41015625,123.53515625,-98.14453125,-210.44921875,0.0
1676923739.5436614,370.60546875,-315.91796875,-432.12890625,-213.37890625,0.0
1676923739.5474162,317.3828125,-650.390625,-690.4296875,-245.1171875,0.0
1676923739.5511713,376.46484375,-20.99609375,-240.234375,-246.09375,0.0
1676923739.5561886,417.48046875,125.0,-128.90625,-197.265625,0.0
1676923739.5612056,389.6484375,-129.39453125,-319.3359375,-185.05859375,0.0
1676923739.5662227,312.01171875,-70.3125,-264.6484375,-181.640625,0.0
1676923739.57124,319.3359375,74.70703125,-158.69140625,-149.90234375,0.0
1676923739.5762572,369.62890625,42.48046875,-188.96484375,-116.2109375,0.0
1676923739.5812743,338.8671875,-291.9921875,-421.38671875,-87.890625,0.0
1676923739.5862913,310.546875,-333.0078125,-452.1484375,-83.49609375,0.0
1676923739.5913086,363.76953125,13.18359375,-211.42578125,-90.8203125,0.0
1676923739.5963259,362.79296875,39.0625,-163.57421875,-58.59375,0.0
1676923739.601343,328.125,-632.32421875,-680.17578125,-20.01953125,0.0
1676923739.60636,293.9453125,-641.6015625,-708.984375,-47.8515625,0.0
1676923739.6113772,296.875,111.81640625,-122.0703125,-71.77734375,0.0
1676923739.6151018,362.3046875,-19.04296875,-232.421875,-45.8984375,0.0
1676923739.6188264,376.953125,-204.1015625,-363.28125,-28.3203125,0.0
1676923739.622551,325.68359375,3.41796875,-192.3828125,-40.0390625,0.0
1676923739.6262755,287.109375,149.4140625,-80.078125,-51.7578125,0.0
1676923739.63,311.03515625,-41.50390625,-224.609375,-35.64453125,0.0
1676923739.6337247,343.75,-408.69140625,-488.28125,-9.765625,0.0
1676923739.6374495,308.59375,-321.77734375,-404.296875,-31.25,0.0
1676923739.641174,259.765625,114.2578125,-79.58984375,-59.5703125,0.0
1676923739.6448987,252.44140625,-188.4765625,-322.75390625,-40.0390625,0.0
1676923739.6486232,298.828125,-657.71484375,-694.3359375,-21.484375,0.0
1676923739.6523478,295.41015625,-98.14453125,-279.78515625,-44.43359375,0.0
1676923739.6560724,214.84375,131.34765625,-87.890625,-67.3828125,0.0
1676923739.6598296,158.69140625,-372.0703125,-481.93359375,-86.9140625,0.0
1676923739.663587,204.1015625,-324.21875,-455.56640625,-96.6796875,0.0
1676923739.6673443,258.7890625,185.05859375,-51.26953125,-106.4453125,0.0
1676923739.6711018,209.47265625,128.41796875,-97.65625,-148.92578125,0.0
1676923739.674859,172.36328125,-131.34765625,-308.10546875,-157.2265625,0.0
1676923739.6786165,237.79296875,-305.17578125,-421.875,-124.51171875,0.0
1676923739.6823738,272.94921875,-158.69140625,-294.43359375,-133.7890625,0.0
1676923739.686131,214.35546875,38.57421875,-163.57421875,-162.109375,0.0
1676923739.6898885,176.26953125,-287.59765625,-410.64453125,-166.50390625,0.0
1676923739.6936457,196.77734375,-221.6796875,-354.00390625,-180.6640625,0.0
1676923739.6974032,224.609375,205.56640625,-30.76171875,-175.78125,0.0
1676923739.7011604,190.91796875,85.44921875,-121.09375,-168.9453125,0.0
1676923739.7048998,118.65234375,-331.0546875,-437.98828125,-199.21875,0.0
1676923739.7086391,106.4453125,-111.328125,-275.87890625,-215.33203125,0.0
1676923739.7123783,142.08984375,140.625,-72.265625,-196.2890625,0.0
1676923739.7161176,85.9375,-271.484375,-380.37109375,-204.1015625,0.0
1676923739.719857,23.4375,-427.734375,-500.0,-219.23828125,0.0
1676923739.723596,34.66796875,-258.7890625,-353.515625,-226.5625,0.0
1676923739.7273355,58.10546875,-77.1484375,-211.42578125,-236.81640625,0.0
1676923739.7310748,48.33984375,-225.09765625,-333.984375,-197.265625,0.0
1676923739.7348142,-22.94921875,-580.078125,-618.65234375,-195.3125,0.0
1676923739.7385535,-12.20703125,-42.96875,-222.16796875,-244.62890625,0.0
1676923739.7422926,83.984375,212.40234375,-28.80859375,-200.68359375,0.0
1676923739.746032,133.7890625,-38.0859375,-207.03125,-147.94921875,0.0
1676923739.7498035,104.4921875,-51.26953125,-216.796875,-158.203125,0.0
1676923739.7535753,98.6328125,138.671875,-84.9609375,-152.34375,0.0
1676923739.757347,128.90625,120.60546875,-98.14453125,-125.9765625,0.0
1676923739.7611187,187.5,-24.4140625,-204.1015625,-93.75,0.0
1676923739.7648902,160.64453125,-76.171875,-233.88671875,-61.03515625,0.0
1676923739.768662,56.640625,-258.30078125,-381.8359375,-45.8984375,0.0
1676923739.7724338,108.3984375,-278.80859375,-379.8828125,-51.26953125,0.0
1676923739.7762053,232.421875,-667.96875,-688.96484375,-10.25390625,0.0
1676923739.7799768,224.12109375,-762.6953125,-814.94140625,6.8359375,0.0
1676923739.7837486,172.8515625,32.71484375,-178.7109375,-20.99609375,0.0
1676923739.7875204,186.5234375,28.80859375,-161.62109375,-23.4375,0.0
1676923739.791292,76.171875,-200.1953125,-354.4921875,-26.3671875,0.0
1676923739.7950337,-32.2265625,19.04296875,-173.33984375,-13.671875,0.0
1676923739.7987752,17.08984375,179.19921875,-41.015625,-11.23046875,0.0
1676923739.802517,99.12109375,-62.98828125,-233.88671875,-20.5078125,0.0
1676923739.8062584,184.5703125,-236.81640625,-373.53515625,-12.6953125,0.0
1676923739.8100002,227.05078125,-18.06640625,-194.82421875,13.18359375,0.0
1676923739.8137417,218.75,-104.00390625,-234.375,13.671875,0.0
1676923739.8174834,223.6328125,-495.60546875,-544.43359375,6.8359375,0.0
1676923739.8212252,271.484375,-683.10546875,-708.984375,4.8828125,0.0
1676923739.8249667,319.3359375,-220.21484375,-360.83984375,-1.46484375,0.0
1676923739.8287084,311.03515625,-104.4921875,-278.3203125,13.671875,0.0
1676923739.83245,295.8984375,-476.07421875,-563.4765625,4.8828125,0.0
1676923739.8361917,343.26171875,-349.609375,-480.46875,-13.671875,0.0
1676923739.8399355,377.9296875,129.8828125,-129.8828125,-2.44140625,0.0
1676923739.8436792,366.69921875,82.51953125,-161.1328125,-8.7890625,0.0
1676923739.847423,329.58984375,-153.3203125,-348.14453125,-26.3671875,0.0
1676923739.8511667,314.94140625,-68.359375,-285.64453125,-26.85546875,0.0
1676923739.8549106,337.890625,34.1796875,-201.66015625,-15.625,0.0
1676923739.8586545,375.0,-126.953125,-300.78125,10.7421875,0.0
1676923739.8623981,354.98046875,-659.66796875,-712.890625,18.06640625,0.0
1676923739.866142,328.125,-585.9375,-690.91796875,-3.41796875,0.0
1676923739.8698857,371.58203125,114.74609375,-144.04296875,-5.859375,0.0
1676923739.8736296,410.64453125,41.9921875,-178.22265625,22.4609375,0.0
1676923739.8773732,389.16015625,-127.44140625,-315.4296875,27.83203125,0.0
1676923739.881117,355.46875,-84.47265625,-287.109375,26.3671875,0.0
1676923739.8849683,357.91015625,-106.4453125,-297.36328125,32.71484375,0.0
1676923739.8888195,393.5546875,-160.15625,-336.9140625,47.8515625,0.0
1676923739.8926706,381.8359375,-315.4296875,-437.5,67.3828125,0.0
1676923739.8965216,317.87109375,-67.87109375,-251.46484375,49.8046875,0.0
1676923739.9003727,315.4296875,111.81640625,-100.5859375,35.64453125,0.0
1676923739.904224,359.375,-304.19921875,-380.859375,74.21875,0.0
1676923739.908075,361.81640625,-663.57421875,-663.57421875,83.0078125,0.0
1676923739.9119263,325.68359375,-134.765625,-260.7421875,37.109375,0.0
1676923739.9157772,323.73046875,214.35546875,22.4609375,31.73828125,0.0
1676923739.9196284,347.65625,-160.64453125,-273.4375,53.22265625,0.0
1676923739.9234796,392.08984375,-193.84765625,-308.10546875,70.80078125,0.0
1676923739.9273307,395.01953125,121.58203125,-63.4765625,66.40625,0.0
1676923739.9322302,355.46875,54.19921875,-131.34765625,53.7109375,0.0
1676923739.9371295,337.40234375,-130.37109375,-271.97265625,40.0390625,0.0
1676923739.942029,370.60546875,-152.83203125,-264.6484375,48.828125,0.0
1676923739.9469285,405.76171875,-163.57421875,-269.53125,56.15234375,0.0
1676923739.951828,356.93359375,-33.69140625,-178.7109375,20.5078125,0.0
1676923739.9567275,316.40625,-537.109375,-599.12109375,32.71484375,0.0
1676923739.9616268,353.515625,-789.55078125,-823.73046875,55.6640625,0.0
1676923739.9665263,389.6484375,-46.38671875,-220.703125,39.0625,0.0
1676923739.9714258,343.26171875,17.578125,-165.0390625,23.4375,0.0
1676923739.976325,302.24609375,-239.2578125,-364.2578125,6.34765625,0.0
1676923739.9812245,354.00390625,-63.96484375,-232.421875,-0.48828125,0.0
1676923739.986124,406.73828125,156.73828125,-61.03515625,13.671875,0.0
1676923739.989849,353.515625,-55.17578125,-203.61328125,22.4609375,0.0
1676923739.9935744,307.6171875,-209.9609375,-332.03125,7.8125,0.0
1676923739.9972997,367.1875,-13.18359375,-202.63671875,4.39453125,0.0
1676923740.0010247,414.55078125,111.81640625,-98.14453125,26.3671875,0.0
1676923740.0047498,353.02734375,-110.3515625,-257.32421875,33.69140625,0.0
1676923740.008475,283.69140625,-445.3125,-523.4375,10.7421875,0.0
1676923740.0122004,312.5,-425.29296875,-513.18359375,-6.34765625,0.0
1676923740.0159254,388.671875,-151.3671875,-303.7109375,5.859375,0.0
1676923740.0196505,316.89453125,-272.4609375,-398.92578125,24.4140625,0.0
1676923740.0233757,281.25,-887.6953125,-902.83203125,14.6484375,0.0
1676923740.027101,396.97265625,-405.2734375,-530.2734375,-14.16015625,0.0
1676923740.030826,439.453125,99.12109375,-102.05078125,8.7890625,0.0
1676923740.0345685,395.5078125,-129.8828125,-283.69140625,31.73828125,0.0
1676923740.0383112,284.66796875,-115.72265625,-269.53125,6.8359375,0.0
1676923740.0420537,256.8359375,60.05859375,-131.8359375,-19.53125,0.0
1676923740.0457964,307.12890625,10.7421875,-146.97265625,-5.37109375,0.0
1676923740.0495389,333.49609375,-170.41015625,-267.08984375,21.97265625,0.0
1676923740.0532813,265.625,-376.953125,-420.8984375,12.6953125,0.0
1676923740.057024,201.66015625,-224.12109375,-297.36328125,-4.8828125,0.0
1676923740.0607665,241.69921875,1.46484375,-124.51171875,1.953125,0.0
1676923740.0645092,268.06640625,-440.4296875,-451.171875,16.11328125,0.0
1676923740.0682516,224.12109375,-547.36328125,-533.69140625,6.34765625,0.0
1676923740.0719943,181.640625,-59.5703125,-183.10546875,-20.99609375,0.0
1676923740.0757368,208.984375,-31.73828125,-151.85546875,-21.484375,0.0
1676923740.0794992,230.95703125,-710.44921875,-715.33203125,-2.9296875,0.0
1676923740.0832617,192.3828125,-625.9765625,-663.57421875,-24.90234375,0.0
1676923740.0870242,145.01953125,52.734375,-78.61328125,-48.828125,0.0
1676923740.0907867,156.25,-150.390625,-249.0234375,-48.828125,0.0
1676923740.0945492,229.4921875,-293.9453125,-364.2578125,-45.41015625,0.0
1676923740.0983117,245.60546875,-323.73046875,-369.140625,-37.109375,0.0
1676923740.1020741,195.80078125,-264.16015625,-340.8203125,-61.03515625,0.0
1676923740.1058366,187.5,-366.2109375,-442.3828125,-61.5234375,0.0
1676923740.109599,228.02734375,-715.8203125,-722.65625,-43.45703125,0.0
1676923740.1133616,277.83203125,-208.0078125,-339.35546875,-41.50390625,0.0
1676923740.117124,227.5390625,95.21484375,-90.33203125,-59.5703125,0.0
1676923740.1208866,159.1796875,-224.12109375,-342.28515625,-100.09765625,0.0
1676923740.1247518,205.56640625,-471.6796875,-537.109375,-97.65625,0.0
1676923740.1286168,260.25390625,-174.31640625,-297.36328125,-86.9140625,0.0
1676923740.132482,228.515625,27.34375,-155.76171875,-85.9375,0.0
1676923740.1363473,143.06640625,-380.37109375,-472.65625,-103.515625,0.0
1676923740.1402123,153.80859375,-437.5,-512.20703125,-111.328125,0.0
1676923740.1440775,204.1015625,-288.57421875,-381.8359375,-85.44921875,0.0
1676923740.1479428,155.76171875,-366.2109375,-433.10546875,-76.171875,0.0
1676923740.1518078,83.984375,-717.28515625,-756.34765625,-89.35546875,0.0
1676923740.155673,87.890625,-615.234375,-695.80078125,-105.95703125,0.0
1676923740.1595383,146.484375,-14.6484375,-201.66015625,-90.8203125,0.0
1676923740.1634033,156.73828125,-74.21875,-229.98046875,-55.17578125,0.0
1676923740.1672685,113.28125,-230.95703125,-348.6328125,-51.26953125,0.0
1676923740.1709123,112.3046875,-80.56640625,-233.3984375,-60.05859375,0.0
1676923740.1745558,161.62109375,74.70703125,-98.6328125,-62.01171875,0.0
1676923740.1781995,186.03515625,-214.35546875,-305.17578125,-40.0390625,0.0
1676923740.181843,170.8984375,-404.296875,-440.91796875,-42.96875,0.0
1676923740.1854868,130.859375,-90.8203125,-213.8671875,-87.40234375,0.0
1676923740.1891303,135.7421875,-189.94140625,-297.8515625,-85.9375,0.0
1676923740.192774,195.3125,-548.828125,-553.7109375,-43.9453125,0.0
1676923740.1964178,178.22265625,-929.19921875,-907.2265625,-37.59765625,0.0
1676923740.2000613,133.7890625,-494.140625,-599.12109375,-85.9375,0.0
1676923740.203705,198.2421875,77.1484375,-103.515625,-86.9140625,0.0
1676923740.2073486,270.5078125,-163.57421875,-291.50390625,-48.33984375,0.0
1676923740.2109923,280.76171875,-190.4296875,-314.453125,-31.73828125,0.0
1676923740.2147555,239.2578125,1.46484375,-158.203125,-51.7578125,0.0
1676923740.2185187,198.73046875,0.0,-161.1328125,-67.87109375,0.0
1676923740.222282,247.55859375,-188.4765625,-309.5703125,-45.41015625,0.0
1676923740.2260451,301.26953125,-125.48828125,-258.30078125,-30.76171875,0.0
1676923740.2298083,258.30078125,33.69140625,-126.953125,-41.015625,0.0
1676923740.2335715,222.16796875,-175.29296875,-272.4609375,-41.9921875,0.0
1676923740.2373347,255.859375,-712.40234375,-723.14453125,-22.94921875,0.0
1676923740.241098,300.78125,-731.4453125,-780.2734375,-0.9765625,0.0
1676923740.2448611,280.76171875,-17.578125,-206.54296875,-16.6015625,0.0
1676923740.2486243,213.8671875,-17.08984375,-206.0546875,-30.2734375,0.0
1676923740.2523875,229.98046875,-285.15625,-404.78515625,-22.94921875,0.0
1676923740.2561507,296.875,-59.5703125,-220.703125,-12.6953125,0.0
1676923740.2599053,280.2734375,130.37109375,-68.359375,-1.46484375,0.0
1676923740.2636597,199.21875,-97.65625,-241.69921875,-7.32421875,0.0
1676923740.2674143,181.640625,-269.04296875,-384.765625,-20.5078125,0.0
1676923740.271169,231.93359375,-78.125,-221.6796875,-16.11328125,0.0
1676923740.2749233,247.55859375,53.22265625,-105.46875,-9.765625,0.0
1676923740.278678,182.6171875,-386.23046875,-438.4765625,-9.27734375,0.0
1676923740.2824326,152.34375,-691.89453125,-682.6171875,-35.15625,0.0
1676923740.286187,217.28515625,-142.08984375,-258.7890625,-57.12890625,0.0
1676923740.2899415,263.18359375,112.3046875,-41.50390625,-35.15625,0.0
1676923740.2936962,208.984375,-428.7109375,-440.91796875,-29.296875,0.0
1676923740.2974505,147.94921875,-732.421875,-703.61328125,-69.3359375,0.0
1676923740.3012052,187.98828125,-107.91015625,-244.62890625,-82.51953125,0.0
1676923740.3062105,236.81640625,97.16796875,-78.61328125,-47.36328125,0.0
1676923740.311216,187.98828125,-186.5234375,-295.41015625,-57.12890625,0.0
1676923740.3162217,129.8828125,-179.6875,-307.6171875,-101.07421875,0.0
1676923740.321227,173.33984375,15.625,-171.38671875,-112.3046875,0.0
1676923740.3262324,215.8203125,-0.9765625,-167.48046875,-94.7265625,0.0
1676923740.331238,165.0390625,-333.49609375,-393.06640625,-90.33203125,0.0
1676923740.3362436,96.19140625,-542.48046875,-566.89453125,-122.55859375,0.0
1676923740.341249,103.515625,-174.8046875,-311.5234375,-156.25,0.0
1676923740.3462543,166.015625,1.46484375,-172.36328125,-135.7421875,0.0
1676923740.35126,166.015625,-503.41796875,-555.17578125,-128.90625,0.0
1676923740.3562655,74.70703125,-416.9921875,-484.86328125,-187.01171875,0.0
1676923740.361271,23.4375,-11.71875,-163.57421875,-222.16796875,0.0
1676923740.365006,42.96875,-300.29296875,-367.67578125,-213.8671875,0.0
1676923740.368741,49.8046875,-493.65234375,-511.23046875,-202.63671875,0.0
1676923740.372476,11.71875,-176.26953125,-285.64453125,-235.83984375,0.0
1676923740.376211,8.7890625,24.90234375,-139.16015625,-256.34765625,0.0
1676923740.379946,32.2265625,-210.44921875,-307.12890625,-278.3203125,0.0
1676923740.383681,15.625,-489.2578125,-508.30078125,-316.89453125,0.0
1676923740.3874161,-28.80859375,-322.75390625,-381.8359375,-325.68359375,0.0
1676923740.3911512,-59.5703125,24.90234375,-131.34765625,-333.49609375,0.0
1676923740.394886,-39.55078125,-334.9609375,-421.875,-312.98828125,0.0
1676923740.398621,11.71875,-780.2734375,-796.875,-281.25,0.0
1676923740.4023561,17.578125,-211.42578125,-339.35546875,-311.5234375,0.0
1676923740.4060912,-18.06640625,39.0625,-117.1875,-327.1484375,0.0
1676923740.4098442,5.859375,-222.65625,-345.703125,-298.828125,0.0
1676923740.4135969,96.19140625,-172.8515625,-314.94140625,-259.765625,0.0
1676923740.4173498,160.15625,-53.22265625,-199.70703125,-206.54296875,0.0
1676923740.4211028,133.30078125,-233.3984375,-322.75390625,-179.19921875,0.0
1676923740.4248555,119.62890625,-552.734375,-583.984375,-168.45703125,0.0
1676923740.4286084,194.82421875,-654.296875,-652.34375,-117.1875,0.0
1676923740.4323614,270.99609375,-270.01953125,-337.890625,-63.4765625,0.0
1676923740.436114,261.71875,-63.4765625,-179.19921875,-41.015625,0.0
1676923740.439867,250.9765625,-430.6640625,-476.5625,-15.625,0.0
1676923740.44362,297.8515625,-333.0078125,-414.55078125,0.0,0.0
1676923740.4473727,360.83984375,87.40234375,-87.40234375,23.4375,0.0
1676923740.4511256,372.55859375,-45.8984375,-184.08203125,64.453125,0.0
1676923740.454855,326.171875,-545.41015625,-571.77734375,69.3359375,0.0
1676923740.4585843,363.28125,-348.14453125,-442.3828125,64.94140625,0.0
1676923740.4623137,460.9375,84.9609375,-104.00390625,93.26171875,0.0
1676923740.466043,473.14453125,-141.6015625,-268.5546875,111.328125,0.0
1676923740.4697723,420.8984375,-294.921875,-384.765625,100.5859375,0.0
1676923740.4735017,411.62109375,-294.43359375,-389.16015625,95.21484375,0.0
1676923740.4772313,467.7734375,-333.49609375,-421.38671875,97.65625,0.0
1676923740.4809606,501.46484375,-493.1640625,-518.5546875,122.0703125,0.0
1676923740.48469,436.5234375,-919.921875,-905.2734375,121.58203125,0.0
1676923740.4884193,408.203125,-468.26171875,-585.9375,76.171875,0.0
1676923740.4921486,467.7734375,43.45703125,-151.85546875,76.171875,0.0
1676923740.495878,510.7421875,-246.09375,-371.09375,100.5859375,0.0
1676923740.499649,451.66015625,-270.99609375,-384.27734375,94.7265625,0.0
1676923740.5034199,398.92578125,38.57421875,-150.87890625,81.54296875,0.0
1676923740.507191,448.2421875,53.22265625,-126.46484375,90.33203125,0.0
1676923740.510962,491.2109375,-129.39453125,-261.71875,100.5859375,0.0
1676923740.514733,455.56640625,-113.76953125,-257.8125,87.890625,0.0
1676923740.5185041,387.6953125,-227.05078125,-336.9140625,66.89453125,0.0
1676923740.522275,407.71484375,-323.73046875,-395.99609375,57.12890625,0.0
1676923740.526046,461.42578125,-644.04296875,-687.5,82.03125,0.0
1676923740.529817,460.44921875,-671.875,-714.35546875,103.515625,0.0
1676923740.533588,407.71484375,-183.59375,-303.7109375,88.8671875,0.0
1676923740.537359,373.53515625,-145.5078125,-294.921875,72.75390625,0.0
1676923740.54113,414.55078125,-268.06640625,-400.390625,72.75390625,0.0
1676923740.5448802,435.546875,-174.31640625,-315.4296875,77.63671875,0.0
1676923740.5486302,358.88671875,47.36328125,-135.7421875,66.40625,0.0
1676923740.55238,310.546875,-120.60546875,-275.390625,52.734375,0.0
1676923740.5561302,350.09765625,-383.30078125,-479.00390625,54.19921875,0.0
1676923740.5598803,400.87890625,-83.49609375,-257.8125,61.03515625,0.0
1676923740.5636303,371.58203125,-120.1171875,-289.55078125,57.12890625,0.0
1676923740.5673804,312.98828125,-530.76171875,-593.26171875,48.828125,0.0
1676923740.5711305,329.1015625,-726.5625,-770.99609375,46.38671875,0.0
1676923740.5748806,380.37109375,-186.5234375,-367.1875,45.8984375,0.0
1676923740.5786304,358.88671875,138.671875,-95.703125,57.6171875,0.0
1676923740.5823805,292.96875,-111.328125,-290.0390625,49.8046875,0.0
1676923740.5861306,292.48046875,-208.0078125,-350.5859375,45.41015625,0.0
1676923740.5899804,321.77734375,-142.08984375,-287.109375,59.08203125,0.0
1676923740.59383,325.68359375,4.39453125,-177.24609375,72.265625,0.0
1676923740.5976796,270.99609375,-267.578125,-379.8828125,63.4765625,0.0
1676923740.6015294,237.3046875,-307.12890625,-411.62109375,30.2734375,0.0
1676923740.605379,292.48046875,17.08984375,-167.96875,34.66796875,0.0
1676923740.6092286,312.98828125,-102.05078125,-244.62890625,64.453125,0.0
1676923740.6130784,235.83984375,-625.9765625,-638.671875,61.03515625,0.0
1676923740.616928,213.37890625,-560.546875,-601.5625,37.109375,0.0
1676923740.6207778,279.78515625,93.75,-90.33203125,28.80859375,0.0
1676923740.6246276,325.68359375,-121.58203125,-262.6953125,53.22265625,0.0
1676923740.628477,303.22265625,-187.5,-324.21875,51.26953125,0.0
1676923740.6323268,269.04296875,90.8203125,-109.375,22.4609375,0.0
1676923740.6372828,296.875,203.61328125,-27.83203125,25.87890625,0.0
1676923740.6422386,333.984375,17.08984375,-180.17578125,49.31640625,0.0
1676923740.6471944,303.7109375,-246.58203125,-373.046875,44.921875,0.0
1676923740.6521504,243.65234375,-182.12890625,-311.5234375,26.3671875,0.0
1676923740.6571064,242.1875,27.34375,-172.8515625,17.578125,0.0
1676923740.6620622,289.0625,-219.23828125,-345.703125,41.9921875,0.0
1676923740.667018,289.0625,-884.27734375,-859.375,56.640625,0.0
1676923740.671974,239.2578125,-481.4453125,-562.98828125,12.6953125,0.0
1676923740.67693,235.3515625,183.10546875,-42.96875,-9.27734375,0.0
1676923740.6818857,280.2734375,-32.2265625,-203.61328125,7.8125,0.0
1676923740.6868415,315.91796875,-46.38671875,-206.54296875,29.296875,0.0
1676923740.6917975,281.25,175.78125,-44.921875,29.296875,0.0
1676923740.6954918,238.28125,137.20703125,-74.21875,13.671875,0.0
1676923740.699186,250.9765625,-60.05859375,-232.91015625,10.25390625,0.0
1676923740.7028804,286.62109375,-21.484375,-197.75390625,29.78515625,0.0
1676923740.7065747,270.5078125,184.5703125,-39.0625,31.73828125,0.0
1676923740.710269,205.078125,124.0234375,-82.51953125,18.5546875,0.0
1676923740.7139635,197.265625,-225.09765625,-332.51953125,24.4140625,0.0
1676923740.7176578,210.9375,-371.09375,-444.82421875,33.69140625,0.0
1676923740.721352,167.96875,-152.34375,-272.94921875,33.203125,0.0
1676923740.7250464,117.1875,74.70703125,-94.23828125,21.484375,0.0
1676923740.7287407,57.12890625,-563.96484375,-607.421875,25.390625,0.0
1676923740.732435,-11.71875,-828.125,-840.33203125,17.578125,0.0
1676923740.7361293,-20.99609375,10.7421875,-141.11328125,5.859375,0.0
