timestamps,TP9,Fp1,Fp2,TP10,stim
1676922178.4306118,-20.5078125,9.765625,-30.76171875,-22.94921875,0.0
1676922178.4332697,-8.7890625,-13.671875,-30.2734375,-46.875,0.0
1676922178.4359274,-18.06640625,-51.26953125,-40.52734375,-24.4140625,0.0
1676922178.4385853,-21.97265625,-60.546875,-49.31640625,-14.16015625,0.0
1676922178.442315,0.48828125,-30.76171875,-44.921875,-35.15625,0.0
1676922178.446045,2.44140625,-16.6015625,-34.1796875,-47.36328125,0.0
1676922178.4497745,-6.34765625,-19.53125,-37.59765625,-38.57421875,0.0
1676922178.4535043,-14.6484375,-16.6015625,-26.85546875,-8.7890625,0.0
1676922178.4572341,-24.90234375,-10.25390625,-26.85546875,3.90625,0.0
1676922178.4609637,-40.52734375,-32.2265625,-41.015625,-26.3671875,0.0
1676922178.4646935,-39.0625,-48.828125,-20.99609375,-9.765625,0.0
1676922178.4684234,-47.8515625,-35.15625,-27.34375,1.953125,0.0
1676922178.4721532,-56.640625,-31.25,-33.203125,-43.45703125,0.0
1676922178.475883,-38.57421875,-39.55078125,-25.390625,-56.640625,0.0
1676922178.4796126,-25.87890625,-12.20703125,-28.3203125,-41.015625,0.0
1676922178.4833424,-12.20703125,4.8828125,-33.69140625,-27.34375,0.0
1676922178.4869604,-30.76171875,-22.4609375,-40.0390625,-27.83203125,0.0
1676922178.4905782,-32.2265625,-36.1328125,-37.109375,-47.8515625,0.0
1676922178.4941962,-10.7421875,-33.203125,-29.78515625,-42.96875,0.0
1676922178.4978142,-20.01953125,-37.109375,-45.8984375,-22.94921875,0.0
1676922178.5014322,-48.828125,-40.52734375,-45.41015625,-22.94921875,0.0
1676922178.5050502,-35.15625,-35.64453125,-20.01953125,-15.625,0.0
1676922178.508668,-10.25390625,-27.34375,-0.9765625,-12.20703125,0.0
1676922178.512286,-18.5546875,-1.46484375,-4.8828125,-26.3671875,0.0
1676922178.515904,-22.94921875,-0.9765625,-32.2265625,-15.625,0.0
1676922178.5195217,-18.5546875,-26.3671875,-44.921875,-9.765625,0.0
1676922178.5231397,-12.6953125,-33.203125,-37.109375,-30.2734375,0.0
1676922178.5267577,-16.6015625,-34.66796875,-28.80859375,-22.94921875,0.0
1676922178.5317473,-25.390625,-45.8984375,-21.97265625,-5.37109375,0.0
1676922178.536737,-31.25,-36.1328125,-24.90234375,-12.20703125,0.0
1676922178.5417266,-37.59765625,-17.08984375,-22.94921875,-21.484375,0.0
1676922178.5467165,-20.99609375,-9.27734375,-11.23046875,-33.203125,0.0
1676922178.551706,-12.20703125,-17.08984375,-18.06640625,-25.390625,0.0
1676922178.5566957,-30.2734375,-33.203125,-21.97265625,-8.30078125,0.0
1676922178.5616853,-35.64453125,-38.57421875,-30.76171875,-20.5078125,0.0
1676922178.566675,-39.55078125,-44.43359375,-43.9453125,-37.59765625,0.0
1676922178.5716648,-25.87890625,-48.828125,-39.0625,-22.94921875,0.0
1676922178.5766544,-18.06640625,-41.015625,-40.52734375,-17.08984375,0.0
1676922178.581644,-30.2734375,-40.52734375,-46.875,-31.73828125,0.0
1676922178.5866337,-14.16015625,-34.1796875,-33.203125,-28.3203125,0.0
1676922178.5903964,-12.6953125,-45.41015625,-31.73828125,-11.71875,0.0
1676922178.5941591,-36.62109375,-67.3828125,-46.875,-6.8359375,0.0
1676922178.5979218,-31.25,-23.4375,-36.62109375,-16.11328125,0.0
1676922178.6016846,-12.20703125,-6.34765625,-30.2734375,-33.203125,0.0
1676922178.6054473,-13.18359375,-33.203125,-33.69140625,-49.8046875,0.0
1676922178.60921,-21.97265625,-45.41015625,-31.73828125,-42.48046875,0.0
1676922178.6129725,-30.2734375,-40.0390625,-26.3671875,-32.2265625,0.0
1676922178.6167352,-34.66796875,-16.6015625,-21.97265625,-41.50390625,0.0
1676922178.620498,-26.3671875,-25.87890625,-24.90234375,-41.9921875,0.0
1676922178.6242607,-32.71484375,-59.5703125,-37.59765625,-27.34375,0.0
1676922178.6280234,-34.66796875,-43.9453125,-39.55078125,-29.296875,0.0
1676922178.631786,-23.92578125,-16.11328125,-32.71484375,-30.2734375,0.0
1676922178.6355252,-38.0859375,-44.43359375,-41.50390625,-50.29296875,0.0
1676922178.6392643,-39.55078125,-55.17578125,-39.0625,-41.015625,0.0
1676922178.6430035,-22.4609375,-27.34375,-20.01953125,-11.71875,0.0
1676922178.6467428,-18.06640625,-31.73828125,-16.6015625,-23.92578125,0.0
1676922178.650482,-27.34375,-44.43359375,-37.59765625,-54.19921875,0.0
1676922178.654221,-10.7421875,-35.64453125,-25.390625,-47.8515625,0.0
1676922178.6579602,-14.6484375,-22.4609375,-16.6015625,-24.4140625,0.0
1676922178.6616993,-23.4375,-21.484375,-39.55078125,-21.484375,0.0
1676922178.6654387,-29.78515625,-42.96875,-42.48046875,-20.5078125,0.0
1676922178.6691778,-35.64453125,-34.66796875,-46.38671875,-31.25,0.0
1676922178.672917,-29.296875,-18.5546875,-45.8984375,-21.484375,0.0
1676922178.676656,-23.4375,-38.0859375,-34.1796875,-12.20703125,0.0
1676922178.6804519,-25.87890625,-36.62109375,-27.34375,-31.25,0.0
1676922178.6842477,-29.78515625,-13.18359375,-38.57421875,-38.57421875,0.0
1676922178.6880436,-29.78515625,-16.6015625,-34.66796875,-28.3203125,0.0
1676922178.6918395,-45.8984375,-36.62109375,-28.80859375,-28.3203125,0.0
1676922178.6956353,-53.22265625,-47.36328125,-45.8984375,-29.296875,0.0
1676922178.699431,-33.69140625,-43.45703125,-42.48046875,-39.0625,0.0
1676922178.7032268,-15.625,-24.4140625,-30.2734375,-25.390625,0.0
1676922178.7070227,-22.4609375,-40.0390625,-20.5078125,12.20703125,0.0
1676922178.7108185,-36.62109375,-52.734375,-20.5078125,7.32421875,0.0
1676922178.7146144,-31.73828125,-20.01953125,-40.0390625,-30.2734375,0.0
1676922178.7184103,-53.22265625,-28.3203125,-49.8046875,-26.85546875,0.0
1676922178.722206,-64.94140625,-54.19921875,-37.59765625,-10.25390625,0.0
1676922178.7259111,-60.05859375,-58.59375,-41.50390625,-7.8125,0.0
1676922178.7296162,-48.828125,-49.8046875,-41.50390625,-8.7890625,0.0
1676922178.733321,-25.87890625,-32.2265625,-34.1796875,-12.6953125,0.0
1676922178.737026,-37.109375,-16.11328125,-25.390625,-5.37109375,0.0
1676922178.740731,-54.6875,-21.97265625,-27.34375,-8.30078125,0.0
1676922178.7444358,-51.7578125,-39.0625,-49.8046875,-18.06640625,0.0
1676922178.7481408,-41.50390625,-36.62109375,-47.36328125,-20.99609375,0.0
1676922178.7518458,-43.45703125,-52.24609375,-35.64453125,-3.90625,0.0
1676922178.7555509,-45.41015625,-40.52734375,-23.92578125,-3.90625,0.0
1676922178.759256,-35.64453125,-20.01953125,-27.34375,-31.25,0.0
1676922178.7629607,-39.55078125,-39.55078125,-28.80859375,-34.66796875,0.0
1676922178.7666657,-44.921875,-30.76171875,-20.5078125,-13.671875,0.0
1676922178.7704158,-38.0859375,-22.4609375,-16.11328125,-9.765625,0.0
1676922178.774166,-42.96875,-31.25,-33.203125,-19.53125,0.0
1676922178.7779162,-46.875,-28.80859375,-41.50390625,-21.97265625,0.0
1676922178.7816665,-33.69140625,-14.16015625,-33.203125,-16.11328125,0.0
1676922178.7854166,-36.1328125,-10.7421875,-21.484375,13.18359375,0.0
1676922178.789167,-39.55078125,-16.6015625,-5.859375,30.2734375,0.0
1676922178.792917,-27.34375,-33.203125,-4.8828125,12.6953125,0.0
1676922178.796667,-26.85546875,-42.48046875,-22.4609375,-2.9296875,0.0
1676922178.8004174,-38.0859375,-19.04296875,-28.80859375,1.953125,0.0
1676922178.8041675,-37.109375,-22.4609375,-36.1328125,0.0,0.0
1676922178.8079178,-36.62109375,-32.2265625,-39.55078125,-15.625,0.0
1676922178.811668,-43.45703125,-6.8359375,-40.52734375,-19.53125,0.0
1676922178.8166714,-35.64453125,10.25390625,-39.0625,-19.53125,0.0
1676922178.821675,-30.2734375,-10.7421875,-29.296875,-12.6953125,0.0
1676922178.8266785,-37.109375,-25.390625,-20.99609375,-19.53125,0.0
1676922178.831682,-31.25,-23.92578125,-25.390625,-38.0859375,0.0
1676922178.8366857,-13.671875,-30.76171875,-39.55078125,-28.3203125,0.0
1676922178.841689,-12.6953125,-42.48046875,-30.76171875,-19.53125,0.0
1676922178.8466926,-27.34375,-51.7578125,-26.3671875,-14.16015625,0.0
1676922178.8516963,-24.4140625,-26.85546875,-33.69140625,-22.94921875,0.0
1676922178.8566997,-9.27734375,5.859375,-23.92578125,-21.97265625,0.0
1676922178.8617032,-22.94921875,-15.13671875,-27.83203125,-10.25390625,0.0
1676922178.8667068,-45.8984375,-44.921875,-40.52734375,-9.765625,0.0
1676922178.8717103,-41.50390625,-47.8515625,-26.85546875,-8.30078125,0.0
1676922178.8767054,-35.15625,-40.52734375,-28.3203125,-22.94921875,0.0
1676922178.8817005,-32.71484375,-34.1796875,-44.921875,-23.92578125,0.0
1676922178.8866954,-49.8046875,-43.45703125,-55.17578125,-29.78515625,0.0
1676922178.8916905,-50.29296875,-43.45703125,-50.78125,-34.66796875,0.0
1676922178.8966856,-27.83203125,-22.4609375,-30.76171875,-33.69140625,0.0
1676922178.9016805,-17.08984375,-21.97265625,-29.296875,-21.484375,0.0
1676922178.9066756,-32.71484375,-44.43359375,-36.62109375,-18.06640625,0.0
1676922178.9116707,-41.9921875,-48.828125,-26.3671875,-29.78515625,0.0
1676922178.9166658,-28.80859375,-41.015625,-29.296875,-48.33984375,0.0
1676922178.921661,-39.55078125,-59.5703125,-48.33984375,-46.38671875,0.0
1676922178.9266558,-42.48046875,-58.10546875,-41.9921875,-33.203125,0.0
1676922178.9316509,-47.36328125,-43.9453125,-42.48046875,-47.8515625,0.0
1676922178.9341495,-51.7578125,-21.97265625,-44.43359375,-51.7578125,0.0
1676922178.9366481,-35.64453125,-7.32421875,-37.59765625,-41.9921875,0.0
1676922178.9391468,-32.71484375,-17.08984375,-32.71484375,-32.71484375,0.0
1676922178.9416454,-56.640625,-19.53125,-33.203125,-36.1328125,0.0
1676922178.944144,-57.12890625,-22.94921875,-21.484375,-39.0625,0.0
1676922178.9466429,-44.43359375,-27.34375,-27.34375,-30.76171875,0.0
1676922178.9491415,-43.45703125,-40.0390625,-53.7109375,-21.484375,0.0
1676922178.9516401,-51.7578125,-41.50390625,-52.24609375,-26.85546875,0.0
1676922178.9541388,-60.546875,-49.8046875,-44.43359375,-49.8046875,0.0
1676922178.9566374,-56.15234375,-60.05859375,-47.8515625,-58.59375,0.0
1676922178.959136,-48.828125,-42.48046875,-40.52734375,-50.29296875,0.0
1676922178.9616346,-48.828125,-10.7421875,-23.4375,-18.06640625,0.0
1676922178.965601,-41.015625,-29.296875,-18.5546875,-20.5078125,0.0
1676922178.9695673,-34.1796875,-56.15234375,-26.85546875,-51.26953125,0.0
1676922178.9735336,-20.5078125,-15.625,-14.6484375,-49.31640625,0.0
1676922178.9775,-24.4140625,-0.9765625,-1.46484375,-37.109375,0.0
1676922178.9814663,-52.734375,-43.45703125,-34.66796875,-22.94921875,0.0
1676922178.9854326,-37.109375,-66.40625,-51.7578125,-33.69140625,0.0
1676922178.9893992,-25.87890625,-45.41015625,-39.55078125,-57.12890625,0.0
1676922178.9933655,-20.01953125,-20.01953125,-23.92578125,-40.0390625,0.0
1676922178.9973319,-15.625,-19.04296875,-10.25390625,-20.5078125,0.0
1676922179.0012982,-23.4375,-19.53125,-19.53125,-17.08984375,0.0
1676922179.0052645,-32.2265625,-20.5078125,-30.2734375,-33.203125,0.0
1676922179.0092309,-36.62109375,-38.57421875,-15.13671875,-32.2265625,0.0
1676922179.0128684,-54.6875,-50.29296875,-38.0859375,-21.97265625,0.0
1676922179.016506,-63.4765625,-51.26953125,-58.59375,-33.69140625,0.0
1676922179.0201435,-46.38671875,-41.9921875,-47.36328125,-48.828125,0.0
1676922179.023781,-34.1796875,-35.64453125,-33.203125,-33.203125,0.0
1676922179.0274186,-31.25,-15.625,-13.18359375,-11.71875,0.0
1676922179.0310564,-31.73828125,-23.92578125,-22.94921875,-19.04296875,0.0
1676922179.034694,-37.109375,-48.33984375,-38.57421875,-49.8046875,0.0
1676922179.0383315,-59.5703125,-49.8046875,-39.55078125,-64.94140625,0.0
1676922179.041969,-60.546875,-66.89453125,-19.53125,-34.1796875,0.0
1676922179.0456066,-56.15234375,-49.31640625,-16.6015625,-25.390625,0.0
1676922179.0492442,-53.22265625,-27.34375,-43.45703125,-52.734375,0.0
1676922179.0528817,-39.0625,-33.203125,-31.73828125,-57.6171875,0.0
1676922179.056528,-36.1328125,-42.96875,-32.2265625,-46.38671875,0.0
1676922179.0601745,-39.55078125,-47.36328125,-51.7578125,-37.59765625,0.0
1676922179.0638208,-31.25,-37.109375,-47.36328125,-39.0625,0.0
1676922179.0674672,-28.80859375,-24.90234375,-46.875,-46.875,0.0
1676922179.0711136,-27.34375,-17.578125,-44.43359375,-34.1796875,0.0
1676922179.07476,-13.671875,-8.30078125,-36.1328125,-22.4609375,0.0
1676922179.0784066,-28.3203125,-20.01953125,-35.15625,-45.41015625,0.0
1676922179.082053,-35.15625,-50.29296875,-35.15625,-51.26953125,0.0
1676922179.0856993,-36.1328125,-64.453125,-37.59765625,-23.92578125,0.0
1676922179.0893457,-34.66796875,-50.29296875,-51.7578125,-14.6484375,0.0
1676922179.092992,-48.33984375,-44.921875,-51.26953125,-30.2734375,0.0
1676922179.0966384,-48.828125,-58.10546875,-42.48046875,-34.66796875,0.0
1676922179.1004398,-36.62109375,-54.19921875,-41.015625,-24.4140625,0.0
1676922179.1042411,-41.9921875,-36.1328125,-30.76171875,-30.2734375,0.0
1676922179.1080422,-37.59765625,-36.62109375,-37.59765625,-32.2265625,0.0
1676922179.1118436,-29.78515625,-27.83203125,-40.52734375,-36.1328125,0.0
1676922179.115645,-28.80859375,-20.99609375,-38.0859375,-45.8984375,0.0
1676922179.1194463,-37.109375,-6.8359375,-40.52734375,-39.0625,0.0
1676922179.1232476,-37.59765625,-14.16015625,-24.4140625,-26.3671875,0.0
1676922179.127049,-44.921875,-58.59375,-39.0625,-31.73828125,0.0
1676922179.1308503,-58.10546875,-55.6640625,-50.29296875,-38.57421875,0.0
1676922179.1346514,-44.921875,-40.52734375,-34.66796875,-15.625,0.0
1676922179.1384528,-37.59765625,-44.43359375,-36.62109375,-0.48828125,0.0
1676922179.142254,-42.48046875,-39.0625,-41.015625,-13.18359375,0.0
1676922179.1460578,-37.109375,-34.1796875,-39.0625,-20.5078125,0.0
1676922179.1498613,-37.59765625,-39.0625,-31.25,-31.25,0.0
1676922179.153665,-48.828125,-53.22265625,-36.1328125,-20.01953125,0.0
1676922179.1574686,-49.31640625,-46.38671875,-42.96875,-7.8125,0.0
1676922179.1612723,-30.2734375,-18.06640625,-38.0859375,-45.41015625,0.0
1676922179.1650758,-4.8828125,-8.30078125,-24.4140625,-54.19921875,0.0
1676922179.1688795,-27.34375,-20.99609375,-19.04296875,-14.16015625,0.0
1676922179.1726832,-53.7109375,-45.41015625,-42.48046875,-23.4375,0.0
1676922179.1764867,-36.62109375,-42.96875,-42.48046875,-50.29296875,0.0
1676922179.1802905,-27.83203125,-36.62109375,-34.66796875,-54.6875,0.0
1676922179.184094,-37.59765625,-40.52734375,-39.55078125,-45.8984375,0.0
1676922179.1878977,-42.48046875,-36.62109375,-39.55078125,-36.1328125,0.0
1676922179.1940408,-47.36328125,-32.2265625,-38.57421875,-45.8984375,0.0
1676922179.2001839,-49.31640625,-34.66796875,-35.15625,-38.57421875,0.0
1676922179.206327,-44.921875,-40.0390625,-32.2265625,-30.76171875,0.0
1676922179.21247,-37.109375,-21.484375,-18.06640625,-11.71875,0.0
1676922179.2186131,-30.2734375,-6.34765625,-6.34765625,-2.44140625,0.0
1676922179.2247562,-46.38671875,-28.80859375,-32.71484375,-18.5546875,0.0
1676922179.2308993,-48.828125,-38.0859375,-41.50390625,-15.625,0.0
1676922179.2370424,-62.01171875,-30.76171875,-31.25,-10.7421875,0.0
1676922179.2431855,-74.21875,-13.18359375,-23.92578125,-20.5078125,0.0
1676922179.2493286,-50.78125,-18.5546875,-25.87890625,-26.85546875,0.0
1676922179.2554717,-51.7578125,-49.8046875,-32.71484375,-42.96875,0.0
1676922179.2616148,-51.26953125,-45.41015625,-30.76171875,-32.2265625,0.0
1676922179.264227,-55.17578125,-28.3203125,-33.69140625,-24.90234375,0.0
1676922179.266839,-57.12890625,-37.109375,-34.66796875,-41.9921875,0.0
1676922179.2694514,-41.015625,-41.9921875,-26.3671875,-40.52734375,0.0
1676922179.2720635,-37.109375,-28.3203125,-15.625,-27.83203125,0.0
1676922179.2746756,-40.0390625,-29.78515625,-20.01953125,-13.18359375,0.0
1676922179.277288,-39.55078125,-22.4609375,-33.203125,-18.06640625,0.0
1676922179.2799,-52.24609375,-31.73828125,-44.43359375,-45.8984375,0.0
1676922179.2825122,-48.33984375,-33.203125,-44.43359375,-44.921875,0.0
1676922179.2851243,-56.15234375,-33.69140625,-34.66796875,-25.390625,0.0
1676922179.2877364,-62.5,-56.640625,-28.80859375,-22.4609375,0.0
1676922179.2903488,-36.1328125,-53.22265625,-34.66796875,-28.3203125,0.0
1676922179.292961,-20.99609375,-18.06640625,-33.203125,-31.73828125,0.0
1676922179.296604,-24.90234375,-0.48828125,-23.4375,-13.671875,0.0
1676922179.300247,-40.52734375,-20.99609375,-26.3671875,0.48828125,0.0
1676922179.30389,-32.71484375,-38.57421875,-31.25,-6.34765625,0.0
1676922179.307533,-31.73828125,-29.78515625,-40.52734375,-35.15625,0.0
1676922179.311176,-52.734375,-44.43359375,-41.9921875,-46.38671875,0.0
1676922179.314819,-61.03515625,-50.78125,-29.78515625,-41.015625,0.0
1676922179.3184621,-62.5,-24.4140625,-21.97265625,-32.71484375,0.0
1676922179.3221052,-44.921875,-4.39453125,-27.83203125,-40.52734375,0.0
1676922179.3257482,-46.875,-14.16015625,-32.2265625,-31.73828125,0.0
1676922179.3293912,-50.78125,-44.921875,-32.71484375,-2.9296875,0.0
1676922179.3330343,-36.1328125,-32.71484375,-32.2265625,-22.4609375,0.0
1676922179.3366773,-33.203125,-16.6015625,-35.64453125,-58.10546875,0.0
1676922179.3404236,-27.83203125,-20.5078125,-16.11328125,-32.71484375,0.0
1676922179.3441699,-29.296875,-15.625,-10.7421875,0.0,0.0
1676922179.3479161,-37.109375,-20.99609375,-40.0390625,-23.92578125,0.0
1676922179.3516624,-24.4140625,-25.87890625,-42.48046875,-40.0390625,0.0
1676922179.3554087,-25.87890625,-33.203125,-49.31640625,-35.64453125,0.0
1676922179.3591547,-34.1796875,-42.96875,-43.9453125,-26.3671875,0.0
1676922179.362901,-40.52734375,-24.4140625,-32.2265625,-22.4609375,0.0
1676922179.3666472,-30.76171875,-1.46484375,-35.15625,-34.66796875,0.0
1676922179.3703935,-37.109375,-24.90234375,-36.62109375,-38.0859375,0.0
1676922179.3741398,-44.921875,-40.52734375,-32.2265625,-20.99609375,0.0
1676922179.377886,-49.31640625,-27.83203125,-31.25,-24.4140625,0.0
1676922179.3816323,-43.9453125,-21.484375,-27.83203125,-22.4609375,0.0
1676922179.385381,-21.97265625,-11.23046875,-22.94921875,-21.484375,0.0
1676922179.3891296,-20.99609375,-0.9765625,-35.64453125,-25.390625,0.0
1676922179.3928783,-39.55078125,-26.3671875,-42.96875,-22.4609375,0.0
1676922179.396627,-32.2265625,-58.10546875,-37.59765625,-26.3671875,0.0
1676922179.4003756,-16.6015625,-64.453125,-39.0625,-20.99609375,0.0
1676922179.4041243,-28.80859375,-48.33984375,-43.9453125,-13.671875,0.0
1676922179.4078732,-29.78515625,-25.87890625,-28.3203125,-2.9296875,0.0
1676922179.4116218,-22.4609375,-20.99609375,-29.296875,-12.6953125,0.0
1676922179.4153705,-27.34375,-19.53125,-37.109375,-25.87890625,0.0
1676922179.4191191,-20.99609375,2.44140625,-29.296875,-16.11328125,0.0
1676922179.4228678,-20.5078125,-0.9765625,-21.484375,-20.01953125,0.0
1676922179.4266164,-33.69140625,-47.36328125,-37.59765625,-30.76171875,0.0
1676922179.4305139,-39.0625,-64.94140625,-46.875,-44.921875,0.0
1676922179.4344113,-34.66796875,-46.38671875,-39.0625,-34.1796875,0.0
1676922179.4383087,-26.3671875,-36.1328125,-34.1796875,-14.6484375,0.0
1676922179.442206,-38.57421875,-39.55078125,-33.203125,3.41796875,0.0
1676922179.4461033,-40.0390625,-36.1328125,-40.52734375,0.0,0.0
1676922179.4500008,-20.01953125,-18.06640625,-32.71484375,-22.4609375,0.0
1676922179.4538982,-15.13671875,-7.8125,-26.3671875,-9.765625,0.0
1676922179.4577956,-28.3203125,-26.3671875,-33.203125,6.34765625,0.0
1676922179.4616928,-42.48046875,-30.76171875,-36.62109375,-1.953125,0.0
1676922179.4655902,-39.0625,-5.859375,-20.99609375,-27.83203125,0.0
1676922179.4694877,-34.1796875,-24.4140625,-16.6015625,-26.3671875,0.0
1676922179.473385,-37.59765625,-39.0625,-38.0859375,-1.953125,0.0
1676922179.476991,-51.7578125,-28.80859375,-36.62109375,-4.39453125,0.0
1676922179.480597,-41.50390625,-29.296875,-35.64453125,-29.296875,0.0
1676922179.4842029,-27.34375,-32.2265625,-43.45703125,-31.25,0.0
1676922179.4878087,-39.55078125,-29.78515625,-39.55078125,-30.76171875,0.0
1676922179.4914145,-48.828125,-35.15625,-38.0859375,-39.0625,0.0
1676922179.4950204,-41.015625,-51.26953125,-36.62109375,-35.64453125,0.0
1676922179.4986265,-30.76171875,-31.25,-24.90234375,-31.73828125,0.0
1676922179.5022323,-30.2734375,-26.85546875,-15.13671875,-2.9296875,0.0
1676922179.5058382,-42.96875,-43.9453125,-26.85546875,4.39453125,0.0
1676922179.5094442,-43.45703125,-29.296875,-34.66796875,-28.3203125,0.0
1676922179.51305,-34.66796875,-23.4375,-32.71484375,-35.64453125,0.0
1676922179.516656,-35.64453125,-25.87890625,-28.3203125,-21.484375,0.0
1676922179.520408,-35.15625,-31.25,-27.83203125,-22.94921875,0.0
1676922179.5241597,-30.2734375,-20.99609375,-20.01953125,-7.32421875,0.0
1676922179.5279117,-33.203125,-15.625,-26.85546875,-7.8125,0.0
1676922179.5316637,-33.69140625,-50.78125,-44.921875,-41.9921875,0.0
1676922179.5354154,-42.48046875,-57.12890625,-28.3203125,-31.73828125,0.0
1676922179.5391674,-45.41015625,-35.64453125,-26.85546875,-18.06640625,0.0
1676922179.5429194,-44.43359375,-50.29296875,-53.7109375,-35.15625,0.0
1676922179.5466712,-53.7109375,-56.15234375,-39.55078125,-37.109375,0.0
1676922179.5504231,-54.6875,-29.296875,-31.73828125,-31.25,0.0
1676922179.5541751,-55.17578125,-31.73828125,-41.015625,-36.62109375,0.0
1676922179.557927,-43.45703125,-43.45703125,-43.45703125,-49.31640625,0.0
1676922179.561679,-24.4140625,-42.48046875,-34.66796875,-37.109375,0.0
1676922179.5654237,-25.390625,-37.109375,-26.3671875,-10.7421875,0.0
1676922179.5691683,-50.29296875,-30.2734375,-22.94921875,-15.625,0.0
1676922179.5729132,-56.15234375,-25.87890625,-24.90234375,-33.69140625,0.0
1676922179.576658,-46.38671875,-41.9921875,-21.97265625,-31.73828125,0.0
1676922179.5804026,-55.17578125,-62.01171875,-33.203125,-40.52734375,0.0
1676922179.5841475,-81.54296875,-63.96484375,-48.33984375,-39.55078125,0.0
1676922179.5878923,-84.47265625,-50.78125,-40.52734375,-5.859375,0.0
1676922179.591637,-59.5703125,-28.80859375,-37.109375,-16.6015625,0.0
1676922179.5953817,-41.015625,-16.11328125,-40.52734375,-50.29296875,0.0
1676922179.5991266,-49.31640625,-23.92578125,-36.1328125,-35.15625,0.0
1676922179.6028712,-62.98828125,-22.94921875,-27.83203125,-21.97265625,0.0
1676922179.606616,-32.2265625,0.9765625,-21.484375,-32.71484375,0.0
1676922179.6103697,-33.69140625,0.9765625,-22.94921875,-51.26953125,0.0
1676922179.6141236,-60.546875,-38.57421875,-40.0390625,-43.45703125,0.0
1676922179.6178775,-47.8515625,-42.48046875,-27.83203125,-11.71875,0.0
1676922179.6216311,-28.3203125,-18.06640625,-11.23046875,-18.5546875,0.0
1676922179.6253848,-32.71484375,-23.4375,-17.578125,-33.69140625,0.0
1676922179.6291387,-40.52734375,-53.7109375,-30.76171875,-11.71875,0.0
1676922179.6328926,-37.59765625,-49.31640625,-31.73828125,-4.8828125,0.0
1676922179.6366463,-32.2265625,-8.7890625,-26.3671875,-27.34375,0.0
1676922179.6404,-37.59765625,-0.48828125,-24.4140625,-32.71484375,0.0
1676922179.6441538,-42.48046875,-8.7890625,-17.578125,-17.578125,0.0
1676922179.6479077,-44.43359375,-15.625,-27.34375,-4.39453125,0.0
1676922179.6516614,-44.43359375,-27.34375,-36.62109375,-11.71875,0.0
1676922179.6566582,-42.48046875,-26.3671875,-31.25,-16.11328125,0.0
1676922179.661655,-37.109375,-16.11328125,-17.08984375,0.48828125,0.0
1676922179.6666517,-33.203125,-3.41796875,-22.94921875,12.6953125,0.0
1676922179.6716485,-41.9921875,-18.06640625,-41.50390625,-5.859375,0.0
1676922179.6766453,-39.55078125,-43.45703125,-42.48046875,-32.2265625,0.0
1676922179.681642,-24.90234375,-35.15625,-33.203125,-41.015625,0.0
1676922179.6866388,-23.4375,-13.671875,-37.59765625,-38.0859375,0.0
1676922179.6916356,-45.41015625,-19.04296875,-45.8984375,-37.109375,0.0
1676922179.6966324,-35.15625,-23.92578125,-35.64453125,-48.828125,0.0
1676922179.7016292,-15.13671875,-9.765625,-19.04296875,-34.1796875,0.0
1676922179.706626,-23.92578125,-29.78515625,-25.87890625,-26.3671875,0.0
1676922179.7116227,-25.390625,-36.62109375,-50.29296875,-27.34375,0.0
1676922179.7153764,-12.6953125,-20.5078125,-35.64453125,-10.7421875,0.0
1676922179.7191303,-19.53125,-38.57421875,-30.76171875,-22.94921875,0.0
1676922179.722884,-28.3203125,-50.29296875,-36.62109375,-24.90234375,0.0
1676922179.7266376,-32.71484375,-42.48046875,-32.2265625,-19.53125,0.0
1676922179.7303915,-49.8046875,-39.55078125,-31.73828125,-18.5546875,0.0
1676922179.7341452,-47.36328125,-29.78515625,-34.66796875,-23.92578125,0.0
1676922179.7378988,-31.73828125,-4.39453125,-25.390625,-38.0859375,0.0
1676922179.7416527,-30.76171875,-2.9296875,-17.578125,-33.203125,0.0
1676922179.7454064,-41.015625,-34.1796875,-28.3203125,-11.71875,0.0
1676922179.74916,-40.0390625,-36.1328125,-47.8515625,-23.92578125,0.0
1676922179.752914,-31.25,-8.30078125,-41.015625,-54.19921875,0.0
1676922179.7566676,-33.69140625,-2.44140625,-27.83203125,-36.1328125,0.0
1676922179.7604184,-35.15625,-11.71875,-19.04296875,-23.4375,0.0
1676922179.764169,-28.80859375,-17.08984375,-27.83203125,-33.69140625,0.0
1676922179.7679198,-28.3203125,-30.2734375,-49.31640625,-54.6875,0.0
1676922179.7716706,-29.296875,-53.7109375,-51.26953125,-56.640625,0.0
1676922179.7754211,-37.109375,-41.015625,-41.50390625,-32.71484375,0.0
1676922179.779172,-38.57421875,-18.06640625,-40.52734375,-28.3203125,0.0
1676922179.7829227,-39.55078125,-22.94921875,-42.48046875,-39.55078125,0.0
1676922179.7866733,-43.9453125,-32.71484375,-36.62109375,-45.8984375,0.0
1676922179.790424,-59.5703125,-49.31640625,-43.45703125,-20.01953125,0.0
1676922179.794175,-57.6171875,-47.36328125,-46.38671875,-3.41796875,0.0
1676922179.7979255,-29.296875,-28.3203125,-33.69140625,-24.4140625,0.0
1676922179.8016763,-24.90234375,-39.55078125,-25.87890625,-29.78515625,0.0
1676922179.8054218,-48.33984375,-40.0390625,-39.55078125,-23.4375,0.0
1676922179.8091674,-38.0859375,-13.671875,-21.484375,-13.18359375,0.0
1676922179.812913,-23.92578125,-13.18359375,-20.5078125,-11.23046875,0.0
1676922179.8166585,-31.25,-36.1328125,-55.17578125,-25.390625,0.0
1676922179.820404,-21.97265625,-45.41015625,-60.05859375,-26.85546875,0.0
1676922179.8241496,-41.50390625,-41.9921875,-44.921875,-20.99609375,0.0
1676922179.8278954,-38.0859375,-14.16015625,-39.0625,-28.3203125,0.0
1676922179.831641,-13.18359375,-18.5546875,-41.9921875,-28.3203125,0.0
1676922179.8353865,-21.484375,-44.43359375,-28.3203125,-16.11328125,0.0
1676922179.839132,-35.64453125,-26.85546875,-23.92578125,-20.5078125,0.0
1676922179.8428776,-42.96875,-28.80859375,-31.73828125,-35.64453125,0.0
1676922179.8466232,-50.29296875,-41.9921875,-32.2265625,-48.828125,0.0
1676922179.8503737,-17.08984375,-25.390625,-20.5078125,-33.203125,0.0
1676922179.854124,-11.71875,-3.90625,-17.08984375,-22.94921875,0.0
1676922179.8578746,-57.12890625,-31.25,-32.2265625,-32.2265625,0.0
1676922179.861625,-41.9921875,-70.80078125,-30.76171875,-29.78515625,0.0
1676922179.8653755,-34.66796875,-59.08203125,-29.296875,-35.64453125,0.0
1676922179.8691258,-43.9453125,-31.73828125,-34.66796875,-33.203125,0.0
1676922179.8728764,-37.109375,-31.25,-33.203125,-38.0859375,0.0
1676922179.876627,-31.73828125,-31.25,-26.3671875,-47.8515625,0.0
1676922179.8803773,-14.6484375,-16.11328125,-7.8125,-38.57421875,0.0
1676922179.8841279,0.48828125,1.46484375,-10.7421875,-31.25,0.0
1676922179.8878782,-3.41796875,-12.20703125,-30.76171875,-28.3203125,0.0
1676922179.8916287,-7.8125,-36.1328125,-31.73828125,-24.90234375,0.0
1676922179.8954268,16.6015625,-12.6953125,-29.296875,-32.2265625,0.0
1676922179.899225,7.32421875,-2.9296875,-32.71484375,-27.34375,0.0
1676922179.9030232,-24.4140625,-20.5078125,-32.2265625,-14.16015625,0.0
1676922179.9068213,-24.4140625,-25.390625,-29.78515625,-10.7421875,0.0
1676922179.9106193,-37.109375,-37.109375,-26.85546875,-29.78515625,0.0
1676922179.9144175,-44.43359375,-51.26953125,-25.390625,-34.66796875,0.0
1676922179.9182158,-44.43359375,-48.828125,-28.3203125,-18.06640625,0.0
1676922179.9220138,-51.7578125,-36.62109375,-36.62109375,-17.08984375,0.0
1676922179.9258118,-41.50390625,-19.53125,-25.390625,-25.87890625,0.0
1676922179.92961,-37.59765625,-20.99609375,-17.578125,-30.76171875,0.0
1676922179.9334083,-45.8984375,-40.0390625,-35.64453125,-12.20703125,0.0
1676922179.9372063,-45.8984375,-28.3203125,-39.55078125,-1.46484375,0.0
1676922179.9410195,-32.71484375,-7.8125,-36.1328125,-11.23046875,0.0
1676922179.9448328,-27.34375,-24.4140625,-27.34375,-14.16015625,0.0
1676922179.948646,-34.1796875,-27.83203125,-25.87890625,-20.01953125,0.0
1676922179.9524596,-29.78515625,-8.30078125,-27.83203125,-4.8828125,0.0
1676922179.9562728,-41.015625,-10.7421875,-25.390625,-4.8828125,0.0
1676922179.960086,-31.25,-24.4140625,-15.625,-26.3671875,0.0
1676922179.9638994,-42.48046875,-42.96875,-32.2265625,-19.53125,0.0
1676922179.9677126,-76.171875,-40.0390625,-56.640625,-16.11328125,0.0
1676922179.9715261,-62.5,-12.6953125,-42.96875,-11.23046875,0.0
1676922179.9753394,-39.55078125,-4.39453125,-33.69140625,-8.7890625,0.0
1676922179.9791527,-44.43359375,-10.7421875,-28.80859375,-30.2734375,0.0
1676922179.982966,-36.62109375,-10.7421875,-19.04296875,-20.01953125,0.0
1676922179.9878616,-29.78515625,-5.859375,-26.3671875,-9.765625,0.0
1676922179.9927573,-38.57421875,-11.71875,-26.85546875,-28.80859375,0.0
1676922179.997653,-33.203125,-7.32421875,-18.06640625,-30.2734375,0.0
1676922180.0025487,-29.78515625,-8.30078125,-21.97265625,-11.71875,0.0
1676922180.0074444,-46.875,-33.203125,-30.2734375,-4.39453125,0.0
1676922180.01234,-54.19921875,-59.5703125,-24.4140625,-1.953125,0.0
1676922180.0172355,-46.38671875,-47.36328125,-26.3671875,-22.94921875,0.0
1676922180.0221312,-41.50390625,-23.92578125,-42.48046875,-51.7578125,0.0
1676922180.027027,-47.8515625,-15.13671875,-44.921875,-44.43359375,0.0
1676922180.0319226,-45.41015625,-26.3671875,-35.15625,-27.83203125,0.0
1676922180.0368183,-26.3671875,-19.04296875,-26.3671875,-26.3671875,0.0
1676922180.041714,-31.73828125,6.34765625,-31.73828125,-25.87890625,0.0
1676922180.045465,-20.5078125,15.13671875,-28.80859375,-1.46484375,0.0
1676922180.0492158,-20.01953125,0.0,-33.203125,-10.25390625,0.0
1676922180.0529666,-38.0859375,-28.80859375,-40.52734375,-43.45703125,0.0
1676922180.0567176,-33.69140625,-18.5546875,-33.203125,-38.57421875,0.0
1676922180.0604687,-39.55078125,-11.71875,-32.2265625,-11.71875,0.0
1676922180.0642195,-63.96484375,-32.71484375,-38.0859375,-18.5546875,0.0
1676922180.0679703,-49.8046875,-26.3671875,-42.96875,-45.41015625,0.0
1676922180.0717213,-42.48046875,-15.625,-38.0859375,-44.921875,0.0
1676922180.0754724,-60.05859375,-30.2734375,-38.0859375,-38.57421875,0.0
1676922180.0792232,-46.875,-40.0390625,-34.66796875,-20.5078125,0.0
1676922180.082974,-45.41015625,-15.13671875,-23.92578125,-9.27734375,0.0
1676922180.086725,-22.4609375,6.8359375,-25.390625,-33.69140625,0.0
1676922180.0917208,8.7890625,-6.34765625,-18.5546875,-36.1328125,0.0
1676922180.096717,-7.8125,-3.90625,-21.484375,-24.90234375,0.0
1676922180.1017127,-29.78515625,-1.46484375,-42.96875,-33.69140625,0.0
1676922180.1067085,-26.3671875,-6.34765625,-43.45703125,-52.734375,0.0
1676922180.1117043,-28.80859375,-6.8359375,-36.62109375,-50.78125,0.0
1676922180.1167002,-38.0859375,-19.53125,-39.55078125,-17.08984375,0.0
1676922180.1216962,-34.1796875,-24.90234375,-36.62109375,-6.34765625,0.0
1676922180.126692,-31.73828125,-15.13671875,-33.203125,-37.109375,0.0
1676922180.1316879,-34.1796875,-26.85546875,-29.78515625,-43.45703125,0.0
1676922180.136684,-33.203125,-27.34375,-30.76171875,-42.48046875,0.0
1676922180.1416798,-36.62109375,0.0,-28.3203125,-41.015625,0.0
1676922180.1466756,-41.9921875,2.44140625,-27.34375,-23.92578125,0.0
1676922180.1491704,-49.31640625,-15.625,-35.15625,-31.73828125,0.0
1676922180.1516654,-49.31640625,-14.6484375,-37.59765625,-34.66796875,0.0
1676922180.1541605,-46.875,-1.953125,-32.2265625,-33.203125,0.0
1676922180.1566553,-31.73828125,-13.18359375,-29.296875,-33.203125,0.0
1676922180.1591501,-19.53125,-16.11328125,-28.80859375,-40.52734375,0.0
1676922180.1616452,-28.3203125,-9.27734375,-26.3671875,-49.31640625,0.0
1676922180.1641402,-25.87890625,-3.90625,-19.04296875,-19.53125,0.0
1676922180.166635,-3.90625,10.7421875,-15.13671875,11.23046875,0.0
1676922180.1691298,-3.41796875,7.8125,-13.18359375,-6.34765625,0.0
1676922180.171625,-16.11328125,-11.71875,-33.69140625,-35.15625,0.0
1676922180.17412,-24.4140625,-20.5078125,-51.26953125,-13.671875,0.0
1676922180.1766148,-15.13671875,-16.6015625,-41.9921875,4.8828125,0.0
1676922180.180471,-13.671875,-31.73828125,-36.62109375,-5.37109375,0.0
1676922180.1843271,-18.5546875,-17.578125,-27.83203125,-22.4609375,0.0
1676922180.188183,-20.5078125,-6.34765625,-28.80859375,-19.04296875,0.0
1676922180.1920393,-21.484375,-25.390625,-32.2265625,6.34765625,0.0
1676922180.1958954,-15.625,-30.76171875,-21.97265625,6.34765625,0.0
1676922180.1997514,-17.578125,-23.92578125,-28.80859375,-19.04296875,0.0
1676922180.2036076,-37.109375,-20.99609375,-44.921875,-30.2734375,0.0
1676922180.2074637,-43.45703125,-17.578125,-36.62109375,-12.6953125,0.0
1676922180.21132,-31.25,-0.48828125,-33.69140625,-4.39453125,0.0
1676922180.215176,-24.4140625,18.5546875,-21.97265625,-27.34375,0.0
1676922180.219032,-12.20703125,12.6953125,-12.20703125,-21.97265625,0.0
1676922180.2228882,-34.66796875,-15.625,-39.55078125,-17.578125,0.0
1676922180.2265358,-52.734375,-35.15625,-41.50390625,-22.94921875,0.0
1676922180.2301834,-31.73828125,-30.2734375,-25.390625,-24.90234375,0.0
1676922180.233831,-32.71484375,-39.0625,-23.4375,-29.296875,0.0
1676922180.2374787,-45.41015625,-39.0625,-28.80859375,-29.296875,0.0
1676922180.2411263,-44.921875,-35.15625,-31.25,-23.92578125,0.0
1676922180.2447739,-39.0625,-24.4140625,-20.01953125,-21.484375,0.0
1676922180.2484214,-32.71484375,-10.7421875,-13.671875,-20.5078125,0.0
1676922180.252069,-45.41015625,-26.3671875,-22.94921875,-5.37109375,0.0
1676922180.2557168,-52.24609375,-9.765625,-25.87890625,-2.9296875,0.0
1676922180.2593644,-43.9453125,3.90625,-24.4140625,-25.390625,0.0
1676922180.263012,-49.8046875,-32.71484375,-28.3203125,-44.43359375,0.0
1676922180.2666595,-37.109375,-30.76171875,-27.83203125,-38.0859375,0.0
1676922180.2704146,-30.76171875,7.32421875,-17.08984375,-10.7421875,0.0
1676922180.27417,-44.921875,4.39453125,-27.34375,-18.5546875,0.0
1676922180.277925,-49.31640625,-26.3671875,-37.109375,-24.90234375,0.0
1676922180.2816803,-26.85546875,-19.04296875,-26.85546875,-5.37109375,0.0
1676922180.2854354,0.9765625,-4.39453125,-22.4609375,5.37109375,0.0
1676922180.2891908,3.90625,-20.01953125,-10.25390625,-2.44140625,0.0
1676922180.2929459,-19.53125,-49.8046875,-14.6484375,-34.66796875,0.0
1676922180.296701,-30.76171875,-61.03515625,-35.15625,-48.33984375,0.0
1676922180.3004563,-41.015625,-31.73828125,-31.25,-31.25,0.0
1676922180.3042114,-46.38671875,-13.671875,-26.85546875,-11.23046875,0.0
1676922180.3079667,-40.0390625,-7.8125,-19.53125,-11.23046875,0.0
1676922180.3117218,-24.90234375,0.9765625,-14.6484375,-25.390625,0.0
1676922180.3155692,-21.484375,-5.37109375,-24.90234375,-17.578125,0.0
1676922180.3194163,-39.55078125,-34.1796875,-25.390625,-9.765625,0.0
1676922180.3232636,-26.3671875,-49.8046875,-27.34375,-20.5078125,0.0
1676922180.327111,-15.625,-37.59765625,-33.69140625,-24.90234375,0.0
1676922180.3309581,-25.87890625,-23.4375,-24.90234375,-25.87890625,0.0
1676922180.3348055,-29.78515625,-4.8828125,-14.16015625,-12.6953125,0.0
1676922180.3386528,-36.62109375,-17.08984375,-22.4609375,-14.6484375,0.0
1676922180.3425,-29.78515625,-29.296875,-14.6484375,-32.2265625,0.0
1676922180.3463473,-35.64453125,-19.04296875,-19.04296875,-34.66796875,0.0
1676922180.3501947,-48.828125,-29.296875,-38.0859375,-38.0859375,0.0
1676922180.3540418,-39.55078125,-28.3203125,-33.69140625,-41.015625,0.0
1676922180.3578892,-35.15625,-19.53125,-29.296875,-46.875,0.0
1676922180.3615842,-38.0859375,-16.6015625,-27.83203125,-43.9453125,0.0
1676922180.3652792,-40.52734375,-23.92578125,-27.83203125,-29.78515625,0.0
1676922180.3689742,-48.828125,-12.6953125,-24.4140625,-20.01953125,0.0
1676922180.372669,-43.9453125,2.44140625,-27.83203125,-31.25,0.0
1676922180.376364,-25.87890625,-18.06640625,-29.296875,-42.48046875,0.0
1676922180.380059,-27.34375,-49.31640625,-34.1796875,-18.5546875,0.0
1676922180.383754,-41.015625,-59.5703125,-29.78515625,-0.9765625,0.0
1676922180.387449,-31.25,-22.4609375,-26.85546875,-25.87890625,0.0
1676922180.3911438,-20.01953125,0.0,-38.57421875,-38.0859375,0.0
1676922180.3948388,-23.92578125,-25.390625,-41.9921875,-36.62109375,0.0
1676922180.3985338,-32.2265625,-32.71484375,-24.90234375,-22.94921875,0.0
1676922180.4022288,-33.203125,-23.4375,-25.390625,-22.94921875,0.0
1676922180.408437,-42.48046875,-36.62109375,-53.7109375,-32.71484375,0.0
1676922180.414645,-34.66796875,-40.0390625,-54.19921875,-22.4609375,0.0
1676922180.4208531,-33.203125,-30.76171875,-45.8984375,-30.76171875,0.0
1676922180.4270613,-49.8046875,-28.3203125,-44.43359375,-30.2734375,0.0
1676922180.4332693,-44.43359375,-17.08984375,-29.78515625,-23.92578125,0.0
1676922180.4394774,-27.83203125,-16.11328125,-15.13671875,-21.484375,0.0
1676922180.4456856,-40.0390625,-33.69140625,-36.1328125,-29.296875,0.0
1676922180.4518936,-61.5234375,-50.78125,-49.31640625,-43.45703125,0.0
1676922180.4581017,-41.9921875,-44.921875,-39.55078125,-36.62109375,0.0
1676922180.46431,-24.4140625,-27.34375,-37.109375,-41.50390625,0.0
1676922180.4705179,-26.3671875,-8.30078125,-29.296875,-37.59765625,0.0
1676922180.476726,-26.3671875,9.765625,-16.11328125,-18.5546875,0.0
1676922180.4792242,-17.08984375,2.44140625,-29.78515625,-19.04296875,0.0
1676922180.481722,-21.97265625,-15.625,-39.55078125,-31.25,0.0
1676922180.4842203,-16.6015625,-23.4375,-45.8984375,-31.25,0.0
1676922180.4867182,-23.4375,-32.2265625,-50.29296875,-24.4140625,0.0
1676922180.4892163,-42.48046875,-51.26953125,-44.43359375,-25.390625,0.0
1676922180.4917145,-31.25,-60.546875,-42.48046875,-24.4140625,0.0
1676922180.4942124,-19.53125,-34.66796875,-60.05859375,-31.25,0.0
1676922180.4967105,-25.87890625,-11.23046875,-57.12890625,-11.71875,0.0
1676922180.4992085,-35.64453125,-19.53125,-41.015625,-3.90625,0.0
1676922180.5017066,-25.87890625,-35.15625,-41.9921875,-36.1328125,0.0
1676922180.5042045,-23.92578125,-22.94921875,-35.15625,-38.57421875,0.0
1676922180.5067027,-33.203125,-21.97265625,-30.2734375,-22.4609375,0.0
1676922180.5105052,-38.0859375,-43.45703125,-37.109375,-3.41796875,0.0
1676922180.5143075,-37.59765625,-40.52734375,-32.2265625,-5.859375,0.0
1676922180.51811,-32.2265625,-28.80859375,-21.484375,-28.80859375,0.0
1676922180.5219126,-26.3671875,-35.15625,-41.015625,-26.3671875,0.0
1676922180.525715,-46.875,-41.9921875,-48.33984375,-19.04296875,0.0
1676922180.5295177,-52.24609375,-43.9453125,-41.9921875,-32.71484375,0.0
1676922180.53332,-18.5546875,-3.41796875,-41.50390625,-26.3671875,0.0
1676922180.5371225,-14.16015625,-0.9765625,-37.109375,-23.4375,0.0
1676922180.540925,-28.3203125,-55.6640625,-38.0859375,-13.671875,0.0
1676922180.5447273,-33.69140625,-58.10546875,-39.0625,0.48828125,0.0
1676922180.5485299,-30.2734375,-36.1328125,-37.109375,-20.5078125,0.0
1676922180.5523324,-25.390625,-31.73828125,-39.0625,-17.578125,0.0
1676922180.556028,-34.66796875,-28.80859375,-46.38671875,-0.9765625,0.0
1676922180.5597234,-36.1328125,-19.04296875,-41.015625,4.8828125,0.0
1676922180.5634186,-29.296875,-21.484375,-35.64453125,-22.4609375,0.0
1676922180.567114,-29.296875,-20.99609375,-28.80859375,-34.66796875,0.0
1676922180.5708096,-26.3671875,0.9765625,-19.04296875,-18.5546875,0.0
1676922180.5745049,-33.203125,-13.671875,-34.66796875,-18.5546875,0.0
1676922180.5782003,-31.73828125,-46.38671875,-45.41015625,-23.4375,0.0
1676922180.5818958,-33.203125,-61.5234375,-45.8984375,-38.57421875,0.0
1676922180.5855913,-27.83203125,-50.78125,-43.9453125,-36.1328125,0.0
1676922180.5892868,-23.92578125,-21.484375,-32.2265625,-20.01953125,0.0
1676922180.592982,-28.3203125,-12.6953125,-25.390625,-17.08984375,0.0
1676922180.5966775,-11.71875,-39.0625,-34.1796875,-16.6015625,0.0
1676922180.6004746,-10.25390625,-33.69140625,-34.1796875,-19.04296875,0.0
1676922180.6042714,-9.765625,3.41796875,-27.83203125,-8.30078125,0.0
1676922180.6080685,-28.80859375,-15.625,-36.62109375,-18.06640625,0.0
1676922180.6118655,-26.3671875,-40.0390625,-41.9921875,-48.828125,0.0
1676922180.6156623,-7.8125,-20.99609375,-34.66796875,-41.015625,0.0
1676922180.6194594,-26.85546875,-26.3671875,-33.203125,-34.1796875,0.0
1676922180.6232564,-29.296875,-41.50390625,-14.6484375,-20.5078125,0.0
1676922180.6270533,-13.671875,-28.3203125,-14.6484375,-10.25390625,0.0
1676922180.6308503,-31.25,-34.66796875,-46.38671875,-39.0625,0.0
1676922180.6346474,-43.9453125,-38.0859375,-37.59765625,-31.25,0.0
1676922180.6384442,-49.8046875,-44.43359375,-20.5078125,-6.8359375,0.0
1676922180.6422412,-53.22265625,-43.45703125,-31.25,-9.765625,0.0
1676922180.6472437,-31.73828125,-18.06640625,-35.15625,-18.06640625,0.0
1676922180.6522465,-20.99609375,-24.4140625,-37.109375,-21.97265625,0.0
1676922180.657249,-27.83203125,-46.38671875,-39.55078125,-13.18359375,0.0
1676922180.6622515,-41.015625,-48.33984375,-34.66796875,-4.39453125,0.0
1676922180.6672542,-39.0625,-22.94921875,-35.64453125,-24.4140625,0.0
1676922180.6722567,-25.87890625,-4.8828125,-32.71484375,-39.55078125,0.0
1676922180.6772592,-36.62109375,-27.83203125,-31.25,-17.578125,0.0
1676922180.682262,-39.0625,-28.3203125,-25.87890625,-3.90625,0.0
1676922180.6872644,-7.32421875,10.7421875,-6.8359375,-19.53125,0.0
1676922180.692267,-13.671875,-15.13671875,-15.13671875,-38.57421875,0.0
1676922180.6972697,-53.7109375,-59.5703125,-37.59765625,-27.83203125,0.0
1676922180.7022722,-60.05859375,-48.33984375,-37.59765625,-5.37109375,0.0
1676922180.7047193,-36.1328125,-22.4609375,-30.76171875,-28.3203125,0.0
1676922180.7071667,-26.3671875,-22.4609375,-22.4609375,-24.4140625,0.0
1676922180.7096138,-37.109375,-28.80859375,-24.90234375,0.9765625,0.0
1676922180.712061,-35.64453125,-23.92578125,-34.1796875,-0.9765625,0.0
1676922180.714508,-21.484375,-19.53125,-33.203125,-2.44140625,0.0
1676922180.7169552,-26.3671875,-20.99609375,-24.90234375,-15.625,0.0
1676922180.7194026,-47.8515625,-29.296875,-31.73828125,-23.92578125,0.0
1676922180.7218497,-48.33984375,-22.4609375,-36.62109375,-19.04296875,0.0
1676922180.7242968,-28.80859375,-6.8359375,-31.73828125,-20.01953125,0.0
1676922180.7267442,-20.01953125,-19.53125,-30.2734375,-29.296875,0.0
1676922180.7291913,-16.6015625,-22.94921875,-31.25,-21.484375,0.0
1676922180.7316384,-18.06640625,7.8125,-36.62109375,-4.8828125,0.0
1676922180.735393,-28.80859375,-6.34765625,-39.55078125,-8.7890625,0.0
1676922180.7391477,-41.50390625,-40.52734375,-37.59765625,-19.04296875,0.0
1676922180.7429023,-45.8984375,-49.8046875,-40.52734375,-29.296875,0.0
1676922180.746657,-29.296875,-35.15625,-36.62109375,-28.80859375,0.0
1676922180.7504115,-13.18359375,-22.94921875,-33.69140625,-19.04296875,0.0
1676922180.7541661,-22.4609375,-39.55078125,-20.5078125,-15.13671875,0.0
1676922180.7579205,-20.01953125,-47.8515625,-11.23046875,-11.71875,0.0
1676922180.7616751,-15.625,-31.25,-30.2734375,-21.484375,0.0
1676922180.7654297,-31.25,-26.3671875,-42.96875,-21.97265625,0.0
1676922180.7691844,-37.109375,-33.69140625,-47.36328125,-24.4140625,0.0
1676922180.772939,-27.83203125,-32.2265625,-49.31640625,-50.29296875,0.0
1676922180.7766936,-23.4375,-21.97265625,-43.45703125,-56.15234375,0.0
1676922180.7816892,-22.94921875,-23.4375,-40.52734375,-41.9921875,0.0
1676922180.7866848,-25.87890625,-35.64453125,-34.66796875,-31.73828125,0.0
1676922180.7916803,-41.015625,-24.4140625,-32.2265625,-41.015625,0.0
1676922180.796676,-30.76171875,-19.53125,-35.64453125,-50.29296875,0.0
1676922180.8016715,-7.8125,-27.83203125,-29.296875,-21.484375,0.0
1676922180.8066669,-21.97265625,-29.296875,-30.2734375,-12.6953125,0.0
1676922180.8116624,-26.3671875,-27.34375,-33.203125,-38.0859375,0.0
1676922180.816658,-31.25,-23.4375,-31.73828125,-41.9921875,0.0
1676922180.8216536,-44.43359375,-30.76171875,-30.76171875,-39.55078125,0.0
1676922180.8266492,-48.828125,-31.25,-32.2265625,-24.90234375,0.0
1676922180.8316448,-63.96484375,-15.625,-32.2265625,-17.08984375,0.0
1676922180.8366404,-56.15234375,-18.06640625,-34.1796875,-44.43359375,0.0
1676922180.8404396,-49.31640625,-42.48046875,-41.9921875,-50.78125,0.0
1676922180.8442388,-42.48046875,-40.52734375,-42.48046875,-26.85546875,0.0
1676922180.8480377,-38.57421875,-10.7421875,-39.55078125,-14.16015625,0.0
1676922180.851837,-52.24609375,-12.20703125,-35.64453125,-37.59765625,0.0
1676922180.8556361,-41.50390625,-28.80859375,-33.69140625,-47.36328125,0.0
1676922180.859435,-41.015625,-34.66796875,-35.15625,-30.2734375,0.0
1676922180.8632343,-44.921875,-26.3671875,-36.62109375,-16.6015625,0.0
1676922180.8670335,-37.59765625,-19.04296875,-36.62109375,-29.296875,0.0
1676922180.8708327,-35.64453125,-29.296875,-34.66796875,-32.71484375,0.0
1676922180.874632,-31.73828125,-27.34375,-31.73828125,-2.9296875,0.0
1676922180.8784308,-26.85546875,-12.6953125,-28.3203125,-12.6953125,0.0
1676922180.88223,-29.78515625,-7.32421875,-26.3671875,-41.9921875,0.0
1676922180.887187,-38.57421875,-20.99609375,-30.2734375,-35.64453125,0.0
1676922180.8921437,-55.17578125,-20.5078125,-34.66796875,-14.16015625,0.0
1676922180.8971007,-53.22265625,-7.32421875,-36.1328125,-12.6953125,0.0
1676922180.9020574,-30.76171875,-19.53125,-31.73828125,-13.671875,0.0
1676922180.9070144,-33.203125,-11.23046875,-12.6953125,-27.83203125,0.0
1676922180.911971,-26.3671875,10.25390625,-9.765625,-13.671875,0.0
1676922180.916928,-25.390625,-7.32421875,-31.73828125,3.90625,0.0
1676922180.921885,-24.4140625,-29.78515625,-41.9921875,-18.06640625,0.0
1676922180.9268417,-19.04296875,-41.9921875,-35.15625,-17.578125,0.0
1676922180.9317987,-22.4609375,-32.71484375,-27.34375,-17.08984375,0.0
1676922180.9367554,-43.45703125,-10.25390625,-25.87890625,-15.625,0.0
1676922180.9417124,-48.828125,-21.484375,-26.85546875,-12.6953125,0.0
1676922180.9442205,-33.203125,-26.85546875,-30.2734375,-31.25,0.0
1676922180.9467285,-46.38671875,-9.765625,-32.71484375,-36.62109375,0.0
1676922180.9492364,-33.69140625,-5.859375,-34.66796875,-24.90234375,0.0
1676922180.9517446,-35.15625,-31.25,-39.55078125,-5.37109375,0.0
1676922180.9542527,-40.0390625,-42.48046875,-33.69140625,-8.30078125,0.0
1676922180.9567606,-22.94921875,-22.94921875,-18.5546875,-18.5546875,0.0
1676922180.9592686,-31.25,-12.20703125,-31.73828125,-12.6953125,0.0
1676922180.9617767,-40.0390625,-24.4140625,-47.8515625,-20.5078125,0.0
1676922180.964285,-37.59765625,-29.296875,-40.52734375,-24.4140625,0.0
1676922180.9667928,-32.2265625,-20.99609375,-27.34375,-40.0390625,0.0
1676922180.9693007,-30.76171875,-29.78515625,-19.53125,-46.875,0.0
1676922180.971809,-31.73828125,-54.6875,-26.3671875,-18.5546875,0.0
1676922180.9767952,-33.203125,-45.8984375,-35.64453125,-12.6953125,0.0
1676922180.9817812,-42.96875,-26.3671875,-35.15625,-44.43359375,0.0
1676922180.9867673,-33.69140625,-24.90234375,-26.85546875,-43.45703125,0.0
1676922180.9917536,-17.578125,-4.39453125,-18.06640625,-18.06640625,0.0
1676922180.9967399,-24.90234375,-30.2734375,-29.296875,-12.20703125,0.0
1676922181.001726,-31.25,-57.6171875,-39.55078125,-28.3203125,0.0
1676922181.006712,-16.6015625,-42.48046875,-35.15625,-21.97265625,0.0
1676922181.0116982,-19.04296875,-31.73828125,-26.85546875,8.7890625,0.0
1676922181.0166845,-30.76171875,-22.4609375,-28.3203125,1.953125,0.0
1676922181.0216706,-24.4140625,-11.23046875,-29.78515625,-19.04296875,0.0
1676922181.0266566,-9.27734375,-21.484375,-35.15625,-36.62109375,0.0
1676922181.031643,-10.25390625,-23.4375,-35.64453125,-33.69140625,0.0
1676922181.034143,-24.90234375,-10.7421875,-24.4140625,-15.13671875,0.0
1676922181.036643,-32.2265625,-9.27734375,-24.90234375,-22.4609375,0.0
1676922181.039143,-31.25,-24.90234375,-28.80859375,-31.73828125,0.0
1676922181.0416431,-36.62109375,-37.109375,-26.85546875,-15.625,0.0
1676922181.0441432,-33.203125,-18.5546875,-22.4609375,-10.7421875,0.0
1676922181.0466433,-33.69140625,-17.08984375,-24.4140625,-8.7890625,0.0
1676922181.049143,-30.76171875,-15.625,-29.296875,-19.04296875,0.0
1676922181.0516431,-11.71875,-17.578125,-25.390625,-32.2265625,0.0
1676922181.0541432,0.48828125,-24.90234375,-17.08984375,-8.30078125,0.0
1676922181.0566432,-8.30078125,-9.765625,-19.53125,-2.9296875,0.0
1676922181.0591433,-34.1796875,-7.32421875,-26.85546875,-26.3671875,0.0
1676922181.0616434,-33.69140625,-15.625,-31.73828125,-35.15625,0.0
1676922181.0653932,-21.97265625,7.32421875,-17.08984375,-11.23046875,0.0
1676922181.069143,-23.92578125,8.7890625,-17.578125,9.765625,0.0
1676922181.072893,-31.73828125,4.8828125,-39.0625,-5.859375,0.0
1676922181.0766428,-12.6953125,15.625,-44.43359375,-31.25,0.0
1676922181.0803926,-5.37109375,-13.18359375,-50.29296875,-21.97265625,0.0
1676922181.0841422,-7.8125,-53.22265625,-55.6640625,-12.20703125,0.0
1676922181.087892,1.953125,-46.875,-50.78125,-10.25390625,0.0
1676922181.091642,5.37109375,-16.11328125,-46.875,-24.90234375,0.0
1676922181.0953918,11.23046875,-2.9296875,-43.9453125,-36.1328125,0.0
1676922181.0991416,15.625,-2.44140625,-29.78515625,-2.44140625,0.0
1676922181.1028914,-1.46484375,5.859375,-28.80859375,0.9765625,0.0
1676922181.1066413,-12.6953125,-1.46484375,-34.1796875,-27.83203125,0.0
1676922181.1128898,6.34765625,4.8828125,-34.1796875,-30.76171875,0.0
1676922181.1191382,3.41796875,11.23046875,-40.52734375,-5.37109375,0.0
1676922181.1253865,-23.4375,-26.85546875,-44.921875,-5.859375,0.0
1676922181.131635,-20.5078125,-34.1796875,-45.8984375,-26.3671875,0.0
1676922181.1378834,-4.8828125,-25.390625,-42.48046875,-35.64453125,0.0
1676922181.1441317,4.39453125,-28.80859375,-31.73828125,-16.6015625,0.0
1676922181.1503801,-6.8359375,-22.4609375,-44.43359375,-3.90625,0.0
1676922181.1566286,-11.23046875,-3.90625,-49.8046875,-31.25,0.0
1676922181.162877,-4.39453125,0.48828125,-39.0625,-24.4140625,0.0
1676922181.1691256,-11.23046875,-26.3671875,-42.96875,5.37109375,0.0
1676922181.1753738,-17.578125,-43.9453125,-42.48046875,1.953125,0.0
1676922181.1816223,-16.11328125,-32.2265625,-44.921875,-24.90234375,0.0
1676922181.1841738,-19.04296875,-11.71875,-31.73828125,-28.80859375,0.0
1676922181.1867251,-14.6484375,3.90625,-26.85546875,-19.53125,0.0
1676922181.1892767,-31.73828125,-16.11328125,-38.57421875,-17.578125,0.0
1676922181.1918283,-41.9921875,-24.4140625,-38.57421875,-20.01953125,0.0
1676922181.1943796,-30.2734375,-21.97265625,-40.0390625,-23.4375,0.0
1676922181.1969311,-28.80859375,-41.015625,-36.1328125,-26.85546875,0.0
1676922181.1994827,-46.38671875,-35.64453125,-32.2265625,-20.99609375,0.0
1676922181.202034,-32.2265625,-11.23046875,-24.90234375,-3.41796875,0.0
1676922181.2045856,-12.20703125,-11.23046875,-29.78515625,-1.953125,0.0
1676922181.207137,-21.484375,-30.2734375,-37.109375,-18.06640625,0.0
1676922181.2096884,-20.99609375,-25.87890625,-29.296875,-24.4140625,0.0
1676922181.21224,-21.484375,-19.04296875,-32.71484375,-15.625,0.0
1676922181.2159426,-18.5546875,-21.484375,-32.71484375,-8.30078125,0.0
1676922181.219645,-15.625,-13.671875,-16.11328125,-16.11328125,0.0
1676922181.2233477,-25.390625,-1.46484375,-20.99609375,-21.484375,0.0
1676922181.22705,-32.2265625,-1.953125,-31.25,-16.11328125,0.0
1676922181.2307527,-25.87890625,-20.5078125,-23.92578125,-4.8828125,0.0
1676922181.234455,-30.2734375,-33.203125,-26.85546875,-13.671875,0.0
1676922181.2381577,-22.4609375,-21.484375,-34.1796875,-38.57421875,0.0
1676922181.2418604,-14.16015625,-11.71875,-30.76171875,-31.25,0.0
1676922181.2455628,-27.34375,-11.23046875,-19.04296875,-7.8125,0.0
1676922181.2492654,-38.0859375,-14.6484375,-19.04296875,-4.39453125,0.0
1676922181.2529678,-31.25,2.9296875,-16.11328125,-23.4375,0.0
1676922181.2566705,-17.08984375,2.9296875,-8.30078125,-13.671875,0.0
1676922181.2616847,-15.13671875,-1.46484375,-15.625,12.6953125,0.0
1676922181.2666986,-32.71484375,-10.25390625,-29.296875,-5.37109375,0.0
1676922181.2717128,-52.734375,-27.83203125,-42.96875,-49.31640625,0.0
1676922181.2767267,-48.33984375,-37.59765625,-42.96875,-44.43359375,0.0
1676922181.281741,-35.64453125,-42.96875,-32.71484375,-11.23046875,0.0
1676922181.286755,-31.25,-31.73828125,-29.296875,-3.90625,0.0
1676922181.291769,-30.76171875,-16.11328125,-24.90234375,-19.04296875,0.0
1676922181.2967832,-13.671875,-7.32421875,-22.94921875,-17.08984375,0.0
1676922181.3017972,-24.4140625,-17.578125,-39.55078125,-12.20703125,0.0
1676922181.3068113,-26.3671875,-22.94921875,-43.9453125,-28.3203125,0.0
1676922181.3118253,-7.32421875,-14.6484375,-36.1328125,-39.55078125,0.0
1676922181.3168395,-12.20703125,-20.5078125,-32.71484375,-30.2734375,0.0
1676922181.3193235,-21.484375,-24.90234375,-28.3203125,8.7890625,0.0
1676922181.3218079,-16.11328125,-12.6953125,-24.4140625,19.04296875,0.0
1676922181.324292,-14.6484375,14.6484375,-25.390625,-11.71875,0.0
1676922181.326776,-24.90234375,3.90625,-25.390625,-16.6015625,0.0
1676922181.32926,-25.390625,-35.64453125,-29.296875,-16.6015625,0.0
1676922181.3317442,-10.25390625,-17.08984375,-30.2734375,-20.01953125,0.0
1676922181.3342285,-13.18359375,-9.765625,-30.76171875,-22.4609375,0.0
1676922181.3367126,-29.78515625,-36.1328125,-32.71484375,-38.57421875,0.0
1676922181.3391967,-24.4140625,-35.64453125,-41.015625,-30.76171875,0.0
1676922181.341681,-27.34375,-5.859375,-41.9921875,-12.20703125,0.0
1676922181.344165,-33.69140625,-12.6953125,-34.1796875,-13.671875,0.0
1676922181.3466492,-36.1328125,-56.15234375,-42.48046875,-18.5546875,0.0
1676922181.351698,-25.390625,-43.9453125,-47.8515625,-14.16015625,0.0
1676922181.3567467,-15.13671875,-11.71875,-38.57421875,-18.06640625,0.0
1676922181.3617954,-33.203125,-17.08984375,-33.203125,-17.578125,0.0
1676922181.3668442,-19.53125,-19.53125,-38.57421875,-22.94921875,0.0
1676922181.371893,12.6953125,-20.5078125,-38.0859375,-31.25,0.0
1676922181.3769417,14.16015625,4.8828125,-30.76171875,-25.87890625,0.0
1676922181.3819907,-3.41796875,6.34765625,-37.109375,-28.80859375,0.0
1676922181.3870394,-20.5078125,-34.66796875,-39.55078125,-22.94921875,0.0
1676922181.3920882,-32.2265625,-29.78515625,-41.50390625,-29.78515625,0.0
1676922181.397137,-28.80859375,-12.6953125,-44.43359375,-31.25,0.0
1676922181.4021857,-31.73828125,-22.4609375,-29.78515625,-9.765625,0.0
1676922181.4072344,-39.55078125,-38.0859375,-34.1796875,-10.25390625,0.0
1676922181.4097886,-31.25,-38.57421875,-44.43359375,-32.71484375,0.0
1676922181.4123425,-40.0390625,-30.76171875,-36.1328125,-35.15625,0.0
1676922181.4148967,-42.48046875,-27.83203125,-27.83203125,-9.765625,0.0
1676922181.417451,-46.875,-24.4140625,-33.203125,-21.484375,0.0
1676922181.4200048,-47.8515625,-16.6015625,-40.52734375,-48.828125,0.0
1676922181.422559,-48.33984375,-23.92578125,-39.55078125,-48.33984375,0.0
1676922181.4251132,-57.6171875,-46.38671875,-34.1796875,-28.3203125,0.0
1676922181.4276671,-55.17578125,-44.921875,-30.2734375,-8.7890625,0.0
1676922181.4302213,-31.73828125,0.0,-23.4375,-11.71875,0.0
1676922181.4327755,-26.3671875,6.34765625,-32.71484375,-41.9921875,0.0
1676922181.4353294,-44.43359375,-51.7578125,-56.640625,-37.109375,0.0
1676922181.4378836,-46.38671875,-57.6171875,-60.05859375,-23.4375,0.0
1676922181.4415321,-36.1328125,-20.01953125,-54.19921875,-38.57421875,0.0
1676922181.445181,-44.43359375,-19.04296875,-54.19921875,-47.36328125,0.0
1676922181.4488294,-51.26953125,-18.5546875,-34.66796875,-39.0625,0.0
1676922181.4524782,-43.9453125,1.46484375,-20.01953125,-12.20703125,0.0
1676922181.4561267,-31.73828125,-4.39453125,-38.0859375,-15.13671875,0.0
1676922181.4597754,-39.55078125,-29.296875,-47.8515625,-41.9921875,0.0
1676922181.463424,-37.109375,-40.52734375,-44.43359375,-19.53125,0.0
1676922181.4670725,-27.34375,-7.32421875,-40.0390625,0.9765625,0.0
1676922181.4707212,-33.203125,4.8828125,-32.2265625,-11.71875,0.0
1676922181.4743698,-33.69140625,-41.9921875,-32.71484375,-27.83203125,0.0
1676922181.4780185,-19.04296875,-31.73828125,-41.50390625,-22.4609375,0.0
1676922181.481667,-9.765625,1.46484375,-42.96875,-11.71875,0.0
1676922181.4854217,-15.13671875,-0.48828125,-37.59765625,-5.859375,0.0
1676922181.4891763,-6.34765625,-12.20703125,-27.83203125,-9.27734375,0.0
1676922181.492931,-8.30078125,-10.7421875,-30.76171875,-51.26953125,0.0
1676922181.4966855,-24.4140625,1.953125,-37.109375,-50.78125,0.0
1676922181.5004401,-34.1796875,-11.23046875,-24.90234375,-19.04296875,0.0
1676922181.5041947,-20.99609375,-36.1328125,-13.18359375,-10.25390625,0.0
1676922181.5079494,-15.13671875,-20.5078125,-20.5078125,-25.390625,0.0
1676922181.511704,-36.1328125,-15.13671875,-35.15625,-39.0625,0.0
1676922181.5154586,-38.57421875,-36.1328125,-43.45703125,-41.015625,0.0
1676922181.5192132,-34.66796875,-47.8515625,-44.43359375,-41.015625,0.0
1676922181.5229678,-33.69140625,-38.57421875,-41.50390625,-35.15625,0.0
1676922181.5267224,-28.3203125,-16.6015625,-30.76171875,-27.34375,0.0
1676922181.5317156,-38.0859375,-4.8828125,-17.578125,-15.13671875,0.0
1676922181.5367088,-43.45703125,-5.37109375,-25.87890625,-14.6484375,0.0
1676922181.5417018,-39.55078125,-6.34765625,-44.43359375,-35.64453125,0.0
1676922181.546695,-50.29296875,-20.01953125,-50.78125,-56.15234375,0.0
1676922181.5516882,-49.8046875,-32.2265625,-41.50390625,-32.71484375,0.0
1676922181.5566814,-47.8515625,-32.71484375,-30.2734375,-20.01953125,0.0
1676922181.5616746,-36.1328125,-26.3671875,-23.92578125,-32.71484375,0.0
1676922181.5666678,-27.83203125,-0.48828125,-17.578125,-32.71484375,0.0
1676922181.571661,-31.25,-7.32421875,-19.53125,-20.99609375,0.0
1676922181.576654,-40.52734375,-41.015625,-38.0859375,-25.390625,0.0
1676922181.5816472,-35.64453125,-54.6875,-44.921875,-41.50390625,0.0
1676922181.5866404,-20.01953125,-35.64453125,-38.57421875,-42.96875,0.0
1676922181.5903883,-26.85546875,-23.4375,-37.59765625,-39.0625,0.0
1676922181.5941365,-48.33984375,-38.0859375,-41.50390625,-33.203125,0.0
1676922181.5978847,-36.62109375,-13.18359375,-43.9453125,-41.015625,0.0
1676922181.6016326,-19.53125,10.25390625,-31.25,-50.29296875,0.0
1676922181.6053805,-44.921875,-13.671875,-30.2734375,-39.55078125,0.0
1676922181.6091287,-48.828125,-37.109375,-25.87890625,-20.5078125,0.0
1676922181.612877,-54.19921875,-11.71875,-18.5546875,-17.578125,0.0
1676922181.6166248,-55.6640625,7.8125,-24.4140625,-27.34375,0.0
1676922181.6203728,-48.828125,-40.0390625,-28.3203125,-26.3671875,0.0
1676922181.624121,-52.24609375,-50.78125,-26.85546875,-24.4140625,0.0
1676922181.6278691,-45.41015625,-24.4140625,-29.296875,-32.2265625,0.0
1676922181.631617,-30.2734375,-30.2734375,-30.2734375,-27.83203125,0.0
1676922181.6367228,-20.99609375,-19.04296875,-30.76171875,-37.109375,0.0
1676922181.6418283,-34.66796875,-13.18359375,-23.4375,-39.0625,0.0
1676922181.646934,-44.43359375,-14.16015625,-15.625,-32.71484375,0.0
1676922181.6520398,-36.62109375,-12.6953125,-24.90234375,-46.38671875,0.0
1676922181.6571453,-22.94921875,-8.7890625,-36.62109375,-58.10546875,0.0
1676922181.662251,-28.3203125,-20.01953125,-34.66796875,-51.7578125,0.0
1676922181.6673567,-49.31640625,-38.0859375,-27.83203125,-65.4296875,0.0
1676922181.6724622,-50.78125,-41.50390625,-41.50390625,-79.58984375,0.0
1676922181.677568,-12.20703125,-44.43359375,-41.9921875,-50.29296875,0.0
1676922181.6826737,14.16015625,-23.92578125,-16.6015625,-21.97265625,0.0
1676922181.6877792,-18.06640625,-7.8125,-21.484375,-16.6015625,0.0
1676922181.692885,-64.453125,-37.59765625,-36.62109375,-26.85546875,0.0
1676922181.695281,-50.78125,-52.734375,-39.0625,-44.921875,0.0
1676922181.697677,-35.15625,-41.015625,-29.78515625,-36.62109375,0.0
1676922181.700073,-41.50390625,-36.62109375,-15.625,-20.5078125,0.0
1676922181.702469,-39.55078125,-20.5078125,-7.32421875,-16.11328125,0.0
1676922181.704865,-62.01171875,-37.59765625,-16.11328125,-43.45703125,0.0
1676922181.707261,-72.75390625,-81.0546875,-24.4140625,-76.66015625,0.0
1676922181.7096572,-68.84765625,-78.125,-17.578125,-64.453125,0.0
1676922181.712053,-67.3828125,-60.05859375,-6.34765625,-42.48046875,0.0
1676922181.7144492,-59.08203125,-54.6875,-11.71875,-44.921875,0.0
1676922181.7168453,-49.8046875,-49.8046875,-23.4375,-63.4765625,0.0
1676922181.7192411,-48.33984375,-41.50390625,-22.94921875,-50.29296875,0.0
1676922181.7216372,-48.828125,-55.6640625,-24.4140625,-21.484375,0.0
1676922181.725387,-37.109375,-59.08203125,-21.484375,-11.23046875,0.0
1676922181.729137,-37.59765625,-26.85546875,-25.87890625,-19.04296875,0.0
1676922181.7328868,-26.85546875,-24.90234375,-31.73828125,-20.99609375,0.0
1676922181.7366369,-21.484375,-28.80859375,-23.92578125,-12.6953125,0.0
1676922181.7403867,-35.64453125,-40.0390625,-21.97265625,-27.34375,0.0
1676922181.7441366,-23.92578125,-35.15625,-34.66796875,-52.734375,0.0
1676922181.7478864,-15.625,-10.7421875,-41.9921875,-54.6875,0.0
1676922181.7516363,-31.25,-53.22265625,-41.50390625,-24.90234375,0.0
1676922181.7553864,-43.45703125,-62.98828125,-43.45703125,-11.71875,0.0
1676922181.7591362,-54.6875,-36.62109375,-52.24609375,-30.2734375,0.0
1676922181.762886,-52.734375,-54.19921875,-49.8046875,-56.640625,0.0
1676922181.766636,-45.8984375,-51.7578125,-40.0390625,-39.55078125,0.0
1676922181.770386,-43.45703125,-21.97265625,-35.15625,-1.953125,0.0
1676922181.774136,-31.25,-24.4140625,-31.73828125,-13.18359375,0.0
1676922181.7778864,-20.5078125,-41.015625,-21.484375,-41.015625,0.0
1676922181.7816365,-40.52734375,-26.3671875,-23.4375,-37.109375,0.0
1676922181.7853866,-46.875,-23.92578125,-37.109375,-24.4140625,0.0
1676922181.7891366,-42.96875,-31.73828125,-37.59765625,-17.578125,0.0
1676922181.7928867,-47.36328125,-22.94921875,-24.4140625,-14.16015625,0.0
1676922181.7966368,-42.48046875,-27.83203125,-18.06640625,-13.671875,0.0
1676922181.800387,-51.26953125,-35.15625,-38.0859375,-18.06640625,0.0
1676922181.8041372,-54.19921875,-41.9921875,-55.17578125,-18.5546875,0.0
1676922181.8078873,-46.875,-47.8515625,-48.828125,-28.3203125,0.0
1676922181.8116374,-37.59765625,-24.4140625,-39.0625,-31.73828125,0.0
1676922181.8154054,-35.15625,-7.32421875,-34.1796875,-27.83203125,0.0
1676922181.819173,-45.41015625,-30.2734375,-31.73828125,-20.5078125,0.0
1676922181.8229408,-59.08203125,-37.59765625,-24.90234375,-8.30078125,0.0
1676922181.8267088,-44.43359375,-11.71875,-19.53125,-25.87890625,0.0
1676922181.8304768,-22.94921875,-6.8359375,-26.3671875,-27.34375,0.0
1676922181.8342445,-37.59765625,-27.83203125,-31.25,-11.23046875,0.0
1676922181.8380122,-44.921875,-34.1796875,-29.78515625,-17.578125,0.0
1676922181.8417802,-39.55078125,-20.01953125,-35.64453125,-20.01953125,0.0
1676922181.8455482,-32.71484375,-8.30078125,-33.69140625,-15.625,0.0
1676922181.849316,-25.87890625,-8.30078125,-12.20703125,-6.8359375,0.0
1676922181.8530836,-37.109375,-12.20703125,-20.01953125,-5.859375,0.0
1676922181.8568516,-49.31640625,-9.27734375,-43.45703125,-40.52734375,0.0
1676922181.860688,-33.203125,-7.8125,-35.15625,-48.33984375,0.0
1676922181.8645244,-32.2265625,-14.6484375,-25.390625,-9.765625,0.0
1676922181.8683605,-32.71484375,-6.34765625,-28.3203125,6.8359375,0.0
1676922181.872197,-27.83203125,-0.9765625,-32.71484375,-26.85546875,0.0
1676922181.8760333,-39.55078125,-9.765625,-39.0625,-51.7578125,0.0
1676922181.8798695,-29.296875,-34.66796875,-47.36328125,-22.94921875,0.0
1676922181.8837059,-28.3203125,-49.31640625,-41.50390625,3.41796875,0.0
1676922181.8875422,-33.69140625,-29.78515625,-28.3203125,-30.2734375,0.0
1676922181.8913786,-32.71484375,-26.85546875,-29.78515625,-62.01171875,0.0
1676922181.895215,-36.1328125,-43.9453125,-33.69140625,-34.66796875,0.0
1676922181.8990512,-21.97265625,-39.55078125,-25.87890625,1.953125,0.0
1676922181.9028876,-17.08984375,-30.2734375,-17.578125,5.859375,0.0
1676922181.9077935,-17.578125,-35.15625,-21.484375,-7.8125,0.0
1676922181.9126995,-18.5546875,-40.0390625,-22.4609375,-8.7890625,0.0
1676922181.9176054,-18.06640625,-28.80859375,-16.11328125,14.16015625,0.0
1676922181.922511,-13.18359375,-23.92578125,-12.20703125,9.27734375,0.0
1676922181.927417,-8.30078125,-25.87890625,-13.18359375,-14.16015625,0.0
1676922181.932323,-16.11328125,-38.57421875,-26.3671875,-9.765625,0.0
1676922181.937229,-13.18359375,-35.64453125,-42.48046875,3.41796875,0.0
1676922181.9421349,-14.6484375,-21.484375,-37.109375,-5.859375,0.0
1676922181.9470406,-29.78515625,-17.08984375,-28.80859375,-22.94921875,0.0
1676922181.9519465,-7.8125,-7.8125,-25.87890625,-20.99609375,0.0
1676922181.9568524,4.39453125,-22.94921875,-26.3671875,-7.32421875,0.0
1676922181.9617584,-17.08984375,-42.96875,-27.34375,-2.9296875,0.0
1676922181.9667578,-30.76171875,-55.17578125,-25.87890625,-11.71875,0.0
1676922181.9717572,-10.7421875,-21.484375,-18.06640625,-19.04296875,0.0
1676922181.9767566,-0.48828125,-6.8359375,-23.4375,-19.53125,0.0
1676922181.9817562,-20.99609375,-20.01953125,-29.78515625,-28.3203125,0.0
1676922181.9867556,-25.87890625,-32.71484375,-26.3671875,-22.94921875,0.0
1676922181.991755,-16.11328125,-37.109375,-20.99609375,-23.92578125,0.0
1676922181.9967544,-11.71875,-19.04296875,-24.4140625,-32.71484375,0.0
1676922182.0017538,-27.83203125,-41.50390625,-35.64453125,-43.45703125,0.0
1676922182.0067534,-44.921875,-65.91796875,-25.87890625,-26.85546875,0.0
1676922182.0117528,-41.9921875,-54.6875,-23.92578125,-29.296875,0.0
1676922182.0167522,-37.59765625,-27.34375,-29.296875,-55.17578125,0.0
1676922182.0217516,-34.66796875,-24.4140625,-25.390625,-40.52734375,0.0
1676922182.0242438,-39.55078125,-27.34375,-24.4140625,-23.4375,0.0
1676922182.0267363,-26.85546875,-17.08984375,-22.4609375,-21.484375,0.0
1676922182.0292287,-25.390625,-12.6953125,-20.5078125,-27.34375,0.0
1676922182.0317209,-37.109375,-29.78515625,-27.83203125,-28.80859375,0.0
1676922182.034213,-19.53125,-33.203125,-35.64453125,-17.578125,0.0
1676922182.0367055,-18.06640625,-15.625,-33.69140625,4.8828125,0.0
1676922182.039198,-15.625,-14.6484375,-31.73828125,-2.44140625,0.0
1676922182.04169,-13.671875,-28.80859375,-28.3203125,1.46484375,0.0
1676922182.0441823,-24.90234375,-40.52734375,-23.92578125,16.6015625,0.0
1676922182.0466747,-19.04296875,-35.15625,-32.2265625,2.9296875,0.0
1676922182.0491672,-9.27734375,-20.5078125,-36.1328125,-14.6484375,0.0
1676922182.0516593,-13.671875,-32.2265625,-28.3203125,-14.16015625,0.0
1676922182.0554051,-16.11328125,-47.8515625,-28.80859375,3.90625,0.0
1676922182.059151,-20.5078125,-25.390625,-32.2265625,4.39453125,0.0
1676922182.0628967,-20.01953125,-4.39453125,-32.2265625,0.0,0.0
1676922182.0666425,-24.90234375,-26.85546875,-39.0625,-26.3671875,0.0
1676922182.0703883,-11.71875,-27.34375,-33.69140625,-24.4140625,0.0
1676922182.0741339,9.765625,-9.765625,-18.06640625,1.46484375,0.0
1676922182.0778797,-9.27734375,-11.71875,-27.83203125,-3.90625,0.0
1676922182.0816255,-11.23046875,-28.80859375,-38.57421875,-12.20703125,0.0
1676922182.0853713,-22.94921875,-24.4140625,-32.2265625,-11.71875,0.0
1676922182.089117,-30.2734375,1.46484375,-29.296875,-13.671875,0.0
1676922182.0928628,-22.94921875,-8.30078125,-16.6015625,-19.53125,0.0
1676922182.0966086,-21.97265625,-10.7421875,-19.04296875,-37.109375,0.0
1676922182.1004672,-20.5078125,-13.671875,-27.34375,-35.64453125,0.0
1676922182.1043255,-20.5078125,-19.04296875,-24.90234375,-20.5078125,0.0
1676922182.108184,-29.78515625,-17.08984375,-31.25,-25.87890625,0.0
1676922182.1120427,-48.33984375,-22.4609375,-31.25,-25.87890625,0.0
1676922182.115901,-36.1328125,-11.71875,-25.87890625,-17.08984375,0.0
1676922182.1197596,-32.2265625,-6.34765625,-24.90234375,-3.90625,0.0
1676922182.1236181,-43.45703125,-26.85546875,-26.3671875,-8.30078125,0.0
1676922182.1274765,-47.36328125,-37.109375,-29.296875,-19.04296875,0.0
1676922182.131335,-35.64453125,-18.06640625,-26.85546875,-35.15625,0.0
1676922182.1351936,-46.38671875,3.90625,-27.83203125,-36.62109375,0.0
1676922182.139052,-68.84765625,-16.11328125,-33.69140625,-18.5546875,0.0
1676922182.1429105,-51.26953125,-43.9453125,-37.109375,-24.90234375,0.0
1676922182.1465547,-49.8046875,-35.15625,-34.1796875,-29.296875,0.0
1676922182.150199,-63.96484375,-27.34375,-36.62109375,-22.4609375,0.0
1676922182.153843,-63.4765625,-35.64453125,-44.921875,-4.8828125,0.0
1676922182.1574872,-33.203125,-20.01953125,-24.90234375,4.39453125,0.0
1676922182.1611314,-10.7421875,6.8359375,-12.6953125,-16.6015625,0.0
1676922182.1647754,-23.4375,-5.859375,-31.73828125,-22.94921875,0.0
1676922182.1684196,-38.0859375,-39.0625,-39.55078125,-5.859375,0.0
1676922182.1720638,-53.7109375,-51.7578125,-34.1796875,0.0,0.0
1676922182.175708,-56.640625,-26.85546875,-28.80859375,-21.484375,0.0
1676922182.1793523,-42.48046875,-19.53125,-29.78515625,-36.1328125,0.0
1676922182.1829963,-43.45703125,-23.4375,-30.76171875,-14.16015625,0.0
1676922182.1866405,-49.8046875,-19.53125,-34.66796875,-4.8828125,0.0
1676922182.1903892,-39.55078125,-15.13671875,-35.64453125,-20.99609375,0.0
1676922182.1941376,-30.76171875,-19.04296875,-33.69140625,-40.52734375,0.0
1676922182.197886,-21.97265625,-36.1328125,-34.66796875,-35.15625,0.0
1676922182.2016346,-58.59375,-45.41015625,-42.96875,-39.0625,0.0
1676922182.2053833,-67.3828125,-38.57421875,-46.875,-43.45703125,0.0
1676922182.2091317,-24.90234375,-34.1796875,-38.57421875,-32.2265625,0.0
1676922182.2128801,-14.16015625,-31.73828125,-36.1328125,-31.73828125,0.0
1676922182.2166288,-29.296875,-15.13671875,-32.71484375,-36.1328125,0.0
1676922182.2203774,-27.34375,-9.27734375,-38.0859375,-37.59765625,0.0
1676922182.2241259,-23.4375,-33.69140625,-52.734375,-52.24609375,0.0
1676922182.2278743,-11.23046875,-31.73828125,-45.41015625,-64.453125,0.0
1676922182.231623,-11.71875,-24.4140625,-43.9453125,-51.7578125,0.0
1676922182.2353995,-36.1328125,-36.62109375,-45.41015625,-44.921875,0.0
1676922182.2391763,-30.76171875,-32.71484375,-34.66796875,-43.9453125,0.0
1676922182.2429528,-14.6484375,-25.390625,-30.76171875,-31.25,0.0
1676922182.2467296,-14.16015625,-16.11328125,-31.25,-18.5546875,0.0
1676922182.2505062,-29.78515625,-11.71875,-28.80859375,-3.41796875,0.0
1676922182.254283,-42.48046875,-33.69140625,-42.48046875,-12.20703125,0.0
1676922182.2580595,-20.99609375,-47.36328125,-48.828125,-31.73828125,0.0
1676922182.261836,-3.90625,-29.78515625,-40.0390625,-23.4375,0.0
1676922182.2656128,-18.06640625,-27.83203125,-33.69140625,-21.484375,0.0
1676922182.2693894,-41.015625,-44.43359375,-18.06640625,-16.6015625,0.0
1676922182.2731662,-34.66796875,-42.96875,-22.94921875,-19.04296875,0.0
1676922182.2769427,-30.2734375,-26.85546875,-43.9453125,-31.25,0.0
1676922182.2819319,-35.15625,-22.94921875,-41.015625,-18.5546875,0.0
1676922182.286921,-36.62109375,-34.66796875,-38.0859375,-13.18359375,0.0
1676922182.2919102,-32.2265625,-47.36328125,-45.8984375,-16.11328125,0.0
1676922182.296899,-21.484375,-36.1328125,-38.57421875,-16.6015625,0.0
1676922182.3018882,-20.01953125,-34.1796875,-32.2265625,-11.23046875,0.0
1676922182.3068774,-35.64453125,-53.7109375,-40.0390625,-19.04296875,0.0
1676922182.3118665,-29.78515625,-45.41015625,-40.52734375,-41.015625,0.0
1676922182.3168557,-15.13671875,-10.7421875,-38.57421875,-47.8515625,0.0
1676922182.3218446,-32.71484375,-4.8828125,-33.203125,-17.08984375,0.0
1676922182.3268337,-41.9921875,-29.296875,-29.78515625,-4.8828125,0.0
1676922182.3318229,-36.1328125,-32.71484375,-35.64453125,-30.2734375,0.0
1676922182.336812,-41.50390625,-35.15625,-29.78515625,-51.26953125,0.0
1676922182.3405452,-48.33984375,-46.875,-26.85546875,-42.96875,0.0
1676922182.344278,-24.90234375,-27.83203125,-16.11328125,-3.90625,0.0
1676922182.348011,-9.27734375,-10.25390625,-11.23046875,-0.48828125,0.0
1676922182.3517442,-7.32421875,-36.1328125,-28.80859375,-22.94921875,0.0
1676922182.3554773,-10.25390625,-46.875,-28.3203125,-20.5078125,0.0
1676922182.3592103,-19.04296875,-37.59765625,-17.08984375,6.8359375,0.0
1676922182.3629432,-21.484375,-23.92578125,-10.7421875,-1.953125,0.0
1676922182.3666763,-23.4375,-21.484375,-21.484375,-37.109375,0.0
1676922182.3704095,-23.4375,-42.48046875,-30.76171875,-39.55078125,0.0
1676922182.3741424,-22.94921875,-44.921875,-30.2734375,-20.99609375,0.0
1676922182.3778753,-21.484375,-32.71484375,-26.85546875,-3.41796875,0.0
1676922182.3816085,-23.4375,-31.25,-20.99609375,-13.18359375,0.0
1676922182.3853977,-36.1328125,-37.109375,-20.01953125,-20.5078125,0.0
1676922182.389187,-42.48046875,-36.1328125,-26.85546875,-17.578125,0.0
1676922182.3929763,-46.875,-31.25,-35.64453125,-24.4140625,0.0
1676922182.3967655,-52.24609375,-23.92578125,-36.62109375,-23.92578125,0.0
1676922182.400555,-57.6171875,-36.1328125,-28.3203125,-7.8125,0.0
1676922182.404344,-40.52734375,-40.52734375,-17.578125,-2.9296875,0.0
1676922182.4081333,-43.9453125,-25.87890625,-27.34375,-26.85546875,0.0
1676922182.4119227,-59.5703125,-31.25,-33.69140625,-33.69140625,0.0
1676922182.4157119,-29.296875,-41.9921875,-36.1328125,-29.296875,0.0
1676922182.419501,-23.92578125,-31.73828125,-45.41015625,-44.43359375,0.0
1676922182.4232905,-31.73828125,-9.765625,-48.828125,-47.36328125,0.0
1676922182.4270797,-31.25,-18.5546875,-43.45703125,-35.64453125,0.0
1676922182.430791,-24.90234375,-37.109375,-38.57421875,-41.50390625,0.0
1676922182.4345021,-20.5078125,-34.66796875,-31.73828125,-35.64453125,0.0
1676922182.4382133,-28.80859375,-13.671875,-26.3671875,-23.92578125,0.0
1676922182.4419243,-44.921875,-23.92578125,-36.62109375,-19.53125,0.0
1676922182.4456356,-50.78125,-55.6640625,-34.1796875,-19.53125,0.0
1676922182.4493468,-50.29296875,-44.43359375,-31.25,-29.78515625,0.0
1676922182.453058,-49.31640625,-39.0625,-43.9453125,-35.64453125,0.0
1676922182.4567692,-53.7109375,-61.03515625,-40.0390625,-24.90234375,0.0
1676922182.4604802,-49.8046875,-48.828125,-27.83203125,-31.73828125,0.0
1676922182.4641914,-49.31640625,-29.296875,-35.64453125,-58.10546875,0.0
1676922182.4679027,-53.22265625,-38.0859375,-39.55078125,-54.19921875,0.0
1676922182.471614,-44.43359375,-40.52734375,-28.3203125,-25.390625,0.0
1676922182.4753656,-27.83203125,-26.3671875,-26.3671875,-15.13671875,0.0
1676922182.4791176,-24.90234375,-20.01953125,-30.2734375,-25.390625,0.0
1676922182.4828696,-31.25,-26.3671875,-34.66796875,-34.66796875,0.0
1676922182.4866214,-36.1328125,-31.25,-24.4140625,-12.20703125,0.0
1676922182.4903731,-35.15625,-31.73828125,-20.01953125,-1.46484375,0.0
1676922182.4941251,-33.69140625,-27.83203125,-40.0390625,-30.2734375,0.0
1676922182.4978771,-34.66796875,-27.34375,-40.0390625,-35.15625,0.0
1676922182.5016289,-30.76171875,-41.9921875,-24.90234375,-24.4140625,0.0
1676922182.5053806,-38.57421875,-42.96875,-33.69140625,-28.80859375,0.0
1676922182.5091326,-31.73828125,-27.34375,-40.52734375,-34.66796875,0.0
1676922182.5128846,-25.87890625,-40.52734375,-41.9921875,-41.015625,0.0
1676922182.5166364,-34.1796875,-41.50390625,-41.50390625,-35.15625,0.0
1676922182.5203843,-36.62109375,-20.5078125,-41.50390625,-19.53125,0.0
1676922182.5241323,-40.52734375,-19.53125,-42.48046875,-21.97265625,0.0
1676922182.5278802,-36.1328125,-30.2734375,-46.38671875,-41.015625,0.0
1676922182.5316281,-32.2265625,-33.203125,-42.96875,-39.55078125,0.0
1676922182.535376,-25.390625,-29.78515625,-33.203125,-16.6015625,0.0
1676922182.539124,-25.390625,-32.71484375,-28.80859375,-2.9296875,0.0
1676922182.542872,-25.87890625,-53.22265625,-24.90234375,-17.578125,0.0
1676922182.54662,-35.15625,-54.6875,-29.296875,-29.296875,0.0
1676922182.5503678,-31.73828125,-12.6953125,-35.64453125,-34.66796875,0.0
1676922182.5541158,-36.62109375,-15.625,-37.59765625,-36.62109375,0.0
1676922182.5578637,-39.55078125,-26.85546875,-36.1328125,-26.85546875,0.0
1676922182.5616117,-29.78515625,-9.765625,-30.76171875,-20.01953125,0.0
1676922182.565508,-34.1796875,-11.71875,-30.2734375,-35.15625,0.0
1676922182.5694044,-48.33984375,-34.1796875,-30.76171875,-48.828125,0.0
1676922182.5733008,-52.734375,-47.8515625,-27.34375,-39.0625,0.0
1676922182.577197,-50.29296875,-40.0390625,-25.87890625,-52.24609375,0.0
1676922182.5810933,-53.7109375,-22.4609375,-31.25,-46.38671875,0.0
1676922182.5849898,-66.40625,-28.3203125,-37.109375,-24.4140625,0.0
1676922182.5888863,-53.22265625,-29.78515625,-24.4140625,-14.16015625,0.0
1676922182.5927825,-24.4140625,-8.7890625,-14.6484375,-11.23046875,0.0
1676922182.5966787,-16.6015625,5.37109375,-21.97265625,-9.27734375,0.0
1676922182.6005752,-17.08984375,-7.8125,-25.390625,-14.6484375,0.0
1676922182.6044717,-30.76171875,-35.64453125,-26.85546875,-18.5546875,0.0
1676922182.608368,-26.85546875,-27.83203125,-24.90234375,-35.15625,0.0
1676922182.613226,-5.859375,-8.7890625,-25.87890625,-42.96875,0.0
1676922182.6180842,-25.390625,-24.90234375,-35.64453125,-30.76171875,0.0
1676922182.6229422,-40.52734375,-28.3203125,-35.64453125,-28.3203125,0.0
1676922182.6278005,-22.4609375,-16.6015625,-26.3671875,-30.76171875,0.0
1676922182.6326585,-41.015625,-34.1796875,-28.3203125,-51.7578125,0.0
1676922182.6375165,-49.31640625,-46.875,-35.15625,-41.9921875,0.0
1676922182.6423748,-41.50390625,-32.2265625,-25.390625,-10.7421875,0.0
1676922182.6472328,-39.55078125,-21.97265625,-26.3671875,-19.04296875,0.0
1676922182.652091,-44.921875,-30.2734375,-38.0859375,-36.1328125,0.0
1676922182.656949,-50.29296875,-48.33984375,-39.0625,-23.4375,0.0
1676922182.6618073,-41.50390625,-47.8515625,-37.109375,-22.4609375,0.0
1676922182.6666653,-30.76171875,-22.94921875,-37.59765625,-28.3203125,0.0
1676922182.6704125,-40.0390625,-21.97265625,-36.62109375,-36.1328125,0.0
1676922182.6741595,-53.7109375,-31.73828125,-37.59765625,-40.0390625,0.0
1676922182.6779068,-46.38671875,-23.92578125,-41.50390625,-27.34375,0.0
1676922182.6816537,-43.45703125,-14.6484375,-42.96875,-33.203125,0.0
1676922182.685401,-42.48046875,-27.83203125,-42.48046875,-40.52734375,0.0
1676922182.689148,-40.0390625,-38.0859375,-43.45703125,-31.25,0.0
1676922182.6928952,-42.96875,-28.80859375,-33.69140625,-8.30078125,0.0
1676922182.6966424,-46.875,-22.94921875,-28.3203125,-6.34765625,0.0
1676922182.7003894,-34.66796875,-35.15625,-38.0859375,-39.0625,0.0
1676922182.7041366,-36.62109375,-38.0859375,-31.73828125,-36.62109375,0.0
1676922182.7078836,-48.828125,-23.92578125,-27.83203125,-28.80859375,0.0
1676922182.7116308,-55.17578125,-20.99609375,-39.0625,-30.2734375,0.0
1676922182.7153826,-49.8046875,-26.3671875,-36.1328125,-20.99609375,0.0
1676922182.7191343,-32.2265625,-32.2265625,-29.78515625,-30.76171875,0.0
1676922182.722886,-24.90234375,-28.80859375,-31.25,-24.4140625,0.0
1676922182.7266378,-24.90234375,-21.484375,-29.78515625,-7.32421875,0.0
1676922182.7303896,-24.90234375,-18.06640625,-23.4375,0.0,0.0
1676922182.7341413,-16.11328125,-27.83203125,-28.80859375,-17.578125,0.0
1676922182.7378929,-19.53125,-24.90234375,-37.109375,-36.62109375,0.0
1676922182.7416446,-28.80859375,-17.08984375,-35.15625,-29.296875,0.0
1676922182.7453964,-49.31640625,-36.62109375,-33.69140625,-15.13671875,0.0
1676922182.7491481,-62.98828125,-45.41015625,-32.71484375,-17.578125,0.0
1676922182.7529,-45.8984375,-18.06640625,-24.4140625,-30.2734375,0.0
1676922182.7566516,-33.203125,-12.6953125,-24.4140625,-5.859375,0.0
1676922182.760402,-41.50390625,-17.578125,-26.3671875,0.0,0.0
1676922182.7641523,-41.50390625,-16.11328125,-21.484375,-21.97265625,0.0
1676922182.7679026,-38.0859375,-16.6015625,-24.90234375,-30.76171875,0.0
1676922182.771653,-36.62109375,-17.08984375,-29.296875,-25.390625,0.0
1676922182.7754033,-26.85546875,-20.99609375,-31.25,-22.4609375,0.0
1676922182.7791536,-27.83203125,-23.92578125,-28.3203125,-10.25390625,0.0
1676922182.782904,-42.96875,-25.390625,-33.203125,-18.06640625,0.0
1676922182.7866542,-43.45703125,-25.87890625,-30.2734375,-37.109375,0.0
1676922182.7904046,-47.36328125,-43.9453125,-22.94921875,-14.16015625,0.0
1676922182.794155,-50.78125,-39.55078125,-33.203125,-6.34765625,0.0
1676922182.7979052,-53.22265625,-33.69140625,-33.69140625,-20.5078125,0.0
1676922182.8016555,-43.9453125,-35.64453125,-27.34375,-35.64453125,0.0
1676922182.805404,-42.96875,-17.08984375,-28.80859375,-36.62109375,0.0
1676922182.8091526,-33.69140625,0.0,-27.34375,-27.34375,0.0
1676922182.812901,-25.390625,-8.30078125,-27.83203125,-34.1796875,0.0
1676922182.8166497,-27.34375,-41.50390625,-36.1328125,-37.109375,0.0
1676922182.820398,-31.25,-46.875,-41.50390625,-23.92578125,0.0
1676922182.8241467,-44.921875,-45.41015625,-42.96875,-21.484375,0.0
1676922182.8278952,-31.25,-44.43359375,-37.59765625,-41.50390625,0.0
1676922182.8316436,-19.04296875,-47.36328125,-34.66796875,-52.24609375,0.0
1676922182.8353922,-35.64453125,-48.33984375,-41.015625,-32.71484375,0.0
1676922182.8391407,-54.6875,-31.73828125,-38.57421875,-28.3203125,0.0
1676922182.8428893,-51.26953125,-29.78515625,-41.015625,-48.33984375,0.0
1676922182.8466377,-49.31640625,-27.34375,-51.26953125,-56.640625,0.0
1676922182.8528855,-49.8046875,-25.87890625,-46.875,-52.24609375,0.0
1676922182.8591332,-38.0859375,-22.4609375,-36.1328125,-26.85546875,0.0
1676922182.8653812,-37.59765625,-8.7890625,-24.4140625,-9.27734375,0.0
1676922182.871629,-36.62109375,-9.27734375,-25.390625,-26.85546875,0.0
1676922182.8778768,-29.78515625,-12.6953125,-48.33984375,-53.7109375,0.0
1676922182.8841245,-29.296875,-12.6953125,-52.24609375,-34.66796875,0.0
1676922182.8903723,-23.4375,-15.13671875,-39.55078125,-18.06640625,0.0
1676922182.89662,-27.83203125,-31.73828125,-34.1796875,-37.109375,0.0
1676922182.9028678,-24.4140625,-28.3203125,-34.66796875,-49.31640625,0.0
1676922182.9091158,-34.66796875,0.48828125,-31.25,-30.2734375,0.0
1676922182.9153636,-64.453125,-14.6484375,-38.57421875,-13.18359375,0.0
1676922182.9216113,-52.734375,-36.62109375,-39.55078125,-14.16015625,0.0
1676922182.9228666,-48.33984375,-23.92578125,-29.78515625,-11.71875,0.0
1676922182.9241219,-47.8515625,-15.13671875,-29.78515625,-10.7421875,0.0
1676922182.9253771,-40.0390625,-19.04296875,-25.390625,-6.34765625,0.0
1676922182.9266324,-36.62109375,-22.4609375,-22.94921875,-5.859375,0.0
1676922182.9278877,-33.203125,-28.80859375,-30.2734375,-26.85546875,0.0
1676922182.929143,-59.5703125,-41.50390625,-41.50390625,-42.48046875,0.0
1676922182.930398,-54.6875,-42.48046875,-44.43359375,-29.296875,0.0
1676922182.9316533,-43.9453125,-31.25,-40.0390625,-21.484375,0.0
1676922182.9329085,-41.9921875,-23.92578125,-35.64453125,-22.94921875,0.0
1676922182.9341638,-25.390625,-4.39453125,-27.83203125,-20.5078125,0.0
1676922182.935419,-36.62109375,-22.94921875,-28.80859375,-6.8359375,0.0
1676922182.9366744,-51.7578125,-38.0859375,-30.2734375,4.8828125,0.0
1676922182.9404316,-44.43359375,-4.39453125,-27.34375,-16.6015625,0.0
1676922182.9441888,-51.7578125,-16.6015625,-26.3671875,-40.52734375,0.0
1676922182.947946,-49.8046875,-48.33984375,-28.3203125,-15.625,0.0
1676922182.951703,-41.9921875,-31.73828125,-36.62109375,-10.7421875,0.0
1676922182.9554603,-43.9453125,-14.16015625,-40.52734375,-40.52734375,0.0
1676922182.9592175,-46.875,-45.8984375,-40.0390625,-45.8984375,0.0
1676922182.9629748,-37.59765625,-53.7109375,-36.1328125,-28.80859375,0.0
1676922182.966732,-31.73828125,-21.97265625,-29.296875,-13.671875,0.0
1676922182.970489,-39.0625,-11.23046875,-27.83203125,-13.18359375,0.0
1676922182.9742463,-34.1796875,-38.0859375,-36.1328125,-38.57421875,0.0
1676922182.9780035,-45.41015625,-47.36328125,-43.9453125,-50.78125,0.0
1676922182.9817607,-53.7109375,-30.2734375,-40.0390625,-28.80859375,0.0
1676922182.9855096,-42.96875,-24.90234375,-37.109375,-27.34375,0.0
1676922182.9892585,-31.25,-25.87890625,-32.71484375,-42.48046875,0.0
1676922182.9930074,-16.11328125,-13.671875,-24.4140625,-41.9921875,0.0
1676922182.9967563,-15.13671875,-9.27734375,-18.06640625,-20.01953125,0.0
1676922183.0005052,-26.3671875,-9.27734375,-18.5546875,-9.765625,0.0
1676922183.0042539,-33.203125,-18.5546875,-19.04296875,0.9765625,0.0
1676922183.0080028,-30.2734375,-33.203125,-24.90234375,-12.6953125,0.0
1676922183.0117517,-43.9453125,-29.78515625,-31.73828125,-35.64453125,0.0
1676922183.0155005,-57.6171875,-30.2734375,-32.71484375,-31.25,0.0
1676922183.0192494,-58.10546875,-58.59375,-32.2265625,-18.5546875,0.0
1676922183.0229983,-40.0390625,-50.29296875,-23.4375,-22.94921875,0.0
1676922183.0267472,-32.71484375,-20.99609375,-20.99609375,-43.9453125,0.0
1676922183.0317342,-43.45703125,-23.92578125,-23.4375,-30.2734375,0.0
1676922183.036721,-61.03515625,-22.94921875,-15.625,-26.85546875,0.0
1676922183.041708,-61.5234375,-8.7890625,-10.25390625,-39.55078125,0.0
1676922183.046695,-46.38671875,0.9765625,-21.484375,-36.1328125,0.0
1676922183.0516818,-48.828125,-9.765625,-30.76171875,-25.87890625,0.0
1676922183.0566688,-62.98828125,-23.92578125,-30.76171875,-9.27734375,0.0
1676922183.0616558,-44.43359375,-8.30078125,-28.3203125,-26.3671875,0.0
1676922183.0666425,-38.57421875,5.859375,-26.3671875,-63.96484375,0.0
1676922183.0716295,-41.9921875,-3.41796875,-25.87890625,-46.875,0.0
1676922183.0766165,-41.9921875,-14.16015625,-21.484375,-12.6953125,0.0
1676922183.0816033,-51.7578125,-17.08984375,-24.4140625,-31.73828125,0.0
1676922183.0865903,-41.50390625,-10.7421875,-26.3671875,-58.10546875,0.0
1676922183.0903423,-35.15625,-19.53125,-22.94921875,-39.0625,0.0
1676922183.0940943,-54.6875,-23.4375,-27.34375,-25.390625,0.0
1676922183.0978465,-61.5234375,-3.41796875,-22.4609375,-31.73828125,0.0
1676922183.1015985,-43.9453125,0.9765625,-21.484375,-35.64453125,0.0
1676922183.1053505,-55.17578125,-41.50390625,-26.3671875,-28.3203125,0.0
1676922183.1091027,-74.21875,-67.3828125,-31.25,-19.53125,0.0
1676922183.1128547,-69.3359375,-45.41015625,-48.828125,-48.828125,0.0
1676922183.1166067,-58.10546875,-23.92578125,-45.41015625,-64.94140625,0.0
1676922183.1203587,-63.96484375,-35.64453125,-34.66796875,-46.38671875,0.0
1676922183.1241107,-62.98828125,-44.921875,-40.0390625,-30.76171875,0.0
1676922183.127863,-61.5234375,-24.90234375,-40.0390625,-29.296875,0.0
1676922183.131615,-42.96875,-15.625,-40.0390625,-35.15625,0.0
1676922183.1378715,-32.71484375,-19.04296875,-41.015625,-51.26953125,0.0
1676922183.1441278,-29.296875,-13.671875,-38.57421875,-33.69140625,0.0
1676922183.1503844,-25.87890625,-2.9296875,-33.203125,-24.4140625,0.0
1676922183.156641,-29.78515625,-22.94921875,-34.1796875,-38.57421875,0.0
1676922183.1628976,-38.0859375,-47.8515625,-42.96875,-39.0625,0.0
1676922183.1691542,-43.9453125,-42.96875,-41.50390625,-37.109375,0.0
1676922183.1754105,-70.80078125,-47.36328125,-41.50390625,-35.15625,0.0
1676922183.181667,-89.35546875,-64.453125,-42.48046875,-50.29296875,0.0
1676922183.1879237,-60.546875,-61.5234375,-39.55078125,-59.08203125,0.0
1676922183.19418,-31.73828125,-21.97265625,-32.71484375,-58.59375,0.0
1676922183.2004366,-44.921875,-21.484375,-29.296875,-60.546875,0.0
1676922183.2066932,-70.3125,-54.19921875,-40.52734375,-34.1796875,0.0
1676922183.2081003,-71.77734375,-57.12890625,-49.31640625,-37.109375,0.0
1676922183.2095075,-60.546875,-45.41015625,-49.31640625,-73.2421875,0.0
1676922183.2109146,-65.4296875,-37.109375,-47.8515625,-59.5703125,0.0
1676922183.2123215,-66.40625,-38.0859375,-38.57421875,-37.109375,0.0
1676922183.2137287,-61.03515625,-38.0859375,-35.15625,-43.45703125,0.0
1676922183.2151358,-57.6171875,-41.50390625,-32.2265625,-59.5703125,0.0
1676922183.216543,-50.78125,-39.55078125,-21.484375,-54.19921875,0.0
1676922183.21795,-62.01171875,-35.64453125,-19.53125,-29.78515625,0.0
1676922183.219357,-49.31640625,-29.78515625,-25.87890625,-39.0625,0.0
1676922183.2207642,-47.36328125,-19.04296875,-25.87890625,-50.29296875,0.0
1676922183.2221713,-39.0625,-6.8359375,-17.578125,-22.4609375,0.0
1676922183.2235785,-14.16015625,-3.90625,-24.4140625,-20.01953125,0.0
1676922183.2271686,-28.80859375,-16.6015625,-35.64453125,-33.203125,0.0
1676922183.2307584,-26.85546875,-14.6484375,-29.78515625,-42.96875,0.0
1676922183.2343485,-26.3671875,-19.53125,-22.4609375,-36.62109375,0.0
1676922183.2379386,-39.55078125,-41.9921875,-28.80859375,-17.578125,0.0
1676922183.2415285,-50.78125,-22.94921875,-32.71484375,-12.6953125,0.0
1676922183.2451186,-34.1796875,-17.08984375,-27.83203125,-33.203125,0.0
1676922183.2487087,-25.87890625,-36.1328125,-31.25,-60.546875,0.0
1676922183.2522986,-47.36328125,-48.33984375,-40.52734375,-22.4609375,0.0
1676922183.2558887,-60.05859375,-52.734375,-44.921875,-7.32421875,0.0
1676922183.2594788,-48.33984375,-27.34375,-40.0390625,-47.8515625,0.0
1676922183.2630687,-38.57421875,-26.3671875,-30.2734375,-56.640625,0.0
1676922183.2666588,-42.48046875,-36.62109375,-33.203125,-40.0390625,0.0
1676922183.27166,-37.109375,-29.296875,-35.15625,-25.87890625,0.0
1676922183.2766614,-29.296875,-22.4609375,-33.69140625,-27.34375,0.0
1676922183.2816627,-28.3203125,-34.1796875,-32.71484375,-26.85546875,0.0
1676922183.286664,-24.4140625,-33.69140625,-28.80859375,-20.5078125,0.0
1676922183.2916653,-35.64453125,-24.4140625,-25.87890625,-13.18359375,0.0
1676922183.2966666,-44.43359375,-31.25,-25.87890625,-22.94921875,0.0
1676922183.3016682,-50.29296875,-41.50390625,-27.34375,-28.80859375,0.0
1676922183.3066695,-42.96875,-29.78515625,-17.578125,-28.3203125,0.0
1676922183.3116708,-27.34375,-0.48828125,-9.765625,-19.04296875,0.0
1676922183.316672,-27.83203125,-5.859375,-20.99609375,-5.37109375,0.0
1676922183.3216734,-28.80859375,-24.90234375,-34.1796875,-12.20703125,0.0
1676922183.3266747,-32.2265625,-23.4375,-27.34375,-28.3203125,0.0
1676922183.3292773,-29.296875,-22.4609375,-20.5078125,-20.5078125,0.0
1676922183.3318799,-56.15234375,-44.921875,-33.69140625,-20.5078125,0.0
1676922183.3344824,-63.96484375,-58.59375,-35.15625,-45.41015625,0.0
1676922183.337085,-37.59765625,-45.41015625,-40.0390625,-59.08203125,0.0
1676922183.3396876,-42.48046875,-24.4140625,-41.015625,-43.45703125,0.0
1676922183.3422902,-36.1328125,-35.64453125,-34.1796875,-17.578125,0.0
1676922183.3448927,-30.2734375,-58.10546875,-32.71484375,-13.18359375,0.0
1676922183.3474953,-30.76171875,-47.36328125,-37.59765625,-28.80859375,0.0
1676922183.350098,-26.3671875,-32.71484375,-28.80859375,-12.20703125,0.0
1676922183.3527005,-40.52734375,-34.66796875,-20.5078125,9.27734375,0.0
1676922183.355303,-39.0625,-26.85546875,-27.83203125,11.23046875,0.0
1676922183.3579056,-28.80859375,-16.11328125,-39.55078125,-20.5078125,0.0
1676922183.3615584,-27.83203125,-36.62109375,-46.875,-51.26953125,0.0
1676922183.3652112,-22.4609375,-47.8515625,-36.62109375,-16.6015625,0.0
1676922183.368864,-18.5546875,-42.48046875,-33.69140625,-1.953125,0.0
1676922183.3725166,-32.71484375,-35.64453125,-37.59765625,-26.3671875,0.0
1676922183.3761694,-31.25,-35.15625,-36.1328125,-27.34375,0.0
1676922183.3798223,-31.25,-47.36328125,-32.2265625,-18.06640625,0.0
1676922183.383475,-37.109375,-49.8046875,-36.62109375,4.8828125,0.0
1676922183.3871279,-27.83203125,-23.92578125,-34.1796875,-18.06640625,0.0
1676922183.3907804,-20.01953125,-14.6484375,-27.34375,-52.734375,0.0
1676922183.3944333,-20.01953125,-35.15625,-30.76171875,-31.73828125,0.0
1676922183.398086,-28.80859375,-37.109375,-37.59765625,-20.99609375,0.0
1676922183.401739,-7.32421875,-6.8359375,-21.97265625,-20.01953125,0.0
1676922183.4067664,6.34765625,-1.953125,-14.16015625,-27.83203125,0.0
1676922183.4117937,9.27734375,-25.390625,-28.80859375,-31.73828125,0.0
1676922183.4168212,10.7421875,-31.73828125,-31.25,-11.71875,0.0
1676922183.4218485,-14.16015625,-31.25,-25.87890625,-13.18359375,0.0
1676922183.426876,-21.484375,-41.9921875,-27.83203125,-20.01953125,0.0
1676922183.4319034,-30.76171875,-58.10546875,-42.48046875,-21.97265625,0.0
1676922183.436931,-37.109375,-44.921875,-38.0859375,-19.53125,0.0
1676922183.4419584,-28.3203125,-15.13671875,-29.78515625,-9.27734375,0.0
1676922183.4469857,-16.11328125,-20.99609375,-35.15625,-22.94921875,0.0
1676922183.4520133,2.44140625,-47.36328125,-38.0859375,-21.97265625,0.0
1676922183.4570405,4.8828125,-27.34375,-31.73828125,-14.16015625,0.0
1676922183.462068,-11.71875,-10.7421875,-20.01953125,-14.6484375,0.0
1676922183.4657855,-17.578125,-23.92578125,-27.83203125,-27.83203125,0.0
1676922183.469503,-8.7890625,-19.04296875,-35.64453125,-46.875,0.0
1676922183.4732203,-6.8359375,-24.90234375,-42.96875,-46.38671875,0.0
1676922183.476938,-8.30078125,-32.71484375,-37.109375,-32.2265625,0.0
1676922183.4806554,-14.6484375,-17.08984375,-29.78515625,-27.34375,0.0
1676922183.4843729,-18.06640625,-25.390625,-32.2265625,-31.73828125,0.0
1676922183.4880903,-14.6484375,-40.52734375,-41.015625,-26.3671875,0.0
1676922183.4918077,-27.34375,-46.38671875,-46.875,-20.99609375,0.0
1676922183.4955254,-45.41015625,-64.94140625,-45.8984375,-10.7421875,0.0
1676922183.4992428,-31.73828125,-54.19921875,-36.62109375,-24.4140625,0.0
1676922183.5029602,-18.5546875,-18.5546875,-29.296875,-51.7578125,0.0
1676922183.5066776,-33.203125,-19.53125,-32.2265625,-41.015625,0.0
1676922183.5104241,-40.52734375,-50.29296875,-39.55078125,-17.578125,0.0
1676922183.5141706,-39.0625,-50.29296875,-45.8984375,-26.3671875,0.0
1676922183.5179172,-26.3671875,-21.97265625,-43.9453125,-45.8984375,0.0
1676922183.5216634,-20.5078125,-26.3671875,-39.55078125,-29.78515625,0.0
1676922183.52541,-22.94921875,-13.18359375,-25.87890625,-5.859375,0.0
1676922183.5291564,-17.578125,-7.32421875,-19.04296875,-15.13671875,0.0
1676922183.532903,-14.6484375,-28.80859375,-26.85546875,-39.0625,0.0
1676922183.5366495,0.48828125,-27.83203125,-28.80859375,-35.15625,0.0
1676922183.5403957,-21.97265625,-22.4609375,-37.109375,-17.578125,0.0
1676922183.5441422,-47.36328125,-28.80859375,-37.59765625,-21.97265625,0.0
1676922183.5478888,-33.69140625,-41.9921875,-45.8984375,-43.45703125,0.0
1676922183.5516353,-34.66796875,-45.41015625,-50.29296875,-52.24609375,0.0
1676922183.5553849,-48.828125,-41.015625,-41.015625,-30.2734375,0.0
1676922183.5591345,-40.0390625,-32.71484375,-41.50390625,-35.64453125,0.0
1676922183.5628843,-24.90234375,-25.87890625,-33.69140625,-59.5703125,0.0
1676922183.566634,-22.4609375,-23.4375,-27.34375,-61.5234375,0.0
1676922183.5703835,-26.3671875,-20.01953125,-23.92578125,-41.9921875,0.0
1676922183.5741334,-37.59765625,-24.90234375,-20.99609375,-3.41796875,0.0
1676922183.577883,-30.2734375,-13.18359375,-22.4609375,2.44140625,0.0
1676922183.5816326,-15.13671875,-13.18359375,-20.5078125,-7.8125,0.0
1676922183.5853822,-5.37109375,-28.80859375,-11.23046875,5.37109375,0.0
1676922183.5891318,-9.765625,-16.11328125,-11.23046875,0.9765625,0.0
1676922183.5928817,-18.5546875,-18.5546875,-20.99609375,-14.6484375,0.0
1676922183.5966313,-9.765625,-21.97265625,-16.11328125,-20.99609375,0.0
1676922183.6004002,-11.71875,-19.04296875,-17.578125,-23.92578125,0.0
1676922183.6041694,-15.625,-23.4375,-27.34375,-18.06640625,0.0
1676922183.6079383,-19.53125,-47.8515625,-35.15625,-15.625,0.0
1676922183.6117072,-35.64453125,-54.6875,-36.1328125,-22.4609375,0.0
1676922183.6154761,-38.57421875,-37.59765625,-31.73828125,-18.5546875,0.0
1676922183.619245,-37.59765625,-32.2265625,-29.296875,7.8125,0.0
1676922183.6230142,-38.0859375,-26.3671875,-24.4140625,2.44140625,0.0
1676922183.6267831,-31.73828125,-41.015625,-24.4140625,-15.13671875,0.0
1676922183.630552,-35.64453125,-47.8515625,-31.25,-13.18359375,0.0
1676922183.6343212,-38.0859375,-33.69140625,-38.0859375,-25.390625,0.0
1676922183.6380901,-34.66796875,-23.92578125,-21.97265625,-10.25390625,0.0
1676922183.641859,-25.87890625,-18.06640625,-15.13671875,-9.765625,0.0
1676922183.6455953,-23.92578125,-20.99609375,-38.57421875,-35.15625,0.0
1676922183.6493316,-34.66796875,-20.99609375,-45.8984375,-23.4375,0.0
1676922183.653068,-21.97265625,-34.66796875,-41.9921875,-12.6953125,0.0
1676922183.6568043,-20.5078125,-36.1328125,-44.43359375,-18.06640625,0.0
1676922183.6605406,-16.11328125,-20.99609375,-30.76171875,-33.69140625,0.0
1676922183.664277,-9.27734375,-29.296875,-26.3671875,-35.15625,0.0
1676922183.6680133,-35.15625,-51.26953125,-42.96875,-5.37109375,0.0
1676922183.6717496,-27.34375,-52.734375,-41.9921875,0.0,0.0
1676922183.6754858,-2.9296875,-24.90234375,-46.38671875,-37.59765625,0.0
1676922183.679222,-3.90625,-18.5546875,-44.43359375,-43.9453125,0.0
1676922183.6829586,-26.3671875,-30.76171875,-33.69140625,-36.1328125,0.0
1676922183.6866949,-41.9921875,-32.2265625,-29.296875,-28.3203125,0.0
1676922183.69044,-30.76171875,-29.78515625,-21.97265625,-15.13671875,0.0
1676922183.694185,-35.64453125,-32.2265625,-25.87890625,-29.296875,0.0
1676922183.69793,-46.875,-34.66796875,-41.9921875,-18.5546875,0.0
1676922183.7016752,-50.78125,-31.25,-42.48046875,-14.16015625,0.0
1676922183.7054203,-30.2734375,-31.73828125,-37.59765625,-35.15625,0.0
1676922183.709165,-48.828125,-47.36328125,-41.9921875,-48.828125,0.0
1676922183.7129102,-56.640625,-56.15234375,-41.50390625,-43.9453125,0.0
1676922183.7166553,-50.78125,-28.80859375,-39.55078125,-26.85546875,0.0
1676922183.7204003,-63.96484375,-7.8125,-32.71484375,-38.0859375,0.0
1676922183.7241454,-50.78125,-25.87890625,-27.34375,-43.45703125,0.0
1676922183.7278905,-40.0390625,-43.9453125,-35.15625,-41.50390625,0.0
1676922183.7316356,-49.8046875,-26.85546875,-31.25,-39.0625,0.0
1676922183.7353914,-46.38671875,-1.46484375,-21.484375,-28.80859375,0.0
1676922183.739147,-35.64453125,-17.08984375,-23.92578125,-35.64453125,0.0
1676922183.7429028,-18.06640625,-34.66796875,-25.87890625,-51.26953125,0.0
1676922183.7466583,-27.83203125,-23.4375,-27.34375,-35.15625,0.0
1676922183.7504141,-51.7578125,-29.296875,-31.25,-20.01953125,0.0
1676922183.75417,-50.78125,-52.24609375,-29.296875,-42.96875,0.0
1676922183.7579255,-61.5234375,-50.29296875,-32.71484375,-68.359375,0.0
1676922183.7616813,-63.4765625,-31.73828125,-38.0859375,-60.05859375,0.0
1676922183.765437,-61.03515625,-25.87890625,-32.2265625,-32.2265625,0.0
1676922183.7691927,-50.78125,-20.5078125,-26.3671875,-23.4375,0.0
1676922183.7729483,-48.828125,-18.06640625,-31.73828125,-35.15625,0.0
1676922183.776704,-64.94140625,-17.578125,-37.59765625,-48.828125,0.0
1676922183.7816963,-57.6171875,-24.90234375,-42.96875,-44.43359375,0.0
1676922183.7866886,-53.7109375,-57.12890625,-39.0625,-17.08984375,0.0
1676922183.7916808,-75.1953125,-59.08203125,-25.390625,-32.2265625,0.0
1676922183.7966728,-69.82421875,-21.484375,-24.4140625,-60.546875,0.0
1676922183.801665,-60.546875,-29.78515625,-32.71484375,-44.43359375,0.0
1676922183.8066573,-57.6171875,-53.7109375,-30.76171875,-20.01953125,0.0
1676922183.8116496,-62.01171875,-43.45703125,-34.1796875,-36.1328125,0.0
1676922183.8166418,-62.98828125,-35.15625,-33.69140625,-70.80078125,0.0
1676922183.8216338,-36.62109375,-41.9921875,-15.625,-45.8984375,0.0
1676922183.826626,-43.45703125,-49.31640625,-21.97265625,-12.20703125,0.0
1676922183.8316183,-38.0859375,-33.69140625,-29.78515625,-32.2265625,0.0
1676922183.8366106,-12.6953125,-15.13671875,-32.71484375,-56.640625,0.0
1676922183.8404696,-9.765625,-35.64453125,-39.55078125,-47.8515625,0.0
1676922183.8443284,-20.01953125,-46.38671875,-39.55078125,-41.50390625,0.0
1676922183.8481874,-35.15625,-35.15625,-41.50390625,-38.0859375,0.0
1676922183.8520463,-24.90234375,-22.4609375,-32.2265625,-41.015625,0.0
1676922183.8559053,-7.32421875,-17.578125,-17.08984375,-35.64453125,0.0
1676922183.859764,-14.6484375,-34.1796875,-20.5078125,-15.13671875,0.0
1676922183.8636231,-22.94921875,-39.55078125,-38.0859375,-21.484375,0.0
1676922183.8674822,-17.578125,-26.3671875,-41.015625,-41.9921875,0.0
1676922183.871341,-25.390625,-32.2265625,-37.109375,-28.3203125,0.0
1676922183.8752,-40.0390625,-39.55078125,-37.109375,-14.6484375,0.0
1676922183.8790588,-34.1796875,-26.85546875,-28.3203125,-21.484375,0.0
1676922183.882918,-39.55078125,-32.71484375,-31.25,-50.29296875,0.0
1676922183.8865669,-54.19921875,-36.1328125,-44.43359375,-68.84765625,0.0
1676922183.8902159,-48.828125,-33.69140625,-37.59765625,-34.1796875,0.0
1676922183.8938649,-42.48046875,-28.3203125,-34.1796875,-21.97265625,0.0
1676922183.8975139,-33.69140625,-28.80859375,-25.87890625,-28.3203125,0.0
1676922183.9011629,-28.3203125,-37.109375,-19.53125,-20.5078125,0.0
1676922183.9048119,-32.2265625,-29.78515625,-20.5078125,-16.11328125,0.0
1676922183.9084606,-39.55078125,-23.4375,-23.4375,-15.625,0.0
1676922183.9121096,-29.296875,-11.23046875,-18.06640625,-20.99609375,0.0
1676922183.9157586,-26.3671875,-33.69140625,-21.97265625,-21.97265625,0.0
1676922183.9194076,-28.80859375,-48.33984375,-43.45703125,-22.94921875,0.0
1676922183.9230566,-43.45703125,-22.94921875,-36.1328125,-26.3671875,0.0
1676922183.9267056,-49.8046875,-20.01953125,-25.87890625,-20.5078125,0.0
1676922183.9304519,-27.83203125,-29.296875,-33.203125,-38.57421875,0.0
1676922183.9341984,-17.578125,-29.296875,-27.83203125,-46.38671875,0.0
1676922183.937945,-13.671875,-29.296875,-13.671875,-15.13671875,0.0
1676922183.9416912,-10.7421875,-42.48046875,-22.4609375,-0.48828125,0.0
1676922183.9454374,-20.99609375,-30.2734375,-29.78515625,-1.953125,0.0
1676922183.949184,-21.484375,-23.92578125,-25.390625,-11.23046875,0.0
1676922183.9529305,-27.83203125,-35.15625,-36.1328125,-16.6015625,0.0
1676922183.9566767,-50.78125,-37.109375,-35.64453125,-6.34765625,0.0
1676922183.960423,-51.7578125,-41.50390625,-34.1796875,-10.7421875,0.0
1676922183.9641695,-47.8515625,-24.90234375,-34.1796875,-26.3671875,0.0
1676922183.967916,-41.015625,-9.765625,-28.3203125,-25.87890625,0.0
1676922183.9716623,-36.1328125,-6.8359375,-22.4609375,-7.8125,0.0
1676922183.9754126,-42.96875,-14.16015625,-23.92578125,-2.9296875,0.0
1676922183.979163,-34.1796875,-25.87890625,-25.87890625,-9.765625,0.0
1676922183.9829133,-15.13671875,-33.69140625,-24.4140625,-8.30078125,0.0
1676922183.9866636,-33.203125,-37.109375,-25.87890625,-9.27734375,0.0
1676922183.990414,-51.7578125,-42.96875,-32.2265625,-22.4609375,0.0
1676922183.9941645,-50.29296875,-43.45703125,-36.62109375,-22.94921875,0.0
1676922183.9979148,-45.41015625,-36.1328125,-33.69140625,-15.625,0.0
1676922184.001665,-40.0390625,-42.48046875,-30.76171875,5.859375,0.0
1676922184.0054154,-48.828125,-33.203125,-43.45703125,-0.9765625,0.0
1676922184.0091658,-37.109375,-14.6484375,-43.45703125,-17.578125,0.0
1676922184.012916,-25.390625,-20.99609375,-31.25,-24.90234375,0.0
1676922184.0166664,-28.80859375,-25.87890625,-25.390625,-26.3671875,0.0
1676922184.0204127,-41.015625,-20.01953125,-26.3671875,-25.87890625,0.0
1676922184.024159,-44.43359375,-22.94921875,-37.109375,-31.25,0.0
1676922184.0279052,-43.45703125,-31.73828125,-28.80859375,-31.25,0.0
1676922184.0316515,-48.33984375,-31.25,-20.99609375,-18.06640625,0.0
1676922184.0353978,-42.96875,-11.71875,-25.390625,-4.39453125,0.0
1676922184.039144,-32.71484375,-13.18359375,-40.52734375,-14.16015625,0.0
1676922184.0428905,-36.1328125,-45.8984375,-40.52734375,-24.4140625,0.0
1676922184.0466368,-36.1328125,-63.4765625,-29.78515625,-30.76171875,0.0
1676922184.050383,-29.296875,-33.69140625,-35.15625,-21.484375,0.0
1676922184.0541294,-32.2265625,-10.7421875,-34.66796875,-5.37109375,0.0
1676922184.0578756,-19.04296875,-16.11328125,-23.92578125,-5.37109375,0.0
1676922184.061622,-11.23046875,-13.671875,-12.20703125,-9.765625,0.0
1676922184.065479,-18.5546875,-23.92578125,-34.66796875,-14.16015625,0.0
1676922184.0693364,-44.43359375,-46.875,-58.59375,-16.6015625,0.0
1676922184.0731936,-42.96875,-47.36328125,-54.6875,-25.87890625,0.0
1676922184.077051,-22.94921875,-34.66796875,-42.96875,-30.2734375,0.0
1676922184.080908,-29.78515625,-21.97265625,-35.64453125,-25.87890625,0.0
1676922184.0847654,-48.828125,-32.2265625,-37.59765625,-30.2734375,0.0
1676922184.0886226,-55.17578125,-46.38671875,-34.1796875,-20.5078125,0.0
1676922184.0924797,-33.203125,-23.4375,-21.484375,-21.484375,0.0
1676922184.096337,-23.4375,-14.6484375,-25.87890625,-28.80859375,0.0
1676922184.1001942,-20.01953125,-24.90234375,-30.76171875,-21.484375,0.0
1676922184.1040516,-25.390625,-15.625,-23.92578125,-20.5078125,0.0
1676922184.1079087,-11.23046875,5.859375,-20.5078125,-27.83203125,0.0
1676922184.1115623,-17.08984375,-7.8125,-24.4140625,-38.0859375,0.0
1676922184.1152158,-37.109375,-44.43359375,-36.62109375,-29.296875,0.0
1676922184.1188693,-35.64453125,-44.921875,-39.55078125,1.46484375,0.0
1676922184.122523,-18.06640625,-37.109375,-37.59765625,3.41796875,0.0
1676922184.1261766,-2.9296875,-20.01953125,-26.3671875,-18.5546875,0.0
1676922184.1298301,-11.71875,-7.32421875,-15.13671875,-14.16015625,0.0
1676922184.1334836,-14.16015625,-20.5078125,-27.83203125,-0.9765625,0.0
1676922184.1371372,-32.2265625,-12.20703125,-39.55078125,-30.76171875,0.0
1676922184.140791,-46.875,-15.625,-38.0859375,-56.640625,0.0
1676922184.1444445,-60.546875,-26.3671875,-40.52734375,-49.8046875,0.0
1676922184.148098,-75.68359375,-23.4375,-47.8515625,-39.0625,0.0
1676922184.1517515,-57.6171875,7.8125,-41.015625,-41.9921875,0.0
1676922184.156798,-47.8515625,25.390625,-41.50390625,-72.265625,0.0
1676922184.1618443,-39.0625,2.44140625,-42.48046875,-69.82421875,0.0
1676922184.1668906,-51.26953125,-1.46484375,-46.875,-51.7578125,0.0
1676922184.171937,-75.68359375,5.859375,-45.41015625,-46.875,0.0
1676922184.1769834,-64.453125,3.90625,-37.109375,-56.640625,0.0
1676922184.1820297,-62.5,-15.625,-44.43359375,-68.84765625,0.0
1676922184.1870759,-69.82421875,-26.3671875,-66.89453125,-71.77734375,0.0
1676922184.1921222,-68.359375,-24.4140625,-71.77734375,-66.89453125,0.0
1676922184.1971686,-56.15234375,-11.23046875,-53.22265625,-57.6171875,0.0
1676922184.202215,-34.1796875,-21.484375,-41.015625,-47.8515625,0.0
1676922184.2072613,-31.73828125,-6.34765625,-35.15625,-28.3203125,0.0
1676922184.2123077,-43.9453125,9.27734375,-44.921875,-40.52734375,0.0
1676922184.2160535,-39.0625,-10.7421875,-47.36328125,-40.0390625,0.0
1676922184.2197993,-25.87890625,-3.90625,-38.0859375,-39.55078125,0.0
1676922184.223545,-29.296875,1.953125,-44.43359375,-45.41015625,0.0
1676922184.2272909,-45.41015625,-21.97265625,-52.24609375,-23.92578125,0.0
1676922184.2310367,-39.0625,-33.69140625,-39.55078125,-3.41796875,0.0
1676922184.2347825,-32.71484375,-23.4375,-30.76171875,-20.99609375,0.0
1676922184.2385283,-29.78515625,-23.4375,-45.8984375,-41.015625,0.0
1676922184.242274,-27.83203125,-27.83203125,-53.7109375,-48.828125,0.0
1676922184.2460198,-21.484375,-31.73828125,-40.52734375,-41.50390625,0.0
1676922184.2497656,-4.39453125,-28.80859375,-34.1796875,-38.0859375,0.0
1676922184.2535114,-7.32421875,-8.30078125,-25.87890625,-50.78125,0.0
1676922184.2572572,-26.3671875,-4.8828125,-29.296875,-40.0390625,0.0
1676922184.2609663,-35.64453125,-26.3671875,-41.015625,-30.2734375,0.0
1676922184.2646756,-40.0390625,-26.85546875,-37.59765625,-26.85546875,0.0
1676922184.2683847,-40.52734375,-34.1796875,-36.1328125,-43.45703125,0.0
1676922184.2720938,-25.390625,-39.55078125,-31.73828125,-50.29296875,0.0
1676922184.275803,-13.18359375,-33.203125,-19.04296875,-13.18359375,0.0
1676922184.2795122,-27.83203125,-32.2265625,-18.06640625,-12.20703125,0.0
1676922184.2832212,-28.3203125,-31.73828125,-30.76171875,-42.48046875,0.0
1676922184.2869306,-15.13671875,-23.92578125,-28.80859375,-46.38671875,0.0
1676922184.2906396,-38.0859375,-41.9921875,-29.78515625,-19.04296875,0.0
1676922184.2943487,-40.52734375,-24.4140625,-28.80859375,-12.6953125,0.0
1676922184.298058,-13.671875,5.37109375,-31.73828125,-33.203125,0.0
1676922184.301767,-34.66796875,-20.5078125,-26.85546875,-27.83203125,0.0
1676922184.3056128,-34.66796875,-29.78515625,-18.06640625,-21.484375,0.0
1676922184.3094583,-23.92578125,-5.859375,-20.99609375,-21.97265625,0.0
1676922184.313304,-31.25,-5.37109375,-27.83203125,-40.0390625,0.0
1676922184.3171496,-24.90234375,-33.203125,-36.1328125,-42.96875,0.0
1676922184.3209953,-24.90234375,-45.8984375,-40.52734375,-37.109375,0.0
1676922184.324841,-24.90234375,-40.0390625,-35.15625,-25.87890625,0.0
1676922184.3286865,-31.73828125,-27.34375,-28.80859375,-33.203125,0.0
1676922184.3325322,-23.92578125,-25.390625,-34.66796875,-48.828125,0.0
1676922184.3363779,-10.7421875,-19.04296875,-32.71484375,-47.8515625,0.0
1676922184.3402233,0.9765625,-7.8125,-22.94921875,-37.59765625,0.0
1676922184.344069,2.44140625,-26.85546875,-29.78515625,-26.3671875,0.0
1676922184.3479147,-14.6484375,-49.31640625,-36.62109375,-20.99609375,0.0
1676922184.3515599,-18.5546875,-38.57421875,-40.0390625,-12.6953125,0.0
1676922184.355205,-18.5546875,-21.97265625,-44.921875,-8.30078125,0.0
1676922184.3588502,-10.7421875,-10.7421875,-30.2734375,-6.34765625,0.0
1676922184.3624954,12.20703125,2.9296875,-23.4375,-12.6953125,0.0
1676922184.3661406,7.32421875,-11.71875,-32.2265625,-15.13671875,0.0
1676922184.3697858,-12.20703125,-34.66796875,-39.55078125,-2.44140625,0.0
1676922184.373431,-19.53125,-49.8046875,-42.48046875,16.11328125,0.0
1676922184.3770761,-10.25390625,-54.19921875,-30.76171875,2.44140625,0.0
1676922184.3807213,2.9296875,-34.1796875,-27.83203125,-21.484375,0.0
1676922184.3843665,-14.6484375,-7.32421875,-27.83203125,-24.90234375,0.0
1676922184.3880117,-33.69140625,-14.6484375,-23.4375,-19.04296875,0.0
1676922184.3916569,-32.71484375,-39.55078125,-25.87890625,-23.4375,0.0
1676922184.3954136,-35.15625,-34.1796875,-25.390625,-36.62109375,0.0
1676922184.3991704,-42.48046875,-21.484375,-16.6015625,-21.484375,0.0
1676922184.402927,-46.38671875,-21.97265625,-24.90234375,-6.8359375,0.0
1676922184.4066837,-32.71484375,-12.6953125,-32.2265625,-16.11328125,0.0
1676922184.4104404,-41.015625,-6.34765625,-21.97265625,-19.04296875,0.0
1676922184.4141972,-45.8984375,-33.69140625,-30.76171875,-21.484375,0.0
1676922184.417954,-30.2734375,-63.4765625,-30.76171875,-13.671875,0.0
1676922184.4217107,-7.32421875,-46.38671875,-13.671875,23.92578125,0.0
1676922184.4254675,-10.7421875,4.39453125,-24.4140625,0.0,0.0
1676922184.429224,-37.109375,-13.18359375,-42.96875,-48.828125,0.0
1676922184.4329808,-36.62109375,-47.36328125,-36.1328125,-38.0859375,0.0
1676922184.4367375,-16.11328125,-34.66796875,-34.66796875,-19.53125,0.0
1676922184.4404786,-30.2734375,-24.4140625,-45.41015625,-15.625,0.0
1676922184.4442198,-50.78125,-32.71484375,-45.8984375,-25.390625,0.0
1676922184.4479609,-48.828125,-26.3671875,-42.96875,-13.18359375,0.0
1676922184.4517019,-52.734375,-0.9765625,-39.55078125,-5.37109375,0.0
1676922184.4554431,-34.66796875,11.71875,-23.4375,-1.46484375,0.0
1676922184.4591842,-21.97265625,-16.11328125,-25.87890625,-11.23046875,0.0
1676922184.4629252,-41.50390625,-59.08203125,-41.015625,-2.9296875,0.0
1676922184.4666665,-43.9453125,-55.17578125,-46.38671875,2.9296875,0.0
1676922184.4704075,-26.3671875,-24.4140625,-44.921875,-25.390625,0.0
1676922184.4741485,-28.3203125,-25.87890625,-41.015625,-37.59765625,0.0
1676922184.4778898,-23.92578125,-25.390625,-36.62109375,-41.9921875,0.0
1676922184.4816308,-20.01953125,2.9296875,-31.73828125,-38.57421875,0.0
1676922184.485513,-15.625,4.8828125,-28.3203125,-19.53125,0.0
1676922184.4893954,-15.625,-32.2265625,-30.2734375,-13.671875,0.0
1676922184.4932775,-11.71875,-41.015625,-29.296875,-32.71484375,0.0
1676922184.49716,-6.34765625,-13.18359375,-33.203125,-9.27734375,0.0
1676922184.5010421,-24.4140625,-9.27734375,-35.64453125,3.90625,0.0
1676922184.5049243,-22.4609375,-42.96875,-32.2265625,-10.7421875,0.0
1676922184.5088067,-5.37109375,-47.8515625,-29.296875,-9.27734375,0.0
1676922184.5126889,-5.859375,-23.92578125,-29.296875,-22.94921875,0.0
1676922184.5165713,-14.16015625,-28.80859375,-33.203125,-17.578125,0.0
1676922184.5204535,-30.2734375,-48.33984375,-42.48046875,-9.27734375,0.0
1676922184.5243359,-36.62109375,-59.5703125,-39.0625,-28.80859375,0.0
1676922184.528218,-38.0859375,-42.48046875,-34.66796875,-31.73828125,0.0
1676922184.533085,-60.546875,-50.78125,-41.015625,-11.71875,0.0
1676922184.5379522,-45.8984375,-51.26953125,-34.1796875,3.90625,0.0
1676922184.5428193,-32.71484375,-26.85546875,-32.2265625,-0.48828125,0.0
1676922184.5476863,-30.2734375,-12.20703125,-43.9453125,-15.625,0.0
1676922184.5525534,-44.921875,-30.2734375,-45.41015625,-32.2265625,0.0
1676922184.5574203,-49.8046875,-63.96484375,-41.015625,-18.5546875,0.0
1676922184.5622873,-23.92578125,-55.17578125,-41.9921875,-26.85546875,0.0
1676922184.5671544,-27.83203125,-28.80859375,-37.109375,-51.7578125,0.0
1676922184.5720215,-22.94921875,-23.92578125,-32.2265625,-33.69140625,0.0
1676922184.5768886,-9.765625,-18.06640625,-37.59765625,-20.5078125,0.0
1676922184.5817556,-25.87890625,-20.99609375,-41.015625,-18.5546875,0.0
1676922184.5866227,-31.25,-36.1328125,-38.57421875,-32.2265625,0.0
1676922184.5916338,-23.92578125,-49.8046875,-34.66796875,-42.48046875,0.0
1676922184.5966449,-38.57421875,-32.2265625,-29.296875,-20.5078125,0.0
1676922184.601656,-35.15625,-8.30078125,-30.76171875,-17.578125,0.0
1676922184.6066668,-31.73828125,-32.71484375,-33.203125,-26.85546875,0.0
1676922184.611678,-39.0625,-34.66796875,-28.3203125,-21.97265625,0.0
1676922184.616689,-45.8984375,-27.34375,-23.4375,-3.41796875,0.0
1676922184.6217,-34.1796875,-35.15625,-34.66796875,-8.30078125,0.0
1676922184.6267111,-27.34375,-33.69140625,-42.96875,-31.73828125,0.0
1676922184.631722,-31.25,-44.43359375,-35.15625,-25.390625,0.0
1676922184.636733,-34.66796875,-51.7578125,-30.2734375,4.8828125,0.0
1676922184.6417441,-36.62109375,-34.66796875,-37.109375,-0.9765625,0.0
1676922184.6467552,-27.34375,-38.0859375,-37.109375,-22.4609375,0.0
1676922184.6493192,-21.97265625,-41.50390625,-26.85546875,-24.4140625,0.0
1676922184.6518831,-13.671875,-17.08984375,-27.34375,-16.6015625,0.0
1676922184.654447,-18.5546875,-13.18359375,-41.50390625,-28.3203125,0.0
1676922184.6570108,-18.5546875,-35.15625,-42.96875,-44.43359375,0.0
1676922184.6595747,-9.765625,-45.41015625,-40.52734375,-42.48046875,0.0
1676922184.6621387,-22.4609375,-48.33984375,-40.0390625,-40.52734375,0.0
1676922184.6647027,-41.015625,-27.34375,-44.921875,-41.015625,0.0
1676922184.6672666,-51.7578125,-23.92578125,-53.22265625,-43.45703125,0.0
1676922184.6698303,-39.55078125,-45.8984375,-49.8046875,-52.24609375,0.0
1676922184.6723943,-18.5546875,-33.203125,-42.96875,-52.734375,0.0
1676922184.6749582,-30.2734375,-11.23046875,-40.52734375,-29.78515625,0.0
1676922184.6775222,-38.57421875,-23.4375,-33.203125,-20.5078125,0.0
1676922184.6812077,-36.1328125,-41.50390625,-25.87890625,-25.390625,0.0
1676922184.6848931,-34.66796875,-39.0625,-29.78515625,-36.62109375,0.0
1676922184.6885786,-37.59765625,-46.875,-26.85546875,-37.59765625,0.0
1676922184.692264,-27.34375,-69.82421875,-28.3203125,-29.78515625,0.0
1676922184.6959496,-32.71484375,-76.66015625,-33.203125,-29.78515625,0.0
1676922184.699635,-44.921875,-58.10546875,-36.1328125,-32.71484375,0.0
1676922184.7033203,-38.0859375,-45.8984375,-39.55078125,-22.94921875,0.0
1676922184.7070057,-51.26953125,-48.33984375,-38.0859375,-27.83203125,0.0
1676922184.7106912,-36.1328125,-42.96875,-27.83203125,-19.53125,0.0
1676922184.7143767,-3.90625,-20.5078125,-16.6015625,-20.99609375,0.0
1676922184.7180622,-13.671875,-28.3203125,-20.99609375,-26.85546875,0.0
1676922184.7217476,-23.92578125,-56.15234375,-28.80859375,-18.5546875,0.0
1676922184.72549,-32.71484375,-50.29296875,-34.1796875,-16.6015625,0.0
1676922184.7292325,-31.73828125,-25.390625,-26.3671875,-33.203125,0.0
1676922184.732975,-19.04296875,-14.6484375,-15.625,-38.0859375,0.0
1676922184.7367175,-24.90234375,-27.83203125,-22.4609375,-20.99609375,0.0
1676922184.74046,-30.2734375,-34.66796875,-33.69140625,-24.90234375,0.0
1676922184.7442024,-29.78515625,-39.0625,-22.4609375,-33.69140625,0.0
1676922184.7479448,-31.73828125,-42.96875,-19.53125,-44.43359375,0.0
1676922184.7516873,-33.203125,-43.9453125,-32.71484375,-29.296875,0.0
1676922184.7554297,-30.2734375,-29.296875,-33.203125,-22.94921875,0.0
1676922184.7591722,-37.59765625,-19.04296875,-29.296875,-31.25,0.0
1676922184.7629147,-37.109375,-22.94921875,-17.578125,-37.109375,0.0
1676922184.766657,-27.83203125,-32.71484375,-20.5078125,-37.59765625,0.0
1676922184.771659,-29.78515625,-30.2734375,-33.203125,-26.85546875,0.0
1676922184.7766604,-27.34375,-21.97265625,-29.296875,-31.73828125,0.0
1676922184.781662,-32.71484375,-40.52734375,-18.06640625,-27.83203125,0.0
1676922184.7866638,-34.66796875,-46.38671875,-18.5546875,-18.06640625,0.0
1676922184.7916656,-26.85546875,-30.2734375,-19.04296875,-15.13671875,0.0
1676922184.796667,-32.71484375,-38.0859375,-14.6484375,-12.20703125,0.0
1676922184.8016686,-42.48046875,-53.22265625,-28.80859375,-34.66796875,0.0
1676922184.8066704,-43.9453125,-54.6875,-34.66796875,-51.26953125,0.0
1676922184.8116722,-35.64453125,-24.4140625,-24.90234375,-31.73828125,0.0
1676922184.8166738,-35.64453125,-17.08984375,-20.5078125,-10.25390625,0.0
1676922184.8216753,-26.3671875,-21.97265625,-20.5078125,-8.7890625,0.0
1676922184.826677,-24.4140625,-19.53125,-19.53125,-16.6015625,0.0
1676922184.8291724,-40.0390625,-22.4609375,-21.484375,-17.578125,0.0
1676922184.831668,-38.0859375,-18.06640625,-25.390625,-12.6953125,0.0
1676922184.8341632,-37.59765625,-28.80859375,-22.94921875,-27.34375,0.0
1676922184.8366585,-36.62109375,-29.296875,-25.390625,-58.59375,0.0
1676922184.8391538,-28.80859375,-31.73828125,-29.296875,-55.17578125,0.0
1676922184.841649,-42.48046875,-43.9453125,-36.1328125,-45.41015625,0.0
1676922184.8441446,-62.98828125,-60.546875,-39.0625,-35.15625,0.0
1676922184.8466399,-58.10546875,-35.15625,-35.15625,-29.78515625,0.0
1676922184.8491352,-24.4140625,4.8828125,-33.69140625,-35.15625,0.0
1676922184.8516307,-19.53125,-26.3671875,-31.73828125,-37.59765625,0.0
1676922184.854126,-32.2265625,-65.91796875,-19.53125,-32.2265625,0.0
1676922184.8566213,-41.50390625,-49.8046875,-20.01953125,-39.0625,0.0
1676922184.8603868,-41.50390625,-20.99609375,-28.80859375,-56.640625,0.0
1676922184.8641522,-41.015625,-33.203125,-33.203125,-48.33984375,0.0
1676922184.8679178,-48.33984375,-56.640625,-44.921875,-39.0625,0.0
1676922184.8716834,-50.29296875,-52.734375,-38.0859375,-47.36328125,0.0
1676922184.8754487,-36.62109375,-20.5078125,-20.99609375,-38.0859375,0.0
1676922184.8792143,-24.4140625,-20.5078125,-21.97265625,-14.16015625,0.0
1676922184.8829799,-39.55078125,-52.734375,-31.25,-16.11328125,0.0
1676922184.8867452,-41.9921875,-49.31640625,-35.64453125,-35.15625,0.0
1676922184.8905108,-38.57421875,-34.66796875,-33.203125,-56.15234375,0.0
1676922184.8942764,-26.85546875,-42.96875,-28.80859375,-50.29296875,0.0
1676922184.8980417,-29.78515625,-37.59765625,-28.3203125,-35.15625,0.0
1676922184.9018073,-18.06640625,-7.32421875,-27.83203125,-40.52734375,0.0
1676922184.906797,-18.5546875,-6.34765625,-31.73828125,-45.41015625,0.0
1676922184.9117866,-27.83203125,-28.80859375,-29.296875,-28.80859375,0.0
1676922184.9167762,-22.4609375,-41.50390625,-30.2734375,-21.484375,0.0
1676922184.921766,-34.1796875,-41.50390625,-43.9453125,-33.69140625,0.0
1676922184.9267557,-29.78515625,-41.015625,-36.1328125,-32.71484375,0.0
1676922184.9317453,-24.90234375,-38.57421875,-30.76171875,-31.73828125,0.0
1676922184.936735,-19.53125,-29.296875,-38.0859375,-24.4140625,0.0
1676922184.9417245,-36.1328125,-23.92578125,-40.52734375,-31.73828125,0.0
1676922184.9467144,-29.296875,-28.3203125,-54.19921875,-37.109375,0.0
1676922184.951704,-6.8359375,-35.64453125,-44.921875,-22.4609375,0.0
1676922184.9566936,-34.1796875,-32.71484375,-29.78515625,-31.73828125,0.0
1676922184.9616833,-42.96875,-7.8125,-24.4140625,-35.64453125,0.0
1676922184.966731,-22.4609375,-12.20703125,-16.6015625,-22.94921875,0.0
1676922184.9717789,-45.41015625,-10.25390625,-10.7421875,-53.7109375,0.0
1676922184.9768267,-70.3125,-8.30078125,-8.30078125,-73.2421875,0.0
1676922184.9818745,-77.63671875,-44.43359375,-15.13671875,-56.15234375,0.0
1676922184.9869223,-93.75,-39.55078125,-6.34765625,-57.12890625,0.0
1676922184.99197,-103.515625,-6.8359375,-1.953125,-85.9375,0.0
1676922184.9970176,-103.02734375,-12.6953125,-5.859375,-100.09765625,0.0
1676922185.0020654,-136.23046875,-33.69140625,-4.8828125,-107.91015625,0.0
1676922185.0071132,-141.6015625,-52.24609375,-10.7421875,-125.48828125,0.0
1676922185.012161,-132.8125,-51.26953125,-6.34765625,-122.0703125,0.0
1676922185.0172088,-160.15625,-25.87890625,-7.8125,-138.18359375,0.0
1676922185.0222566,-150.390625,-24.4140625,-2.9296875,-134.27734375,0.0
1676922185.0247135,-153.80859375,-33.203125,9.765625,-110.3515625,0.0
1676922185.0271702,-159.1796875,-19.04296875,0.0,-121.09375,0.0
1676922185.029627,-155.76171875,-4.39453125,2.9296875,-143.5546875,0.0
1676922185.032084,-153.80859375,-14.16015625,5.859375,-131.34765625,0.0
1676922185.0345407,-159.1796875,-18.06640625,-6.34765625,-121.09375,0.0
1676922185.0369976,-168.45703125,-34.1796875,-4.8828125,-121.09375,0.0
1676922185.0394545,-177.24609375,-44.921875,2.44140625,-133.30078125,0.0
1676922185.0419111,-166.9921875,-39.0625,7.32421875,-134.27734375,0.0
1676922185.044368,-152.83203125,-39.55078125,2.9296875,-96.6796875,0.0
1676922185.046825,-156.25,-20.5078125,-4.39453125,-101.5625,0.0
1676922185.0492816,-157.71484375,-6.8359375,-7.8125,-130.37109375,0.0
1676922185.0517385,-130.859375,2.9296875,-1.953125,-106.4453125,0.0
1676922185.0556262,-119.62890625,-14.16015625,-6.34765625,-92.7734375,0.0
1676922185.059514,-162.109375,-41.9921875,-31.25,-120.60546875,0.0
1676922185.0634017,-148.4375,-42.48046875,-33.69140625,-126.46484375,0.0
1676922185.0672894,-93.75,-50.78125,-34.66796875,-107.91015625,0.0
1676922185.0711772,-104.4921875,-64.94140625,-33.69140625,-77.63671875,0.0
1676922185.075065,-123.046875,-51.26953125,-30.76171875,-55.6640625,0.0
1676922185.0789526,-96.6796875,-28.80859375,-33.203125,-58.59375,0.0
1676922185.0828404,-56.640625,-19.53125,-15.625,-43.9453125,0.0
1676922185.086728,-51.7578125,-26.85546875,-13.671875,-22.4609375,0.0
1676922185.0906157,-55.6640625,-34.66796875,-47.8515625,-30.76171875,0.0
