timestamps,TP9,Fp1,Fp2,TP10,stim
1676923261.2438836,-48.33984375,-27.83203125,-30.2734375,-11.71875,0.0
1676923261.2476292,-42.96875,-24.4140625,-33.69140625,-30.76171875,0.0
1676923261.2513747,-35.15625,-27.83203125,-38.0859375,-28.80859375,0.0
1676923261.2551203,-33.203125,-27.83203125,-38.57421875,-19.53125,0.0
1676923261.258979,-42.48046875,-26.85546875,-37.59765625,-37.109375,0.0
1676923261.262838,-50.29296875,-28.80859375,-34.1796875,-32.2265625,0.0
1676923261.266697,-36.62109375,-30.2734375,-27.34375,6.34765625,0.0
1676923261.2705557,-23.4375,-29.78515625,-32.2265625,10.25390625,0.0
1676923261.2744145,-40.0390625,-29.78515625,-34.66796875,-16.6015625,0.0
1676923261.2782733,-50.78125,-31.73828125,-28.80859375,-14.6484375,0.0
1676923261.2821321,-38.57421875,-32.2265625,-26.85546875,17.08984375,0.0
1676923261.285991,-42.48046875,-32.2265625,-30.2734375,17.578125,0.0
1676923261.2898498,-41.9921875,-30.76171875,-37.109375,-8.30078125,0.0
1676923261.2937088,-37.109375,-32.71484375,-38.57421875,-24.90234375,0.0
1676923261.2975676,-20.99609375,-26.85546875,-36.62109375,-12.6953125,0.0
1676923261.3014264,-11.71875,-21.97265625,-36.1328125,2.9296875,0.0
1676923261.3063455,-16.11328125,-24.4140625,-31.25,4.39453125,0.0
1676923261.3112645,-31.25,-26.85546875,-28.80859375,-12.6953125,0.0
1676923261.3161836,-36.62109375,-24.90234375,-33.69140625,-20.99609375,0.0
1676923261.3211026,-12.20703125,-27.34375,-37.59765625,3.90625,0.0
1676923261.3260217,-23.92578125,-34.66796875,-41.50390625,10.7421875,0.0
1676923261.3309407,-48.33984375,-37.109375,-41.015625,-12.6953125,0.0
1676923261.3358595,-43.45703125,-32.71484375,-40.52734375,-11.71875,0.0
1676923261.3407786,-22.94921875,-31.25,-43.9453125,-9.27734375,0.0
1676923261.3456976,-5.37109375,-31.73828125,-42.48046875,-6.34765625,0.0
1676923261.3506167,-20.99609375,-28.80859375,-38.57421875,-9.27734375,0.0
1676923261.3555357,-45.8984375,-33.203125,-34.1796875,-23.92578125,0.0
1676923261.3604548,-37.59765625,-37.109375,-32.2265625,3.41796875,0.0
1676923261.364181,-17.08984375,-34.1796875,-27.83203125,17.578125,0.0
1676923261.3679073,-18.5546875,-33.203125,-26.85546875,-13.18359375,0.0
1676923261.3716335,-35.64453125,-40.0390625,-32.71484375,-22.4609375,0.0
1676923261.3753595,-27.34375,-40.52734375,-34.1796875,-5.859375,0.0
1676923261.3790858,-16.11328125,-38.57421875,-34.66796875,16.11328125,0.0
1676923261.382812,-24.90234375,-40.52734375,-36.62109375,25.87890625,0.0
1676923261.3865383,-47.36328125,-37.59765625,-34.66796875,10.25390625,0.0
1676923261.3902645,-43.9453125,-31.73828125,-31.73828125,-6.34765625,0.0
1676923261.3939905,-18.5546875,-29.296875,-33.203125,-5.37109375,0.0
1676923261.3977168,-10.7421875,-24.4140625,-31.25,2.9296875,0.0
1676923261.401443,-30.2734375,-22.4609375,-27.83203125,9.765625,0.0
1676923261.4051692,-20.01953125,-29.78515625,-31.25,0.48828125,0.0
1676923261.4089158,-15.625,-34.1796875,-33.69140625,-16.11328125,0.0
1676923261.4126623,-37.59765625,-31.73828125,-29.78515625,11.23046875,0.0
1676923261.4164088,-41.015625,-30.2734375,-26.85546875,17.08984375,0.0
1676923261.4201553,-49.8046875,-28.80859375,-24.90234375,-20.5078125,0.0
1676923261.4239018,-35.64453125,-24.4140625,-24.90234375,-16.11328125,0.0
1676923261.427648,-17.08984375,-25.390625,-25.87890625,6.34765625,0.0
1676923261.4313946,-26.3671875,-30.76171875,-30.76171875,-3.90625,0.0
1676923261.435141,-40.0390625,-28.80859375,-32.2265625,-33.203125,0.0
1676923261.4388876,-41.9921875,-29.78515625,-29.78515625,-22.4609375,0.0
1676923261.442634,-29.296875,-31.73828125,-29.296875,9.765625,0.0
1676923261.4463806,-19.04296875,-22.4609375,-31.73828125,-5.37109375,0.0
1676923261.4501271,-38.0859375,-24.90234375,-34.1796875,-25.87890625,0.0
1676923261.4551334,-35.64453125,-40.0390625,-37.59765625,-38.57421875,0.0
1676923261.4601398,-16.11328125,-37.109375,-39.55078125,-22.4609375,0.0
1676923261.465146,-25.87890625,-27.83203125,-36.1328125,6.8359375,0.0
1676923261.4701526,-24.90234375,-27.83203125,-35.15625,6.8359375,0.0
1676923261.475159,-18.06640625,-25.390625,-35.15625,-7.32421875,0.0
1676923261.4801652,-12.20703125,-27.34375,-33.69140625,-0.9765625,0.0
1676923261.4851716,-12.6953125,-28.80859375,-33.203125,-0.48828125,0.0
1676923261.4901779,-17.578125,-29.296875,-33.69140625,-10.25390625,0.0
1676923261.4951844,-19.04296875,-29.78515625,-39.0625,-3.41796875,0.0
1676923261.5001907,-17.08984375,-30.76171875,-43.9453125,-1.46484375,0.0
1676923261.505197,-10.25390625,-37.59765625,-37.59765625,6.34765625,0.0
1676923261.5102034,-7.8125,-37.109375,-32.71484375,15.13671875,0.0
1676923261.5127308,-21.484375,-32.71484375,-32.71484375,-10.25390625,0.0
1676923261.515258,-22.4609375,-29.78515625,-31.25,-13.18359375,0.0
1676923261.5177855,-9.27734375,-29.296875,-32.71484375,22.4609375,0.0
1676923261.520313,6.8359375,-28.3203125,-38.0859375,29.78515625,0.0
1676923261.5228403,-3.41796875,-28.3203125,-40.0390625,3.41796875,0.0
1676923261.5253677,-10.25390625,-24.4140625,-37.59765625,-5.37109375,0.0
1676923261.5278952,14.6484375,-17.578125,-31.73828125,41.50390625,0.0
1676923261.5304224,21.97265625,-20.01953125,-27.83203125,56.640625,0.0
1676923261.53295,3.41796875,-18.06640625,-24.90234375,9.27734375,0.0
1676923261.5354774,-15.13671875,-19.53125,-27.83203125,-11.71875,0.0
1676923261.5380046,0.0,-25.390625,-34.66796875,-12.20703125,0.0
1676923261.540532,17.578125,-22.4609375,-30.2734375,13.671875,0.0
1676923261.544255,7.8125,-21.484375,-25.87890625,20.5078125,0.0
1676923261.547978,-14.6484375,-21.484375,-28.80859375,-19.04296875,0.0
1676923261.551701,-14.16015625,-24.4140625,-29.78515625,-6.34765625,0.0
1676923261.555424,-2.44140625,-24.4140625,-32.2265625,18.06640625,0.0
1676923261.559147,-18.06640625,-25.87890625,-31.25,27.34375,0.0
1676923261.5628698,-36.62109375,-30.2734375,-30.76171875,-2.9296875,0.0
1676923261.5665927,-36.1328125,-32.2265625,-30.2734375,-24.4140625,0.0
1676923261.5703156,-27.83203125,-31.25,-28.80859375,15.13671875,0.0
1676923261.5740385,-37.59765625,-31.25,-32.71484375,17.08984375,0.0
1676923261.5777617,-59.5703125,-32.2265625,-33.69140625,-20.01953125,0.0
1676923261.5814846,-55.17578125,-34.1796875,-27.34375,-28.3203125,0.0
1676923261.5852075,-35.15625,-34.1796875,-23.4375,5.859375,0.0
1676923261.5889509,-34.1796875,-36.1328125,-27.83203125,16.6015625,0.0
1676923261.5926943,-46.38671875,-39.0625,-24.4140625,-9.765625,0.0
1676923261.5964375,-42.48046875,-39.55078125,-24.90234375,-9.27734375,0.0
1676923261.6001809,-23.4375,-33.203125,-28.80859375,14.6484375,0.0
1676923261.6039243,-5.37109375,-29.78515625,-23.4375,21.484375,0.0
1676923261.6076677,-16.6015625,-38.57421875,-25.390625,11.71875,0.0
1676923261.611411,-36.1328125,-46.875,-32.2265625,-4.8828125,0.0
1676923261.6151545,-22.94921875,-42.96875,-33.69140625,2.44140625,0.0
1676923261.618898,-7.8125,-35.64453125,-31.73828125,22.94921875,0.0
1676923261.622641,-18.5546875,-33.69140625,-33.69140625,17.578125,0.0
1676923261.6263845,-24.90234375,-31.25,-32.2265625,-5.859375,0.0
1676923261.630128,-35.15625,-38.57421875,-31.25,-20.01953125,0.0
1676923261.6338773,-41.50390625,-36.62109375,-27.34375,-1.46484375,0.0
1676923261.637627,-25.390625,-29.78515625,-27.83203125,8.30078125,0.0
1676923261.6413763,-54.6875,-29.78515625,-29.78515625,-8.30078125,0.0
1676923261.6451256,-60.05859375,-27.34375,-31.73828125,-18.5546875,0.0
1676923261.6488752,-37.109375,-23.4375,-35.64453125,-1.46484375,0.0
1676923261.6526246,-36.62109375,-29.296875,-33.203125,18.5546875,0.0
1676923261.656374,-43.9453125,-30.2734375,-33.203125,10.25390625,0.0
1676923261.6601236,-46.875,-26.3671875,-34.1796875,-16.6015625,0.0
1676923261.663873,-38.57421875,-32.71484375,-34.66796875,-23.4375,0.0
1676923261.6676223,-24.4140625,-32.71484375,-32.71484375,-4.39453125,0.0
1676923261.671372,-24.4140625,-34.1796875,-30.2734375,-4.39453125,0.0
1676923261.6751213,-36.1328125,-29.78515625,-29.296875,-34.1796875,0.0
1676923261.6788764,-50.29296875,-29.296875,-27.83203125,-20.01953125,0.0
1676923261.6826315,-40.52734375,-30.76171875,-30.76171875,13.671875,0.0
1676923261.6863863,-20.5078125,-26.3671875,-30.76171875,22.94921875,0.0
1676923261.6901414,-43.45703125,-29.78515625,-32.71484375,-8.7890625,0.0
1676923261.6938965,-48.33984375,-31.73828125,-31.25,-27.83203125,0.0
1676923261.6976514,-10.25390625,-30.2734375,-23.92578125,12.6953125,0.0
1676923261.7014065,-12.20703125,-33.69140625,-25.390625,23.92578125,0.0
1676923261.7051616,-36.1328125,-35.64453125,-31.73828125,-12.20703125,0.0
1676923261.7089167,-43.9453125,-31.73828125,-32.71484375,-33.69140625,0.0
1676923261.7126718,-24.4140625,-28.3203125,-32.2265625,-11.71875,0.0
1676923261.7164266,-6.34765625,-30.2734375,-34.66796875,17.578125,0.0
1676923261.7201817,-23.4375,-35.15625,-37.59765625,-1.46484375,0.0
1676923261.7251692,-28.3203125,-35.15625,-36.1328125,-25.87890625,0.0
1676923261.730157,-19.04296875,-31.25,-32.71484375,-17.08984375,0.0
1676923261.7351446,-0.9765625,-29.78515625,-34.1796875,4.39453125,0.0
1676923261.740132,3.41796875,-28.80859375,-34.66796875,28.3203125,0.0
1676923261.7451196,-10.7421875,-27.34375,-37.59765625,-4.39453125,0.0
1676923261.7501073,-16.6015625,-23.4375,-36.1328125,-22.4609375,0.0
1676923261.755095,-15.13671875,-28.3203125,-34.66796875,-7.8125,0.0
1676923261.7600825,-17.08984375,-33.69140625,-30.76171875,-0.48828125,0.0
1676923261.76507,-17.578125,-32.2265625,-27.34375,-2.9296875,0.0
1676923261.7700577,-20.01953125,-28.3203125,-26.3671875,-13.671875,0.0
1676923261.7750454,-26.85546875,-31.25,-23.92578125,-3.90625,0.0
1676923261.7800329,-20.5078125,-38.0859375,-31.73828125,-0.48828125,0.0
1676923261.783794,-34.1796875,-40.52734375,-34.1796875,-13.18359375,0.0
1676923261.7875547,-52.734375,-38.0859375,-31.73828125,-22.94921875,0.0
1676923261.7913158,-38.0859375,-31.25,-32.71484375,0.48828125,0.0
1676923261.7950766,-16.6015625,-31.73828125,-25.87890625,13.671875,0.0
1676923261.7988377,-29.296875,-34.1796875,-21.484375,-7.32421875,0.0
1676923261.8025985,-40.52734375,-32.2265625,-24.90234375,-13.18359375,0.0
1676923261.8063595,-31.25,-32.2265625,-28.3203125,-3.41796875,0.0
1676923261.8101206,-22.94921875,-36.62109375,-37.109375,7.8125,0.0
1676923261.8138814,-22.4609375,-30.76171875,-38.0859375,9.765625,0.0
1676923261.8176425,-49.31640625,-24.90234375,-35.64453125,-12.20703125,0.0
1676923261.8214033,-61.5234375,-32.71484375,-38.57421875,-18.5546875,0.0
1676923261.8251643,-40.0390625,-30.76171875,-36.62109375,14.6484375,0.0
1676923261.8289022,-25.390625,-28.80859375,-38.57421875,12.20703125,0.0
1676923261.8326404,-38.0859375,-37.109375,-41.9921875,-24.90234375,0.0
1676923261.8363786,-40.52734375,-42.48046875,-38.0859375,-40.52734375,0.0
1676923261.8401165,-26.3671875,-42.48046875,-35.15625,-4.8828125,0.0
1676923261.8438544,-14.6484375,-36.62109375,-33.69140625,30.2734375,0.0
1676923261.8475926,-21.484375,-32.2265625,-33.69140625,3.90625,0.0
1676923261.8513308,-33.203125,-36.1328125,-34.66796875,-8.30078125,0.0
1676923261.8550687,-20.99609375,-34.66796875,-38.0859375,17.578125,0.0
1676923261.8588066,-9.765625,-39.0625,-43.9453125,36.1328125,0.0
1676923261.8625448,-26.85546875,-38.57421875,-45.41015625,12.20703125,0.0
1676923261.866283,-51.26953125,-27.83203125,-43.45703125,-28.80859375,0.0
1676923261.8700209,-40.0390625,-24.90234375,-39.0625,-15.625,0.0
1676923261.8737798,0.9765625,-26.3671875,-33.69140625,8.7890625,0.0
1676923261.8775384,-1.46484375,-29.296875,-33.69140625,4.39453125,0.0
1676923261.8812973,-46.875,-29.78515625,-36.62109375,-19.53125,0.0
1676923261.8850563,-45.41015625,-28.3203125,-31.73828125,-8.30078125,0.0
1676923261.888815,-15.625,-25.390625,-36.62109375,9.27734375,0.0
1676923261.8925738,-11.23046875,-28.80859375,-39.55078125,0.48828125,0.0
1676923261.8963327,-26.3671875,-32.2265625,-33.69140625,-13.18359375,0.0
1676923261.9000914,-45.41015625,-29.78515625,-37.59765625,-19.04296875,0.0
1676923261.9038503,-32.2265625,-33.203125,-39.0625,2.9296875,0.0
1676923261.9076092,-0.48828125,-27.34375,-32.2265625,29.296875,0.0
1676923261.911368,-10.25390625,-15.625,-24.4140625,9.27734375,0.0
1676923261.9151268,-13.18359375,-16.6015625,-31.25,-23.4375,0.0
1676923261.91888,-16.6015625,-23.92578125,-39.0625,-0.48828125,0.0
1676923261.9226332,-29.78515625,-29.296875,-36.62109375,5.859375,0.0
1676923261.9263864,-19.04296875,-29.296875,-40.52734375,-13.671875,0.0
1676923261.9301395,-30.2734375,-34.1796875,-43.45703125,-23.92578125,0.0
1676923261.9338927,-43.9453125,-37.59765625,-40.52734375,-27.83203125,0.0
1676923261.937646,-30.76171875,-33.203125,-33.69140625,-2.9296875,0.0
1676923261.9413989,-26.3671875,-33.203125,-31.73828125,11.71875,0.0
1676923261.945152,-41.9921875,-33.69140625,-33.203125,9.27734375,0.0
1676923261.9489052,-24.4140625,-27.34375,-30.76171875,-14.6484375,0.0
1676923261.9526584,-8.30078125,-23.92578125,-29.78515625,-13.18359375,0.0
1676923261.9564116,-19.53125,-25.87890625,-33.203125,12.6953125,0.0
1676923261.9601648,-20.99609375,-30.2734375,-39.0625,-12.20703125,0.0
1676923261.9639428,-27.83203125,-33.203125,-35.15625,-42.48046875,0.0
1676923261.9677205,-39.0625,-31.73828125,-34.1796875,-10.7421875,0.0
1676923261.9714985,-36.62109375,-30.2734375,-40.52734375,20.5078125,0.0
1676923261.9752765,-35.64453125,-32.2265625,-42.48046875,18.5546875,0.0
1676923261.9790542,-45.41015625,-27.83203125,-41.9921875,1.46484375,0.0
1676923261.9828322,-28.80859375,-21.97265625,-42.96875,-19.53125,0.0
1676923261.9866102,-12.20703125,-24.4140625,-37.59765625,-15.13671875,0.0
1676923261.990388,-12.6953125,-22.94921875,-34.66796875,-12.20703125,0.0
1676923261.994166,-34.66796875,-23.92578125,-38.0859375,-35.64453125,0.0
1676923261.9979439,-49.31640625,-27.34375,-35.15625,-14.6484375,0.0
1676923262.0017216,-29.78515625,-27.34375,-34.66796875,19.04296875,0.0
1676923262.0054996,-16.6015625,-28.80859375,-35.15625,13.671875,0.0
1676923262.0104687,-23.4375,-26.85546875,-31.73828125,14.6484375,0.0
1676923262.0154376,-33.203125,-19.04296875,-29.78515625,-1.46484375,0.0
1676923262.0204067,-20.01953125,-18.5546875,-32.71484375,6.8359375,0.0
1676923262.0253758,-2.44140625,-21.97265625,-30.76171875,23.92578125,0.0
1676923262.030345,-11.71875,-24.4140625,-32.71484375,-11.71875,0.0
1676923262.035314,-32.71484375,-30.2734375,-31.25,-22.4609375,0.0
1676923262.040283,-27.34375,-31.25,-24.4140625,5.37109375,0.0
1676923262.045252,-15.625,-23.4375,-26.85546875,15.13671875,0.0
1676923262.0502212,-24.90234375,-22.4609375,-27.34375,10.25390625,0.0
1676923262.05519,-24.90234375,-28.80859375,-21.97265625,-1.46484375,0.0
1676923262.0601592,-18.5546875,-31.73828125,-22.94921875,-3.41796875,0.0
1676923262.0651283,-20.5078125,-30.2734375,-26.85546875,13.18359375,0.0
1676923262.0676398,-21.97265625,-28.3203125,-29.78515625,-9.27734375,0.0
1676923262.0701516,-40.0390625,-28.80859375,-36.62109375,-48.828125,0.0
1676923262.072663,-53.22265625,-36.62109375,-42.48046875,-46.38671875,0.0
1676923262.0751748,-33.203125,-37.109375,-41.50390625,-24.90234375,0.0
1676923262.0776863,-20.99609375,-32.2265625,-38.57421875,-20.99609375,0.0
1676923262.0801978,-26.3671875,-30.2734375,-34.1796875,11.23046875,0.0
1676923262.0827096,-27.34375,-25.87890625,-28.3203125,1.953125,0.0
1676923262.085221,-8.30078125,-21.97265625,-25.390625,-16.6015625,0.0
1676923262.0877328,4.8828125,-24.4140625,-28.80859375,1.46484375,0.0
1676923262.0902443,-2.9296875,-27.83203125,-32.2265625,-11.71875,0.0
1676923262.092756,-24.90234375,-23.92578125,-27.83203125,-31.73828125,0.0
1676923262.0952675,-32.71484375,-23.92578125,-29.296875,-34.66796875,0.0
1676923262.1002564,-11.23046875,-26.3671875,-34.66796875,-9.765625,0.0
1676923262.105245,3.41796875,-20.5078125,-34.66796875,0.48828125,0.0
1676923262.110234,-16.6015625,-24.4140625,-35.64453125,-27.34375,0.0
1676923262.115223,-21.484375,-26.3671875,-37.59765625,-25.87890625,0.0
1676923262.1202116,4.39453125,-23.92578125,-30.76171875,14.6484375,0.0
1676923262.1252005,-18.5546875,-31.25,-31.73828125,8.7890625,0.0
1676923262.1301894,-56.640625,-38.57421875,-37.59765625,-34.1796875,0.0
1676923262.135178,-52.734375,-37.109375,-35.64453125,-34.66796875,0.0
1676923262.140167,-44.921875,-34.66796875,-32.71484375,-16.6015625,0.0
1676923262.145156,-40.0390625,-26.3671875,-37.59765625,6.8359375,0.0
1676923262.1501446,-46.875,-22.94921875,-41.015625,-1.953125,0.0
1676923262.1551335,-65.4296875,-20.01953125,-34.66796875,-38.0859375,0.0
1676923262.1588867,-63.96484375,-16.6015625,-36.62109375,-43.45703125,0.0
1676923262.1626396,-59.08203125,-20.99609375,-40.52734375,-44.43359375,0.0
1676923262.1663928,-72.265625,-23.4375,-41.015625,-73.2421875,0.0
1676923262.1701458,-82.03125,-19.04296875,-39.55078125,-103.515625,0.0
1676923262.173899,-78.125,-16.6015625,-37.109375,-99.609375,0.0
1676923262.177652,-76.66015625,-19.04296875,-34.1796875,-75.1953125,0.0
1676923262.181405,-99.609375,-20.5078125,-37.59765625,-83.984375,0.0
1676923262.1851583,-116.69921875,-20.01953125,-43.9453125,-118.1640625,0.0
1676923262.1889112,-109.375,-17.08984375,-41.9921875,-116.69921875,0.0
1676923262.1926644,-101.07421875,-23.92578125,-36.1328125,-86.9140625,0.0
1676923262.1964173,-107.91015625,-27.34375,-31.73828125,-95.21484375,0.0
1676923262.2001705,-126.953125,-20.99609375,-33.203125,-115.234375,0.0
1676923262.2039506,-142.08984375,-22.94921875,-35.64453125,-120.1171875,0.0
1676923262.2077308,-118.65234375,-25.87890625,-37.59765625,-102.5390625,0.0
1676923262.2115111,-89.35546875,-25.390625,-36.62109375,-83.984375,0.0
1676923262.2152913,-116.69921875,-21.484375,-36.1328125,-96.6796875,0.0
1676923262.2190714,-128.90625,-23.92578125,-38.57421875,-103.515625,0.0
1676923262.2228515,-105.95703125,-24.4140625,-36.62109375,-62.5,0.0
1676923262.2266316,-82.03125,-19.53125,-34.66796875,-43.45703125,0.0
1676923262.2304118,-62.01171875,-18.5546875,-35.15625,-49.31640625,0.0
1676923262.234192,-67.87109375,-22.4609375,-33.69140625,-56.15234375,0.0
1676923262.2379723,-59.08203125,-30.2734375,-32.2265625,-39.0625,0.0
1676923262.2417524,-13.18359375,-31.25,-30.76171875,7.8125,0.0
1676923262.2455325,-24.4140625,-29.296875,-31.25,26.85546875,0.0
1676923262.2492487,-56.15234375,-29.296875,-33.203125,3.90625,0.0
1676923262.252965,-37.109375,-32.71484375,-31.73828125,-12.20703125,0.0
1676923262.2566814,-6.8359375,-30.76171875,-28.80859375,26.85546875,0.0
1676923262.2603977,-3.41796875,-27.34375,-29.296875,61.5234375,0.0
1676923262.264114,-12.20703125,-32.2265625,-32.71484375,42.48046875,0.0
1676923262.2678304,-8.30078125,-31.73828125,-32.71484375,17.08984375,0.0
1676923262.2715466,6.34765625,-26.3671875,-31.25,20.5078125,0.0
1676923262.2752628,20.99609375,-27.34375,-27.83203125,45.8984375,0.0
1676923262.278979,6.34765625,-29.78515625,-30.2734375,40.0390625,0.0
1676923262.2826953,-13.671875,-28.80859375,-30.2734375,11.23046875,0.0
1676923262.2864118,2.44140625,-26.85546875,-30.2734375,32.2265625,0.0
1676923262.290128,30.2734375,-26.85546875,-28.80859375,62.01171875,0.0
1676923262.2938817,29.78515625,-24.90234375,-28.3203125,60.05859375,0.0
1676923262.2976353,-3.41796875,-30.76171875,-35.64453125,24.4140625,0.0
1676923262.301389,-12.20703125,-42.48046875,-37.109375,34.66796875,0.0
1676923262.3051426,6.34765625,-41.50390625,-36.1328125,55.17578125,0.0
1676923262.3088963,17.08984375,-31.73828125,-34.1796875,52.24609375,0.0
1676923262.31265,8.7890625,-34.1796875,-32.2265625,58.10546875,0.0
1676923262.3164036,0.9765625,-38.57421875,-41.015625,51.26953125,0.0
1676923262.3201573,19.04296875,-34.66796875,-39.0625,83.984375,0.0
1676923262.323911,22.94921875,-34.1796875,-29.296875,83.0078125,0.0
1676923262.3276646,12.6953125,-36.62109375,-32.2265625,44.43359375,0.0
1676923262.3314183,20.99609375,-34.1796875,-32.71484375,40.52734375,0.0
1676923262.335172,42.48046875,-26.85546875,-22.4609375,60.546875,0.0
1676923262.3414204,45.41015625,-25.390625,-19.53125,80.56640625,0.0
1676923262.3476686,24.4140625,-29.296875,-24.90234375,57.12890625,0.0
1676923262.3539171,14.16015625,-26.3671875,-29.296875,36.62109375,0.0
1676923262.3601656,28.3203125,-25.87890625,-33.203125,38.57421875,0.0
1676923262.3664138,33.203125,-24.4140625,-29.296875,40.52734375,0.0
1676923262.3726623,13.18359375,-32.2265625,-29.296875,35.15625,0.0
1676923262.3789108,4.39453125,-37.109375,-30.2734375,16.6015625,0.0
1676923262.385159,12.6953125,-29.296875,-30.76171875,31.73828125,0.0
1676923262.3914075,20.01953125,-26.3671875,-34.66796875,53.7109375,0.0
1676923262.397656,13.671875,-29.78515625,-35.15625,57.12890625,0.0
1676923262.4039042,-1.46484375,-31.73828125,-29.296875,23.92578125,0.0
1676923262.4101527,2.44140625,-30.2734375,-27.34375,-20.01953125,0.0
1676923262.4116173,4.39453125,-29.296875,-30.76171875,0.48828125,0.0
1676923262.413082,8.30078125,-26.3671875,-29.78515625,17.08984375,0.0
1676923262.4145465,-4.8828125,-30.76171875,-30.2734375,1.46484375,0.0
1676923262.416011,-24.4140625,-34.1796875,-30.2734375,5.859375,0.0
1676923262.4174757,-6.8359375,-34.66796875,-26.85546875,31.73828125,0.0
1676923262.4189403,4.8828125,-34.1796875,-23.92578125,42.48046875,0.0
1676923262.420405,-11.71875,-30.76171875,-25.87890625,7.8125,0.0
1676923262.4218695,-21.484375,-36.62109375,-30.76171875,-31.25,0.0
1676923262.4233341,-5.37109375,-37.59765625,-28.3203125,-9.27734375,0.0
1676923262.4247987,1.46484375,-33.69140625,-26.3671875,30.76171875,0.0
1676923262.4262633,-4.8828125,-31.25,-22.94921875,28.80859375,0.0
1676923262.427728,-22.4609375,-30.76171875,-22.94921875,7.32421875,0.0
1676923262.4313583,-24.4140625,-33.69140625,-28.3203125,0.0,0.0
1676923262.434989,-13.18359375,-36.62109375,-30.2734375,14.6484375,0.0
1676923262.4386194,-7.8125,-33.69140625,-31.25,28.80859375,0.0
1676923262.44225,-14.6484375,-20.99609375,-27.34375,-4.39453125,0.0
1676923262.4458804,-26.3671875,-20.99609375,-22.94921875,-23.4375,0.0
1676923262.449511,-7.32421875,-29.296875,-21.97265625,18.06640625,0.0
1676923262.4531415,0.0,-28.80859375,-25.87890625,30.76171875,0.0
1676923262.4567719,-17.578125,-28.3203125,-32.71484375,-8.30078125,0.0
1676923262.4604025,-32.2265625,-26.85546875,-36.1328125,-26.3671875,0.0
1676923262.464033,-28.3203125,-27.34375,-35.15625,-7.32421875,0.0
1676923262.4676635,-1.46484375,-27.34375,-34.66796875,10.25390625,0.0
1676923262.471294,-6.34765625,-24.4140625,-32.2265625,17.578125,0.0
1676923262.4762018,-19.53125,-20.01953125,-22.94921875,-14.16015625,0.0
1676923262.4811094,-3.41796875,-15.13671875,-20.99609375,-7.32421875,0.0
1676923262.4860172,17.08984375,-20.99609375,-24.4140625,26.85546875,0.0
1676923262.4909248,25.390625,-23.4375,-24.90234375,12.20703125,0.0
1676923262.4958327,4.39453125,-14.6484375,-25.390625,-9.27734375,0.0
1676923262.5007405,-0.9765625,-17.08984375,-28.80859375,4.8828125,0.0
1676923262.5056481,8.7890625,-22.4609375,-34.1796875,17.578125,0.0
1676923262.510556,8.30078125,-23.4375,-36.62109375,1.953125,0.0
1676923262.5154636,-5.37109375,-25.390625,-35.15625,-11.71875,0.0
1676923262.5203714,-14.6484375,-24.90234375,-32.71484375,-5.37109375,0.0
1676923262.525279,0.48828125,-26.3671875,-33.203125,11.71875,0.0
1676923262.530187,-18.5546875,-30.2734375,-31.73828125,12.20703125,0.0
1676923262.5339246,-45.8984375,-29.78515625,-29.296875,-7.8125,0.0
1676923262.537662,-27.34375,-28.80859375,-31.73828125,-26.85546875,0.0
1676923262.5413997,-18.5546875,-25.87890625,-26.3671875,-8.30078125,0.0
1676923262.5451372,-17.578125,-28.3203125,-28.3203125,7.8125,0.0
1676923262.5488749,-20.01953125,-33.69140625,-31.73828125,-4.8828125,0.0
1676923262.5526123,-40.52734375,-29.296875,-26.85546875,-3.41796875,0.0
1676923262.55635,-35.15625,-26.85546875,-33.69140625,-3.41796875,0.0
1676923262.5600877,-38.57421875,-32.2265625,-41.015625,-10.7421875,0.0
1676923262.5638251,-38.57421875,-36.62109375,-35.15625,-10.25390625,0.0
1676923262.5675628,-29.296875,-42.96875,-35.64453125,-1.46484375,0.0
1676923262.5713003,-29.78515625,-41.50390625,-41.50390625,-28.80859375,0.0
1676923262.575038,-30.76171875,-36.62109375,-38.57421875,-38.0859375,0.0
1676923262.5812953,-35.15625,-34.1796875,-35.64453125,-18.5546875,0.0
1676923262.5875525,-49.31640625,-28.80859375,-39.55078125,-21.97265625,0.0
1676923262.5938098,-53.22265625,-31.25,-39.55078125,-36.62109375,0.0
1676923262.6000671,-43.9453125,-39.0625,-38.57421875,-26.85546875,0.0
1676923262.6063244,-26.3671875,-38.0859375,-37.109375,-8.7890625,0.0
1676923262.6125817,-26.3671875,-37.59765625,-35.15625,-25.390625,0.0
1676923262.618839,-44.921875,-34.66796875,-37.59765625,-40.52734375,0.0
1676923262.6250963,-27.34375,-32.71484375,-36.1328125,-22.94921875,0.0
1676923262.6313536,-21.484375,-32.71484375,-29.78515625,13.671875,0.0
1676923262.637611,-31.25,-32.71484375,-32.2265625,12.20703125,0.0
1676923262.6438682,-47.8515625,-34.1796875,-36.1328125,-33.69140625,0.0
1676923262.6501255,-47.36328125,-31.25,-30.2734375,-35.64453125,0.0
1676923262.6526282,-16.6015625,-28.80859375,-28.80859375,5.37109375,0.0
1676923262.655131,-15.625,-28.80859375,-33.69140625,19.53125,0.0
1676923262.6576338,-36.62109375,-21.484375,-32.71484375,4.8828125,0.0
1676923262.6601367,-37.59765625,-20.5078125,-27.83203125,16.6015625,0.0
1676923262.6626394,-20.01953125,-21.97265625,-24.4140625,11.71875,0.0
1676923262.665142,-9.27734375,-20.01953125,-28.80859375,-4.39453125,0.0
1676923262.667645,-16.11328125,-17.08984375,-27.83203125,-8.7890625,0.0
1676923262.6701477,-31.73828125,-24.90234375,-31.73828125,-29.78515625,0.0
1676923262.6726506,-13.18359375,-26.85546875,-37.109375,-1.46484375,0.0
1676923262.6751533,2.44140625,-17.578125,-31.73828125,19.53125,0.0
1676923262.6776562,-19.04296875,-27.83203125,-32.71484375,3.41796875,0.0
1676923262.6801589,-43.9453125,-39.0625,-33.203125,-13.18359375,0.0
1676923262.682712,-33.69140625,-29.78515625,-27.34375,-5.37109375,0.0
1676923262.6852655,-4.39453125,-23.92578125,-29.296875,15.13671875,0.0
1676923262.6878188,-13.18359375,-26.3671875,-30.76171875,1.46484375,0.0
1676923262.6903722,-41.50390625,-21.97265625,-32.2265625,-8.30078125,0.0
1676923262.6929255,-40.0390625,-20.5078125,-30.2734375,-4.8828125,0.0
1676923262.695479,-20.01953125,-25.390625,-34.66796875,-19.04296875,0.0
1676923262.6980321,-15.625,-26.3671875,-40.0390625,-22.4609375,0.0
1676923262.7005854,-31.25,-26.85546875,-40.52734375,-33.69140625,0.0
1676923262.7031388,-34.66796875,-29.78515625,-41.015625,-41.50390625,0.0
1676923262.705692,-22.94921875,-37.109375,-41.50390625,-8.7890625,0.0
1676923262.7082455,-12.20703125,-33.203125,-36.1328125,20.5078125,0.0
1676923262.7107987,-21.484375,-28.3203125,-31.25,2.44140625,0.0
1676923262.7157567,-34.1796875,-28.80859375,-32.71484375,-32.2265625,0.0
1676923262.7207146,-25.87890625,-24.4140625,-28.80859375,-8.30078125,0.0
1676923262.7256722,-14.6484375,-28.3203125,-29.296875,22.4609375,0.0
1676923262.7306302,-24.4140625,-28.3203125,-40.0390625,-11.71875,0.0
1676923262.735588,-29.78515625,-23.4375,-35.15625,-48.828125,0.0
1676923262.740546,-19.04296875,-31.73828125,-32.71484375,-31.25,0.0
1676923262.745504,-18.06640625,-30.76171875,-35.64453125,12.6953125,0.0
1676923262.7504618,-34.1796875,-30.76171875,-29.78515625,30.2734375,0.0
1676923262.7554197,-33.203125,-32.2265625,-27.83203125,-13.671875,0.0
1676923262.7603774,-12.6953125,-23.92578125,-30.2734375,-20.5078125,0.0
1676923262.7653353,-4.39453125,-24.90234375,-30.2734375,6.34765625,0.0
1676923262.7702932,-4.8828125,-29.296875,-26.3671875,0.48828125,0.0
1676923262.7727792,-10.7421875,-32.71484375,-27.83203125,-13.18359375,0.0
1676923262.775265,-22.94921875,-34.66796875,-29.78515625,-32.2265625,0.0
1676923262.777751,-4.8828125,-33.69140625,-28.80859375,-12.6953125,0.0
1676923262.7802367,20.01953125,-36.1328125,-29.296875,8.7890625,0.0
1676923262.7827227,0.9765625,-33.69140625,-30.76171875,-8.30078125,0.0
1676923262.7852087,-25.390625,-27.83203125,-28.80859375,-20.99609375,0.0
1676923262.7876945,-18.06640625,-34.1796875,-25.390625,9.765625,0.0
1676923262.7901804,-1.953125,-37.59765625,-30.76171875,20.5078125,0.0
1676923262.7926662,-9.27734375,-37.109375,-35.64453125,-13.671875,0.0
1676923262.7951522,-26.3671875,-33.69140625,-32.2265625,-14.16015625,0.0
1676923262.797638,-17.578125,-31.25,-26.85546875,10.25390625,0.0
1676923262.800124,8.7890625,-33.69140625,-28.3203125,27.34375,0.0
1676923262.8039043,-0.48828125,-36.1328125,-30.2734375,22.4609375,0.0
1676923262.8076847,-18.5546875,-32.71484375,-28.3203125,-19.53125,0.0
1676923262.8114653,-19.04296875,-33.203125,-31.73828125,-25.390625,0.0
1676923262.8152456,0.9765625,-33.69140625,-34.1796875,-0.9765625,0.0
1676923262.819026,-0.48828125,-31.25,-31.25,11.71875,0.0
1676923262.8228064,-15.13671875,-37.109375,-31.25,9.27734375,0.0
1676923262.8265867,-25.390625,-38.57421875,-31.25,-11.23046875,0.0
1676923262.830367,-26.85546875,-33.69140625,-32.2265625,1.953125,0.0
1676923262.8341475,-11.23046875,-34.1796875,-30.76171875,22.94921875,0.0
1676923262.837928,-4.39453125,-32.2265625,-26.3671875,-2.44140625,0.0
1676923262.8417084,-5.37109375,-29.296875,-30.76171875,-10.7421875,0.0
1676923262.8454888,0.9765625,-27.34375,-31.73828125,0.0,0.0
1676923262.8504543,6.8359375,-28.3203125,-31.73828125,8.7890625,0.0
1676923262.85542,9.27734375,-30.76171875,-32.2265625,30.76171875,0.0
1676923262.8603857,-13.18359375,-24.4140625,-24.90234375,14.6484375,0.0
1676923262.8653514,-28.3203125,-24.4140625,-25.390625,5.859375,0.0
1676923262.870317,-15.13671875,-27.34375,-28.80859375,27.83203125,0.0
1676923262.8752828,-5.37109375,-24.90234375,-26.3671875,32.2265625,0.0
1676923262.8802483,-15.13671875,-24.90234375,-30.2734375,5.37109375,0.0
1676923262.8852139,-24.4140625,-29.296875,-36.1328125,-25.390625,0.0
1676923262.8901796,-13.671875,-30.76171875,-32.2265625,6.34765625,0.0
1676923262.8951452,-12.6953125,-28.3203125,-28.80859375,35.15625,0.0
1676923262.900111,-17.08984375,-33.69140625,-29.296875,8.30078125,0.0
1676923262.9050765,-20.99609375,-36.1328125,-28.80859375,-10.25390625,0.0
1676923262.908834,-18.06640625,-33.203125,-29.78515625,10.25390625,0.0
1676923262.9125917,-3.41796875,-32.71484375,-26.85546875,25.390625,0.0
1676923262.9163492,-7.8125,-31.25,-24.4140625,24.90234375,0.0
1676923262.9201066,-17.08984375,-31.25,-21.97265625,1.46484375,0.0
1676923262.9238644,-18.5546875,-29.296875,-23.4375,-5.37109375,0.0
1676923262.9276218,-14.6484375,-27.83203125,-25.87890625,32.71484375,0.0
1676923262.9313793,-9.27734375,-28.80859375,-30.2734375,14.6484375,0.0
1676923262.935137,-28.80859375,-29.296875,-32.71484375,-30.76171875,0.0
1676923262.9388945,-21.484375,-31.25,-24.4140625,-20.01953125,0.0
1676923262.942652,-7.32421875,-25.390625,-17.578125,11.71875,0.0
1676923262.9464097,-13.18359375,-17.578125,-17.08984375,7.32421875,0.0
1676923262.9501672,-35.64453125,-18.06640625,-24.90234375,-20.99609375,0.0
1676923262.9539154,-48.33984375,-17.578125,-29.78515625,-38.57421875,0.0
1676923262.9576633,-41.015625,-15.625,-26.3671875,-14.6484375,0.0
1676923262.9614115,-43.9453125,-19.53125,-21.484375,-12.20703125,0.0
1676923262.9651597,-62.01171875,-22.94921875,-24.90234375,-46.875,0.0
1676923262.9689076,-76.171875,-20.01953125,-28.3203125,-73.2421875,0.0
1676923262.9726558,-62.98828125,-15.13671875,-23.92578125,-60.546875,0.0
1676923262.976404,-55.17578125,-16.11328125,-20.99609375,-49.31640625,0.0
1676923262.980152,-73.73046875,-19.04296875,-21.484375,-75.1953125,0.0
1676923262.9839,-99.12109375,-19.04296875,-25.87890625,-92.7734375,0.0
1676923262.9876482,-91.30859375,-23.4375,-25.87890625,-100.09765625,0.0
1676923262.9913962,-86.9140625,-23.92578125,-26.85546875,-95.21484375,0.0
1676923262.9951444,-97.65625,-20.01953125,-24.90234375,-95.21484375,0.0
1676923262.9988985,-110.83984375,-23.4375,-22.94921875,-100.09765625,0.0
1676923263.0026526,-127.44140625,-22.94921875,-23.4375,-104.00390625,0.0
1676923263.0064068,-115.234375,-20.99609375,-22.4609375,-90.8203125,0.0
1676923263.0101612,-109.86328125,-20.01953125,-26.3671875,-94.7265625,0.0
1676923263.0139153,-136.23046875,-19.53125,-26.85546875,-114.74609375,0.0
1676923263.0176694,-147.94921875,-17.578125,-25.390625,-109.375,0.0
1676923263.0214236,-124.0234375,-16.11328125,-31.25,-95.21484375,0.0
1676923263.0251777,-100.5859375,-17.578125,-37.59765625,-83.0078125,0.0
1676923263.028932,-106.4453125,-20.01953125,-35.15625,-78.61328125,0.0
1676923263.0326862,-125.48828125,-20.5078125,-32.2265625,-90.8203125,0.0
1676923263.0364404,-117.1875,-23.4375,-29.296875,-92.7734375,0.0
1676923263.0401945,-91.30859375,-23.92578125,-23.92578125,-65.4296875,0.0
1676923263.0439417,-83.49609375,-21.97265625,-25.390625,-59.5703125,0.0
1676923263.047689,-83.0078125,-20.99609375,-27.83203125,-81.0546875,0.0
1676923263.051436,-76.66015625,-24.4140625,-29.78515625,-54.19921875,0.0
1676923263.0551832,-58.10546875,-27.83203125,-29.78515625,-14.16015625,0.0
1676923263.0589304,-49.8046875,-24.4140625,-26.85546875,-3.41796875,0.0
1676923263.0626774,-52.24609375,-22.94921875,-27.83203125,-14.6484375,0.0
1676923263.0664246,-36.1328125,-21.484375,-29.296875,-11.71875,0.0
1676923263.0701718,-17.08984375,-23.4375,-23.92578125,25.87890625,0.0
1676923263.073919,-2.9296875,-26.3671875,-19.53125,45.41015625,0.0
1676923263.0776663,-5.37109375,-26.85546875,-26.85546875,18.06640625,0.0
1676923263.0814133,-17.08984375,-31.25,-34.1796875,-4.8828125,0.0
1676923263.0851605,-1.953125,-26.3671875,-34.66796875,16.6015625,0.0
1676923263.0890102,21.97265625,-23.4375,-32.2265625,37.59765625,0.0
1676923263.0928602,14.16015625,-24.90234375,-34.66796875,40.52734375,0.0
1676923263.09671,-16.11328125,-31.25,-38.0859375,35.15625,0.0
1676923263.10056,-10.7421875,-37.109375,-33.69140625,26.85546875,0.0
1676923263.1044097,12.20703125,-31.25,-27.83203125,42.96875,0.0
1676923263.1082597,20.5078125,-25.87890625,-25.390625,60.05859375,0.0
1676923263.1121094,8.7890625,-30.2734375,-29.296875,40.0390625,0.0
1676923263.1159592,13.18359375,-33.69140625,-34.66796875,21.97265625,0.0
1676923263.1198092,24.90234375,-38.57421875,-39.55078125,28.80859375,0.0
1676923263.123659,32.71484375,-36.1328125,-38.57421875,43.45703125,0.0
1676923263.1275089,30.76171875,-30.2734375,-28.80859375,39.55078125,0.0
1676923263.1313586,13.18359375,-33.69140625,-29.78515625,29.78515625,0.0
1676923263.135109,23.4375,-33.69140625,-33.203125,43.45703125,0.0
1676923263.1388593,30.2734375,-34.1796875,-36.1328125,59.5703125,0.0
1676923263.1426098,15.13671875,-31.25,-42.48046875,32.71484375,0.0
1676923263.1463602,5.859375,-28.3203125,-38.57421875,13.671875,0.0
1676923263.1501105,16.11328125,-27.83203125,-33.203125,33.69140625,0.0
1676923263.153861,28.3203125,-29.296875,-34.1796875,38.57421875,0.0
1676923263.1576114,20.01953125,-35.64453125,-30.2734375,49.31640625,0.0
1676923263.1613617,4.39453125,-34.66796875,-24.4140625,45.8984375,0.0
1676923263.165112,11.23046875,-30.2734375,-24.4140625,25.87890625,0.0
1676923263.1688623,32.71484375,-36.1328125,-30.2734375,34.66796875,0.0
1676923263.172613,33.69140625,-43.9453125,-37.59765625,25.87890625,0.0
1676923263.1763632,18.06640625,-41.50390625,-35.15625,6.34765625,0.0
1676923263.1800327,10.7421875,-34.66796875,-30.2734375,12.20703125,0.0
1676923263.1837025,21.97265625,-30.76171875,-27.34375,35.64453125,0.0
1676923263.187372,34.66796875,-30.76171875,-30.2734375,41.015625,0.0
1676923263.1910417,23.92578125,-29.296875,-32.2265625,18.06640625,0.0
1676923263.1947112,-0.9765625,-30.2734375,-33.203125,1.953125,0.0
1676923263.198381,2.44140625,-28.80859375,-31.73828125,30.2734375,0.0
1676923263.2020504,18.5546875,-31.25,-30.76171875,47.8515625,0.0
1676923263.20572,-0.48828125,-33.203125,-31.25,28.3203125,0.0
1676923263.2093897,-18.5546875,-32.71484375,-33.203125,-11.23046875,0.0
1676923263.2130592,5.859375,-34.66796875,-38.57421875,-4.8828125,0.0
1676923263.216729,5.37109375,-36.62109375,-34.1796875,20.5078125,0.0
1676923263.2203984,-7.8125,-36.62109375,-31.25,21.97265625,0.0
1676923263.2253814,-12.6953125,-30.2734375,-29.78515625,9.765625,0.0
1676923263.2303643,-2.44140625,-27.83203125,-28.80859375,6.34765625,0.0
1676923263.2353473,0.0,-30.2734375,-29.296875,23.4375,0.0
1676923263.2403302,-6.8359375,-26.85546875,-26.85546875,25.87890625,0.0
1676923263.2453132,-10.25390625,-22.4609375,-32.2265625,-0.9765625,0.0
1676923263.250296,-23.92578125,-29.296875,-36.1328125,-13.671875,0.0
1676923263.2552793,-11.71875,-35.64453125,-36.62109375,26.3671875,0.0
1676923263.2602623,-10.25390625,-33.203125,-33.203125,41.9921875,0.0
1676923263.2652452,-22.94921875,-34.66796875,-36.62109375,-2.44140625,0.0
1676923263.2702281,-15.13671875,-33.69140625,-37.109375,-17.578125,0.0
1676923263.275211,-0.9765625,-31.25,-34.1796875,-3.90625,0.0
1676923263.280194,-1.46484375,-27.83203125,-33.203125,8.30078125,0.0
1676923263.283944,-23.92578125,-25.390625,-31.25,-14.6484375,0.0
1676923263.287694,-33.69140625,-31.25,-32.71484375,-42.96875,0.0
1676923263.2914438,-25.87890625,-36.1328125,-31.73828125,-23.92578125,0.0
1676923263.2951937,-25.87890625,-36.62109375,-33.69140625,20.5078125,0.0
1676923263.2989438,-28.80859375,-32.2265625,-31.25,3.90625,0.0
1676923263.3026936,-35.15625,-28.80859375,-29.78515625,-54.6875,0.0
1676923263.3064435,-25.87890625,-29.296875,-29.78515625,-44.43359375,0.0
1676923263.3101935,-19.04296875,-32.71484375,-28.3203125,-5.37109375,0.0
1676923263.3139434,-11.71875,-32.2265625,-29.78515625,20.99609375,0.0
1676923263.3176932,-20.01953125,-26.85546875,-26.85546875,2.44140625,0.0
1676923263.3214433,-43.45703125,-32.71484375,-31.25,-20.01953125,0.0
1676923263.3251932,-37.109375,-39.0625,-35.64453125,5.37109375,0.0
1676923263.3289444,-22.94921875,-39.0625,-34.1796875,10.25390625,0.0
1676923263.3326957,-29.296875,-39.55078125,-36.1328125,3.90625,0.0
1676923263.336447,-28.80859375,-37.59765625,-35.64453125,-1.953125,0.0
1676923263.3401983,-20.5078125,-37.109375,-27.83203125,-10.25390625,0.0
1676923263.3439496,-15.625,-30.2734375,-30.76171875,-0.48828125,0.0
1676923263.3477008,-5.37109375,-28.3203125,-39.0625,-10.7421875,0.0
1676923263.351452,-21.484375,-32.2265625,-36.1328125,-32.2265625,0.0
1676923263.3552034,-32.71484375,-28.3203125,-30.76171875,-12.6953125,0.0
1676923263.3589547,-24.90234375,-29.78515625,-34.1796875,18.06640625,0.0
1676923263.362706,-13.18359375,-26.85546875,-40.52734375,-5.859375,0.0
1676923263.3664572,-22.94921875,-22.4609375,-40.0390625,-51.7578125,0.0
1676923263.3702085,-45.8984375,-25.390625,-34.66796875,-40.52734375,0.0
1676923263.3739562,-58.10546875,-31.73828125,-31.25,-14.6484375,0.0
1676923263.3777041,-45.8984375,-35.15625,-37.59765625,-32.2265625,0.0
1676923263.3814518,-49.31640625,-33.203125,-42.96875,-46.875,0.0
1676923263.3851998,-74.70703125,-33.203125,-43.45703125,-39.55078125,0.0
1676923263.3889475,-50.78125,-35.15625,-39.0625,-22.94921875,0.0
1676923263.3926954,-33.69140625,-32.71484375,-39.55078125,-8.30078125,0.0
1676923263.3964431,-45.8984375,-28.80859375,-42.96875,-27.83203125,0.0
1676923263.4001908,-42.48046875,-28.80859375,-38.57421875,-33.69140625,0.0
1676923263.4039388,-18.06640625,-28.3203125,-34.1796875,1.953125,0.0
1676923263.4076865,-13.18359375,-25.390625,-33.69140625,-8.7890625,0.0
1676923263.4114344,-17.578125,-25.87890625,-30.76171875,-15.625,0.0
1676923263.415182,-37.109375,-27.83203125,-30.76171875,-21.97265625,0.0
1676923263.4189208,-45.8984375,-30.2734375,-33.69140625,-20.99609375,0.0
1676923263.4226596,-27.83203125,-32.2265625,-27.34375,7.32421875,0.0
1676923263.4263983,-20.99609375,-29.296875,-26.85546875,17.08984375,0.0
1676923263.4301372,-38.0859375,-30.2734375,-39.0625,-8.30078125,0.0
1676923263.4338758,-39.0625,-28.3203125,-45.8984375,-33.69140625,0.0
1676923263.4376144,-21.97265625,-26.3671875,-35.15625,-7.8125,0.0
1676923263.4413533,-32.71484375,-29.296875,-28.3203125,3.90625,0.0
1676923263.445092,-51.7578125,-37.109375,-32.2265625,-21.484375,0.0
1676923263.4488308,-45.8984375,-39.0625,-32.2265625,-42.96875,0.0
1676923263.4525695,-26.85546875,-33.69140625,-32.71484375,-22.4609375,0.0
1676923263.4563084,-24.90234375,-32.71484375,-31.25,-6.34765625,0.0
1676923263.460047,-33.203125,-30.76171875,-33.69140625,-6.34765625,0.0
1676923263.4637957,-39.55078125,-28.3203125,-37.109375,-12.20703125,0.0
1676923263.4675443,-21.484375,-31.73828125,-34.1796875,-18.06640625,0.0
1676923263.471293,1.46484375,-31.25,-34.66796875,-5.859375,0.0
1676923263.4750414,-19.04296875,-28.80859375,-40.0390625,-7.8125,0.0
1676923263.47879,-45.8984375,-32.2265625,-38.0859375,-13.18359375,0.0
1676923263.4825387,-31.73828125,-36.1328125,-32.2265625,-2.44140625,0.0
1676923263.4862874,-18.06640625,-33.69140625,-33.69140625,24.90234375,0.0
1676923263.490036,-20.5078125,-36.1328125,-37.109375,22.94921875,0.0
1676923263.4937844,-42.96875,-34.1796875,-36.1328125,-21.97265625,0.0
1676923263.497533,-50.29296875,-29.78515625,-27.83203125,-29.296875,0.0
1676923263.5012817,-26.85546875,-32.71484375,-27.34375,10.25390625,0.0
1676923263.5050304,-28.80859375,-31.25,-31.73828125,25.87890625,0.0
1676923263.508794,-45.8984375,-33.203125,-30.76171875,-8.30078125,0.0
1676923263.512558,-33.69140625,-34.66796875,-30.76171875,-28.3203125,0.0
1676923263.5163217,-25.390625,-32.2265625,-33.203125,-11.23046875,0.0
1676923263.5200853,-30.76171875,-28.80859375,-25.87890625,15.625,0.0
1676923263.523849,-30.2734375,-28.3203125,-27.34375,-10.7421875,0.0
1676923263.5276127,-44.43359375,-27.83203125,-31.73828125,-43.45703125,0.0
1676923263.5313766,-37.109375,-24.4140625,-28.3203125,-17.578125,0.0
1676923263.5351403,-21.97265625,-21.484375,-28.3203125,5.37109375,0.0
1676923263.538904,-32.2265625,-29.296875,-32.2265625,-2.44140625,0.0
1676923263.5426679,-46.875,-29.78515625,-34.66796875,-31.73828125,0.0
1676923263.5464315,-34.1796875,-25.87890625,-34.1796875,-23.92578125,0.0
1676923263.5501952,-25.390625,-27.83203125,-31.25,13.18359375,0.0
1676923263.5539482,-17.08984375,-21.484375,-25.87890625,20.01953125,0.0
1676923263.557701,-22.4609375,-23.92578125,-32.2265625,-5.37109375,0.0
1676923263.5614543,-38.0859375,-30.76171875,-32.71484375,-15.13671875,0.0
1676923263.5652072,-24.90234375,-24.4140625,-26.85546875,9.765625,0.0
1676923263.5689602,-9.765625,-19.04296875,-28.80859375,18.06640625,0.0
1676923263.5727131,-19.53125,-25.87890625,-29.78515625,17.578125,0.0
1676923263.576466,-36.1328125,-29.296875,-30.2734375,-4.39453125,0.0
1676923263.580219,-16.11328125,-22.4609375,-36.62109375,-17.08984375,0.0
1676923263.583972,-2.9296875,-21.484375,-37.109375,9.765625,0.0
1676923263.5877252,-7.8125,-25.390625,-31.73828125,11.71875,0.0
1676923263.591478,-28.3203125,-25.390625,-33.203125,-13.671875,0.0
1676923263.595231,-25.390625,-21.97265625,-32.2265625,-2.9296875,0.0
1676923263.599133,1.953125,-22.4609375,-24.90234375,28.80859375,0.0
1676923263.6030352,-3.90625,-20.01953125,-26.85546875,20.01953125,0.0
1676923263.6069374,-24.90234375,-12.6953125,-29.296875,-2.44140625,0.0
1676923263.6108394,-23.4375,-15.13671875,-30.2734375,-15.625,0.0
1676923263.6147413,-13.671875,-20.5078125,-34.66796875,-5.37109375,0.0
1676923263.6186435,-13.18359375,-18.5546875,-37.109375,18.5546875,0.0
1676923263.6225457,-36.62109375,-24.4140625,-37.109375,-9.765625,0.0
1676923263.6264477,-60.546875,-26.85546875,-39.55078125,-31.25,0.0
1676923263.6303496,-40.52734375,-22.94921875,-43.45703125,12.20703125,0.0
1676923263.6342518,-24.90234375,-25.390625,-41.9921875,27.34375,0.0
1676923263.638154,-35.15625,-27.34375,-37.59765625,-2.44140625,0.0
1676923263.642056,-45.41015625,-26.3671875,-35.64453125,-26.85546875,0.0
1676923263.646901,-45.8984375,-27.83203125,-34.1796875,-1.46484375,0.0
1676923263.651746,-37.59765625,-28.80859375,-34.66796875,21.484375,0.0
1676923263.656591,-33.69140625,-29.296875,-37.109375,-9.765625,0.0
1676923263.661436,-49.31640625,-28.80859375,-38.57421875,-41.015625,0.0
1676923263.666281,-52.734375,-29.78515625,-39.0625,-25.390625,0.0
1676923263.671126,-27.83203125,-32.2265625,-33.203125,18.5546875,0.0
1676923263.675971,-24.90234375,-32.71484375,-34.1796875,4.8828125,0.0
1676923263.680816,-49.8046875,-32.71484375,-35.15625,-18.06640625,0.0
1676923263.685661,-51.26953125,-31.25,-35.15625,-11.23046875,0.0
1676923263.690506,-35.64453125,-31.73828125,-36.1328125,-0.48828125,0.0
1676923263.6953511,-31.25,-32.71484375,-38.0859375,-5.37109375,0.0
1676923263.700196,-39.0625,-29.78515625,-37.109375,-10.25390625,0.0
1676923263.703946,-44.43359375,-28.3203125,-32.71484375,-20.5078125,0.0
1676923263.7076962,-30.76171875,-26.3671875,-34.66796875,-0.48828125,0.0
1676923263.7114463,-17.578125,-26.85546875,-37.109375,9.765625,0.0
1676923263.7151964,-26.3671875,-29.78515625,-33.203125,-29.296875,0.0
1676923263.7189465,-44.43359375,-25.390625,-33.203125,-47.36328125,0.0
1676923263.7226965,-33.203125,-28.80859375,-31.25,-28.80859375,0.0
1676923263.7264466,-18.06640625,-30.2734375,-29.296875,-4.39453125,0.0
1676923263.7301967,-26.85546875,-26.3671875,-30.2734375,-8.30078125,0.0
1676923263.7339468,-42.48046875,-32.2265625,-35.64453125,-26.85546875,0.0
1676923263.737697,-41.50390625,-27.34375,-38.57421875,-29.78515625,0.0
1676923263.741447,-22.94921875,-24.90234375,-38.0859375,-8.30078125,0.0
1676923263.745197,-19.04296875,-32.2265625,-39.55078125,-11.23046875,0.0
1676923263.7489433,-41.015625,-30.2734375,-35.15625,-37.59765625,0.0
1676923263.7526896,-39.0625,-26.3671875,-32.2265625,-42.48046875,0.0
1676923263.7564359,-20.5078125,-26.85546875,-30.76171875,-23.4375,0.0
1676923263.7601821,-29.296875,-29.78515625,-33.203125,-15.13671875,0.0
1676923263.7639284,-48.828125,-32.71484375,-36.1328125,-17.578125,0.0
1676923263.7676747,-49.8046875,-32.2265625,-26.3671875,-7.32421875,0.0
1676923263.771421,-44.43359375,-27.34375,-24.90234375,-13.671875,0.0
1676923263.7751672,-30.2734375,-29.296875,-33.203125,-10.25390625,0.0
1676923263.7789135,-36.62109375,-33.203125,-37.109375,-18.06640625,0.0
1676923263.7826598,-60.546875,-28.3203125,-43.45703125,-48.33984375,0.0
1676923263.786406,-41.9921875,-26.3671875,-41.50390625,-30.2734375,0.0
1676923263.7901523,-26.3671875,-22.4609375,-27.83203125,-1.46484375,0.0
1676923263.7939036,-41.9921875,-18.06640625,-21.484375,-20.5078125,0.0
1676923263.7976549,-44.921875,-21.484375,-29.296875,-37.59765625,0.0
1676923263.8014061,-25.87890625,-22.4609375,-30.76171875,-24.4140625,0.0
1676923263.8051574,-19.04296875,-26.85546875,-28.80859375,-8.30078125,0.0
1676923263.8089087,-26.85546875,-29.296875,-28.3203125,-8.7890625,0.0
1676923263.8126602,-32.2265625,-22.94921875,-26.85546875,9.27734375,0.0
1676923263.8164115,-26.3671875,-18.06640625,-29.78515625,-5.859375,0.0
1676923263.8201628,-11.23046875,-22.94921875,-33.69140625,-20.01953125,0.0
1676923263.823914,7.8125,-23.92578125,-33.203125,0.9765625,0.0
1676923263.8276653,-10.7421875,-24.90234375,-34.1796875,-12.6953125,0.0
1676923263.8314166,-38.0859375,-32.2265625,-35.64453125,-11.23046875,0.0
1676923263.835168,-19.53125,-31.73828125,-31.25,14.6484375,0.0
1676923263.8402011,-16.6015625,-28.3203125,-30.76171875,9.27734375,0.0
1676923263.8452344,-23.4375,-32.71484375,-39.0625,-7.8125,0.0
1676923263.8502674,-29.78515625,-39.0625,-42.96875,-14.6484375,0.0
1676923263.8553007,-25.87890625,-34.1796875,-40.52734375,7.8125,0.0
1676923263.860334,-12.20703125,-26.85546875,-39.0625,1.953125,0.0
1676923263.865367,-7.8125,-27.83203125,-37.59765625,-16.11328125,0.0
1676923263.8704002,-19.53125,-31.73828125,-42.96875,-14.6484375,0.0
1676923263.8754334,-16.11328125,-35.64453125,-48.33984375,-16.6015625,0.0
1676923263.8804667,-12.6953125,-35.15625,-40.0390625,-12.6953125,0.0
1676923263.8855,-16.11328125,-33.69140625,-30.76171875,0.48828125,0.0
1676923263.890533,-36.62109375,-34.66796875,-31.73828125,-8.7890625,0.0
1676923263.8955662,-44.921875,-32.2265625,-30.76171875,-27.83203125,0.0
1676923263.8992884,-23.4375,-35.64453125,-26.85546875,-4.8828125,0.0
1676923263.9030108,-12.20703125,-31.73828125,-28.3203125,18.5546875,0.0
1676923263.906733,-13.671875,-25.87890625,-29.296875,8.7890625,0.0
1676923263.9104552,-18.06640625,-29.78515625,-31.73828125,-11.23046875,0.0
1676923263.9141774,-17.08984375,-34.66796875,-32.71484375,-9.27734375,0.0
1676923263.9178996,-7.32421875,-38.0859375,-29.78515625,9.765625,0.0
1676923263.921622,-3.41796875,-35.15625,-24.4140625,17.578125,0.0
1676923263.9253442,-16.11328125,-30.76171875,-20.99609375,-2.44140625,0.0
1676923263.9290664,-15.625,-30.76171875,-21.484375,-3.90625,0.0
1676923263.9327888,2.44140625,-26.85546875,-20.5078125,31.25,0.0
1676923263.936511,3.90625,-22.4609375,-22.94921875,24.90234375,0.0
1676923263.9402332,-2.44140625,-22.94921875,-29.296875,-4.8828125,0.0
1676923263.9427373,-16.6015625,-21.97265625,-27.83203125,-15.625,0.0
1676923263.9452415,-5.37109375,-21.484375,-24.4140625,-0.9765625,0.0
1676923263.9477456,7.32421875,-22.94921875,-27.83203125,11.23046875,0.0
1676923263.9502497,-15.625,-25.390625,-29.296875,7.32421875,0.0
1676923263.9527538,-26.3671875,-31.73828125,-27.34375,-26.3671875,0.0
1676923263.955258,-17.578125,-34.66796875,-26.85546875,-22.94921875,0.0
1676923263.9577618,-16.6015625,-35.64453125,-28.80859375,10.7421875,0.0
1676923263.9602659,-26.85546875,-35.64453125,-27.34375,-10.7421875,0.0
1676923263.96277,-34.66796875,-33.203125,-21.484375,-29.296875,0.0
1676923263.965274,-24.90234375,-33.203125,-22.94921875,3.41796875,0.0
1676923263.9677782,-15.13671875,-32.71484375,-27.34375,29.296875,0.0
1676923263.9702823,-30.76171875,-34.1796875,-31.73828125,-5.859375,0.0
1676923263.9752808,-46.38671875,-31.73828125,-29.296875,-37.59765625,0.0
1676923263.9802794,-41.015625,-31.25,-31.73828125,-15.625,0.0
1676923263.985278,-29.78515625,-37.59765625,-39.55078125,-2.9296875,0.0
1676923263.9902766,-23.92578125,-37.59765625,-33.69140625,-19.04296875,0.0
1676923263.995275,-35.64453125,-30.76171875,-28.3203125,-36.62109375,0.0
1676923264.0002737,-49.8046875,-29.78515625,-27.83203125,-30.76171875,0.0
1676923264.0052722,-21.97265625,-33.69140625,-26.3671875,-3.41796875,0.0
1676923264.0102706,-17.08984375,-27.83203125,-30.76171875,-3.41796875,0.0
1676923264.0152693,-56.15234375,-20.99609375,-37.109375,-15.625,0.0
1676923264.0202677,-47.8515625,-25.390625,-35.15625,-9.27734375,0.0
1676923264.0252664,-29.296875,-26.3671875,-31.73828125,10.7421875,0.0
1676923264.0302649,-42.96875,-28.3203125,-33.203125,-3.90625,0.0
1676923264.0340142,-48.828125,-29.296875,-33.203125,-25.390625,0.0
1676923264.0377638,-44.43359375,-26.3671875,-32.2265625,-25.87890625,0.0
1676923264.0415132,-28.80859375,-27.83203125,-34.1796875,-1.953125,0.0
1676923264.0452628,-5.859375,-26.85546875,-34.1796875,32.2265625,0.0
1676923264.0490122,-2.9296875,-20.99609375,-32.2265625,31.25,0.0
1676923264.0527616,-26.3671875,-20.99609375,-32.71484375,-4.39453125,0.0
1676923264.0565112,-34.1796875,-26.3671875,-30.76171875,-6.8359375,0.0
1676923264.0602605,-10.7421875,-26.3671875,-28.3203125,29.296875,0.0
1676923264.0640101,-5.859375,-24.4140625,-27.34375,48.828125,0.0
1676923264.0677595,-27.34375,-22.4609375,-20.99609375,28.3203125,0.0
1676923264.0715091,-25.390625,-20.01953125,-25.390625,0.9765625,0.0
1676923264.0752585,0.9765625,-21.97265625,-32.2265625,20.5078125,0.0
1676923264.079009,6.34765625,-20.99609375,-30.2734375,41.50390625,0.0
1676923264.0827594,-8.30078125,-20.01953125,-26.3671875,28.3203125,0.0
1676923264.08651,-29.78515625,-25.87890625,-30.2734375,-20.01953125,0.0
1676923264.0902605,-33.203125,-32.71484375,-32.71484375,-13.18359375,0.0
1676923264.0940108,-23.92578125,-34.1796875,-30.76171875,15.625,0.0
1676923264.0977614,-34.66796875,-31.73828125,-34.1796875,-1.953125,0.0
1676923264.101512,-50.78125,-30.76171875,-35.64453125,-32.2265625,0.0
1676923264.1052623,-48.33984375,-30.76171875,-33.203125,-20.01953125,0.0
1676923264.1090128,-31.25,-28.3203125,-33.69140625,3.90625,0.0
1676923264.1127634,-47.8515625,-28.3203125,-35.15625,-10.25390625,0.0
1676923264.1165137,-66.89453125,-34.1796875,-35.64453125,-31.73828125,0.0
1676923264.1202643,-61.03515625,-32.2265625,-34.66796875,-33.203125,0.0
1676923264.1240087,-53.22265625,-28.3203125,-39.55078125,1.953125,0.0
1676923264.1277528,-49.31640625,-27.83203125,-44.921875,9.765625,0.0
1676923264.1314971,-56.15234375,-27.83203125,-40.52734375,-11.23046875,0.0
1676923264.1352415,-67.3828125,-30.2734375,-36.62109375,-23.4375,0.0
1676923264.1389859,-61.5234375,-32.71484375,-39.55078125,-19.04296875,0.0
1676923264.1427302,-43.45703125,-33.203125,-43.45703125,-6.8359375,0.0
1676923264.1464744,-43.45703125,-31.73828125,-41.50390625,-14.6484375,0.0
1676923264.1502187,-59.08203125,-32.2265625,-40.0390625,-28.80859375,0.0
1676923264.153963,-43.9453125,-38.0859375,-38.0859375,-12.20703125,0.0
1676923264.1577072,-30.2734375,-36.1328125,-36.62109375,3.90625,0.0
1676923264.1614516,-46.38671875,-35.64453125,-43.9453125,-9.765625,0.0
1676923264.165196,-64.453125,-39.55078125,-41.015625,-19.53125,0.0
1676923264.168925,-65.4296875,-35.64453125,-33.69140625,-24.90234375,0.0
1676923264.1726542,-56.15234375,-27.34375,-32.2265625,3.41796875,0.0
1676923264.1763835,-60.05859375,-30.76171875,-32.71484375,12.20703125,0.0
1676923264.1801126,-65.91796875,-36.62109375,-32.71484375,-25.390625,0.0
1676923264.1838417,-54.6875,-33.203125,-32.71484375,-20.99609375,0.0
1676923264.1875708,-35.15625,-34.1796875,-29.296875,6.34765625,0.0
1676923264.1913,-34.66796875,-30.2734375,-30.2734375,12.6953125,0.0
1676923264.195029,-52.24609375,-30.2734375,-31.73828125,1.46484375,0.0
1676923264.1987581,-68.84765625,-33.69140625,-33.203125,-10.7421875,0.0
1676923264.2024875,-60.546875,-39.0625,-34.1796875,-20.99609375,0.0
1676923264.2062166,-52.734375,-41.015625,-33.69140625,-11.23046875,0.0
1676923264.2099457,-64.453125,-33.203125,-34.66796875,-2.44140625,0.0
1676923264.2138157,-85.44921875,-32.71484375,-35.64453125,-29.78515625,0.0
1676923264.217686,-74.21875,-30.2734375,-34.66796875,-10.7421875,0.0
1676923264.2215562,-66.89453125,-26.85546875,-29.296875,35.15625,0.0
1676923264.2254262,-76.171875,-27.34375,-26.3671875,26.85546875,0.0
1676923264.2292962,-77.1484375,-32.2265625,-28.80859375,-25.390625,0.0
1676923264.2331665,-74.70703125,-31.25,-33.203125,-31.25,0.0
1676923264.2370367,-52.734375,-26.3671875,-30.76171875,0.48828125,0.0
1676923264.2409067,-53.7109375,-32.71484375,-35.64453125,-17.578125,0.0
1676923264.2447767,-75.1953125,-37.59765625,-42.48046875,-55.6640625,0.0
1676923264.248647,-79.1015625,-33.69140625,-37.59765625,-55.6640625,0.0
1676923264.2525172,-68.359375,-28.80859375,-33.69140625,-12.6953125,0.0
1676923264.2563872,-56.640625,-30.2734375,-33.203125,-4.8828125,0.0
1676923264.2600408,-68.84765625,-33.203125,-34.66796875,-45.8984375,0.0
1676923264.263694,-95.21484375,-35.64453125,-38.57421875,-54.19921875,0.0
1676923264.2673476,-76.66015625,-39.55078125,-40.52734375,-36.62109375,0.0
1676923264.271001,-65.4296875,-40.0390625,-40.52734375,-26.3671875,0.0
1676923264.2746544,-79.58984375,-41.50390625,-39.0625,-20.5078125,0.0
1676923264.278308,-84.9609375,-41.015625,-43.45703125,-37.109375,0.0
1676923264.2819614,-66.40625,-36.1328125,-45.41015625,-34.66796875,0.0
1676923264.2856147,-47.8515625,-42.96875,-43.9453125,-4.39453125,0.0
1676923264.2892683,-55.6640625,-40.52734375,-40.0390625,-18.5546875,0.0
1676923264.2929218,-63.96484375,-30.2734375,-37.59765625,-18.06640625,0.0
1676923264.296575,-61.03515625,-31.25,-44.921875,-3.90625,0.0
1676923264.3002286,-34.1796875,-32.71484375,-41.9921875,13.671875,0.0
1676923264.3040786,-31.25,-33.203125,-37.59765625,28.3203125,0.0
1676923264.3079286,-61.5234375,-32.71484375,-31.73828125,19.53125,0.0
1676923264.3117785,-76.66015625,-29.78515625,-26.85546875,0.48828125,0.0
1676923264.3156288,-57.6171875,-29.296875,-28.3203125,20.5078125,0.0
1676923264.3194788,-46.875,-33.69140625,-31.25,22.94921875,0.0
1676923264.3233287,-57.6171875,-37.59765625,-36.1328125,-9.765625,0.0
1676923264.3271787,-81.54296875,-33.69140625,-36.62109375,-17.08984375,0.0
1676923264.3310287,-80.078125,-25.390625,-30.76171875,-3.41796875,0.0
1676923264.334879,-50.78125,-26.85546875,-29.296875,16.6015625,0.0
1676923264.338729,-63.4765625,-26.3671875,-29.78515625,6.8359375,0.0
1676923264.342579,-79.1015625,-24.90234375,-31.73828125,-20.5078125,0.0
1676923264.3464289,-78.61328125,-32.71484375,-34.66796875,-22.4609375,0.0
1676923264.351339,-82.51953125,-34.1796875,-33.203125,2.44140625,0.0
1676923264.3562493,-66.89453125,-30.2734375,-30.2734375,3.90625,0.0
1676923264.3611598,-71.2890625,-25.87890625,-32.2265625,-20.01953125,0.0
1676923264.36607,-81.0546875,-25.87890625,-37.109375,-13.671875,0.0
1676923264.3709803,-63.4765625,-22.94921875,-31.25,0.48828125,0.0
1676923264.3758905,-50.29296875,-22.4609375,-22.94921875,28.3203125,0.0
1676923264.3808007,-74.21875,-34.1796875,-27.34375,20.99609375,0.0
1676923264.385711,-85.44921875,-40.0390625,-34.1796875,-31.73828125,0.0
1676923264.3906212,-55.6640625,-35.15625,-35.15625,3.90625,0.0
1676923264.3955317,-58.59375,-32.71484375,-32.71484375,38.0859375,0.0
1676923264.400442,-71.77734375,-31.73828125,-35.64453125,-10.7421875,0.0
1676923264.405352,-72.265625,-25.87890625,-36.1328125,-24.4140625,0.0
1676923264.4090948,-63.96484375,-26.85546875,-30.76171875,0.48828125,0.0
1676923264.4128373,-51.7578125,-34.66796875,-29.296875,14.6484375,0.0
1676923264.4165797,-61.5234375,-35.64453125,-30.76171875,9.27734375,0.0
1676923264.4203224,-73.73046875,-30.76171875,-32.71484375,-8.30078125,0.0
1676923264.424065,-67.87109375,-31.73828125,-36.1328125,-5.37109375,0.0
1676923264.4278076,-58.59375,-32.71484375,-40.0390625,12.6953125,0.0
1676923264.43155,-58.10546875,-26.85546875,-37.109375,13.18359375,0.0
1676923264.4352927,-67.87109375,-23.92578125,-37.109375,0.48828125,0.0
1676923264.4390354,-73.2421875,-25.87890625,-36.62109375,1.953125,0.0
1676923264.4427779,-59.08203125,-23.92578125,-31.73828125,20.01953125,0.0
1676923264.4465203,-57.12890625,-26.3671875,-36.1328125,-2.44140625,0.0
1676923264.450263,-67.87109375,-26.3671875,-41.015625,-23.92578125,0.0
1676923264.4540143,-73.73046875,-28.80859375,-37.59765625,-3.41796875,0.0
1676923264.4577656,-58.59375,-26.3671875,-37.59765625,22.4609375,0.0
1676923264.4615169,-50.29296875,-19.53125,-38.57421875,20.5078125,0.0
1676923264.465268,-54.19921875,-22.4609375,-35.64453125,1.953125,0.0
1676923264.4690192,-55.6640625,-22.94921875,-34.1796875,-16.6015625,0.0
1676923264.4727705,-50.29296875,-21.97265625,-31.73828125,-0.9765625,0.0
1676923264.4765217,-45.41015625,-23.92578125,-26.3671875,17.08984375,0.0
1676923264.480273,-52.24609375,-20.99609375,-23.4375,11.71875,0.0
1676923264.484024,-73.73046875,-23.92578125,-25.87890625,10.25390625,0.0
1676923264.4877753,-73.73046875,-26.85546875,-27.83203125,0.0,0.0
1676923264.4915266,-58.59375,-22.94921875,-27.83203125,-13.18359375,0.0
1676923264.495278,-56.15234375,-20.01953125,-30.2734375,-7.32421875,0.0
1676923264.4990191,-67.87109375,-26.3671875,-30.2734375,-20.01953125,0.0
1676923264.5027604,-73.73046875,-28.80859375,-31.73828125,-19.53125,0.0
1676923264.5065014,-61.03515625,-21.484375,-34.1796875,3.41796875,0.0
1676923264.5102427,-40.0390625,-22.4609375,-32.71484375,5.37109375,0.0
1676923264.513984,-45.8984375,-26.3671875,-30.76171875,-5.37109375,0.0
1676923264.517725,-65.4296875,-25.390625,-31.73828125,-9.27734375,0.0
1676923264.5214663,-55.17578125,-20.99609375,-29.78515625,8.7890625,0.0
1676923264.5252075,-37.109375,-21.484375,-28.3203125,20.01953125,0.0
1676923264.5289488,-48.828125,-32.71484375,-33.203125,6.8359375,0.0
1676923264.53269,-66.89453125,-35.15625,-39.55078125,-12.20703125,0.0
1676923264.536431,-53.7109375,-28.80859375,-41.015625,-9.27734375,0.0
1676923264.5401723,-42.96875,-30.2734375,-44.43359375,5.859375,0.0
1676923264.5439508,-53.22265625,-29.296875,-40.52734375,-9.27734375,0.0
1676923264.5477293,-79.58984375,-24.90234375,-36.1328125,-32.2265625,0.0
1676923264.5515077,-91.796875,-29.296875,-41.015625,-31.73828125,0.0
1676923264.5552862,-71.77734375,-29.296875,-40.0390625,-12.6953125,0.0
1676923264.5590646,-61.03515625,-26.3671875,-34.66796875,-9.27734375,0.0
1676923264.5628428,-67.3828125,-22.94921875,-30.76171875,-16.6015625,0.0
1676923264.5666213,-76.66015625,-22.94921875,-34.66796875,-18.06640625,0.0
1676923264.5703998,-54.6875,-37.109375,-39.0625,-0.48828125,0.0
1676923264.5741782,-38.57421875,-34.66796875,-37.109375,6.8359375,0.0
1676923264.5779567,-54.19921875,-27.83203125,-39.0625,-23.92578125,0.0
1676923264.5817351,-62.01171875,-32.2265625,-40.0390625,-32.2265625,0.0
1676923264.5855136,-60.546875,-32.2265625,-38.0859375,-12.20703125,0.0
1676923264.5892422,-64.94140625,-28.80859375,-34.66796875,0.48828125,0.0
1676923264.592971,-53.7109375,-26.3671875,-32.2265625,-9.765625,0.0
1676923264.5966997,-43.45703125,-24.90234375,-29.296875,-15.625,0.0
1676923264.6004286,-54.6875,-22.4609375,-24.4140625,1.46484375,0.0
1676923264.6041572,-35.64453125,-20.99609375,-25.390625,9.27734375,0.0
1676923264.6078858,-35.64453125,-22.4609375,-27.34375,2.9296875,0.0
1676923264.6116147,-66.89453125,-23.92578125,-30.2734375,-17.08984375,0.0
1676923264.6153433,-69.3359375,-26.85546875,-33.69140625,-18.5546875,0.0
1676923264.6190722,-53.7109375,-27.34375,-31.73828125,0.0,0.0
1676923264.6228008,-45.41015625,-29.78515625,-31.25,4.39453125,0.0
1676923264.6265297,-50.78125,-34.1796875,-30.76171875,-0.9765625,0.0
1676923264.6302583,-57.12890625,-28.80859375,-27.34375,-1.46484375,0.0
1676923264.633993,-60.05859375,-25.87890625,-27.34375,6.8359375,0.0
1676923264.6377275,-47.36328125,-29.78515625,-29.78515625,31.73828125,0.0
1676923264.641462,-47.36328125,-26.85546875,-31.25,21.484375,0.0
1676923264.6451967,-65.91796875,-25.390625,-34.1796875,-34.66796875,0.0
1676923264.6489313,-62.98828125,-28.80859375,-36.1328125,-24.4140625,0.0
1676923264.6526656,-63.96484375,-34.66796875,-38.57421875,16.6015625,0.0
1676923264.6564002,-68.84765625,-32.2265625,-41.015625,-5.859375,0.0
1676923264.6601348,-69.82421875,-23.92578125,-35.64453125,-31.25,0.0
1676923264.6638694,-56.15234375,-25.390625,-33.203125,-19.04296875,0.0
1676923264.667604,-41.9921875,-22.4609375,-27.83203125,6.8359375,0.0
1676923264.6713386,-45.8984375,-26.3671875,-23.92578125,15.13671875,0.0
1676923264.6750731,-57.6171875,-26.3671875,-25.87890625,-11.23046875,0.0
1676923264.6788442,-57.12890625,-23.4375,-29.78515625,-27.83203125,0.0
1676923264.6826153,-39.55078125,-28.3203125,-31.25,-4.39453125,0.0
1676923264.6863863,-34.1796875,-31.25,-31.73828125,4.39453125,0.0
1676923264.6901574,-41.015625,-31.73828125,-34.66796875,-10.7421875,0.0
1676923264.6939285,-32.71484375,-21.484375,-30.2734375,-10.25390625,0.0
1676923264.6976995,-36.62109375,-22.4609375,-24.4140625,16.6015625,0.0
1676923264.7014704,-39.0625,-33.203125,-23.92578125,35.15625,0.0
1676923264.7052414,-36.1328125,-35.64453125,-26.85546875,2.9296875,0.0
1676923264.7090125,-62.98828125,-40.0390625,-30.76171875,-32.2265625,0.0
1676923264.7127836,-57.6171875,-42.96875,-33.69140625,2.9296875,0.0
1676923264.7165546,-40.52734375,-38.57421875,-35.15625,26.85546875,0.0
1676923264.7203257,-41.9921875,-31.73828125,-39.55078125,-2.44140625,0.0
1676923264.7253206,-45.8984375,-27.83203125,-37.59765625,-22.4609375,0.0
1676923264.7303154,-41.015625,-33.69140625,-32.2265625,-13.671875,0.0
1676923264.7353103,-30.2734375,-35.64453125,-27.34375,3.41796875,0.0
1676923264.7403052,-36.62109375,-33.69140625,-28.80859375,12.20703125,0.0
1676923264.7453,-58.10546875,-34.1796875,-31.25,-10.7421875,0.0
1676923264.750295,-54.19921875,-32.2265625,-34.1796875,-16.6015625,0.0
1676923264.7552898,-37.109375,-33.69140625,-37.109375,18.5546875,0.0
1676923264.7602847,-48.828125,-32.71484375,-33.69140625,11.71875,0.0
1676923264.7652795,-57.12890625,-27.34375,-32.2265625,-6.34765625,0.0
1676923264.7702744,-48.33984375,-22.4609375,-33.203125,-26.85546875,0.0
1676923264.7752693,-42.48046875,-21.97265625,-36.1328125,-23.4375,0.0
1676923264.7802641,-36.62109375,-22.4609375,-35.64453125,-8.7890625,0.0
1676923264.7841005,-50.78125,-23.4375,-34.1796875,-5.37109375,0.0
1676923264.7879372,-68.359375,-27.34375,-35.64453125,-3.90625,0.0
1676923264.7917736,-61.5234375,-26.3671875,-36.62109375,-18.06640625,0.0
1676923264.79561,-47.36328125,-23.92578125,-33.69140625,-8.30078125,0.0
1676923264.7994466,-57.12890625,-33.203125,-32.2265625,8.30078125,0.0
1676923264.803283,-79.1015625,-41.015625,-35.64453125,-20.99609375,0.0
1676923264.8071194,-78.125,-36.1328125,-35.15625,-38.57421875,0.0
1676923264.810956,-44.921875,-28.80859375,-27.34375,-17.08984375,0.0
1676923264.8147924,-41.015625,-29.78515625,-25.390625,-3.41796875,0.0
1676923264.8186288,-68.84765625,-30.2734375,-30.76171875,-20.5078125,0.0
1676923264.8224654,-66.40625,-28.80859375,-29.78515625,-33.203125,0.0
1676923264.8263018,-49.31640625,-35.64453125,-33.203125,-9.765625,0.0
1676923264.8300607,-39.55078125,-41.015625,-37.59765625,-1.953125,0.0
1676923264.8338196,-49.31640625,-36.1328125,-36.62109375,-17.08984375,0.0
1676923264.8375788,-51.7578125,-33.69140625,-37.109375,-21.97265625,0.0
1676923264.8413377,-28.80859375,-33.203125,-34.66796875,-9.765625,0.0
1676923264.8450966,-14.6484375,-32.71484375,-34.1796875,-5.37109375,0.0
1676923264.8488555,-13.671875,-28.3203125,-34.66796875,-10.7421875,0.0
1676923264.8526144,-30.2734375,-22.94921875,-35.64453125,-25.87890625,0.0
1676923264.8563733,-27.83203125,-30.2734375,-43.9453125,-12.20703125,0.0
1676923264.8601322,-15.13671875,-31.25,-44.921875,9.765625,0.0
1676923264.8638914,-23.92578125,-29.296875,-38.57421875,-17.578125,0.0
1676923264.8676503,-42.48046875,-30.2734375,-33.69140625,-42.96875,0.0
1676923264.8714092,-41.50390625,-30.76171875,-35.64453125,-40.0390625,0.0
1676923264.875101,-31.73828125,-33.203125,-35.64453125,-9.27734375,0.0
1676923264.878793,-38.57421875,-37.109375,-32.71484375,8.30078125,0.0
1676923264.882485,-52.734375,-38.57421875,-36.62109375,-21.97265625,0.0
1676923264.8861768,-58.10546875,-33.69140625,-35.15625,-41.015625,0.0
1676923264.8898687,-41.015625,-33.203125,-27.83203125,-12.6953125,0.0
1676923264.8935606,-32.71484375,-35.15625,-30.76171875,0.0,0.0
1676923264.8972526,-37.59765625,-31.73828125,-35.64453125,-36.62109375,0.0
1676923264.9009445,-30.76171875,-27.83203125,-34.1796875,-53.7109375,0.0
1676923264.9046364,-23.4375,-27.34375,-26.3671875,-7.32421875,0.0
1676923264.9083283,-20.01953125,-25.390625,-24.4140625,12.6953125,0.0
1676923264.9120202,-10.7421875,-25.390625,-21.484375,-10.25390625,0.0
1676923264.915712,-26.3671875,-28.80859375,-24.4140625,-22.4609375,0.0
1676923264.9195256,-41.9921875,-29.78515625,-27.34375,1.46484375,0.0
1676923264.923339,-18.5546875,-23.4375,-18.5546875,22.4609375,0.0
1676923264.9271524,-4.39453125,-22.4609375,-17.578125,6.8359375,0.0
1676923264.9309657,-16.6015625,-27.83203125,-17.08984375,-10.25390625,0.0
1676923264.9347792,-20.99609375,-21.97265625,-14.16015625,-15.625,0.0
1676923264.9385924,-10.7421875,-21.484375,-14.6484375,4.8828125,0.0
1676923264.942406,-5.37109375,-29.296875,-16.6015625,16.6015625,0.0
1676923264.9462194,-10.25390625,-33.69140625,-19.53125,7.32421875,0.0
1676923264.9500327,-13.18359375,-28.3203125,-19.53125,0.9765625,0.0
1676923264.9538462,-19.04296875,-21.484375,-14.16015625,24.90234375,0.0
1676923264.9576595,-17.578125,-25.390625,-17.08984375,26.85546875,0.0
1676923264.961473,-25.390625,-28.80859375,-24.90234375,0.9765625,0.0
1676923264.9651384,-43.9453125,-28.80859375,-27.34375,-19.53125,0.0
1676923264.968804,-34.1796875,-30.76171875,-29.296875,-13.671875,0.0
1676923264.9724693,-16.11328125,-30.76171875,-26.3671875,7.8125,0.0
1676923264.976135,-20.01953125,-31.73828125,-22.94921875,6.34765625,0.0
1676923264.9798005,-40.0390625,-31.25,-26.3671875,-0.9765625,0.0
1676923264.983466,-39.55078125,-28.80859375,-28.80859375,3.41796875,0.0
1676923264.9871314,-17.08984375,-26.3671875,-26.3671875,9.765625,0.0
1676923264.9907968,-3.90625,-27.83203125,-30.2734375,-6.34765625,0.0
1676923264.9944625,-11.23046875,-28.3203125,-37.109375,-29.296875,0.0
1676923264.998128,-22.94921875,-24.4140625,-42.48046875,-21.97265625,0.0
1676923265.0017934,-17.08984375,-16.6015625,-40.0390625,-0.9765625,0.0
1676923265.0054588,4.39453125,-15.13671875,-35.15625,13.18359375,0.0
1676923265.009296,-5.37109375,-23.4375,-33.203125,0.9765625,0.0
1676923265.0131333,-29.78515625,-31.25,-32.71484375,-44.921875,0.0
1676923265.0169706,-16.6015625,-34.1796875,-32.2265625,-23.92578125,0.0
1676923265.0208077,-24.90234375,-37.109375,-29.296875,6.8359375,0.0
1676923265.0246449,-32.2265625,-31.73828125,-29.78515625,-25.390625,0.0
1676923265.0284822,-34.1796875,-29.296875,-33.69140625,-42.48046875,0.0
1676923265.0323195,-30.76171875,-40.52734375,-34.1796875,-25.87890625,0.0
1676923265.0361567,-17.578125,-37.109375,-37.59765625,-2.44140625,0.0
1676923265.0399938,-14.6484375,-26.85546875,-41.50390625,-15.13671875,0.0
1676923265.043831,-26.85546875,-26.85546875,-37.59765625,-30.2734375,0.0
1676923265.0476685,-32.71484375,-28.80859375,-34.1796875,-23.4375,0.0
1676923265.0515056,-27.34375,-29.296875,-33.203125,-5.37109375,0.0
1676923265.055153,-17.578125,-32.2265625,-36.62109375,-1.953125,0.0
1676923265.0588002,-10.7421875,-35.15625,-36.1328125,-26.3671875,0.0
1676923265.0624475,-20.01953125,-33.203125,-31.73828125,-20.01953125,0.0
1676923265.0660949,-20.5078125,-30.2734375,-31.25,11.71875,0.0
1676923265.0697422,-21.97265625,-34.1796875,-34.1796875,9.27734375,0.0
1676923265.0733895,-33.203125,-35.64453125,-35.64453125,-27.34375,0.0
1676923265.077037,-36.1328125,-36.62109375,-35.15625,-31.25,0.0
1676923265.0806844,-17.578125,-34.66796875,-28.3203125,-6.8359375,0.0
1676923265.0843318,1.46484375,-30.76171875,-26.85546875,-2.44140625,0.0
1676923265.087979,-8.30078125,-36.1328125,-29.78515625,-11.23046875,0.0
1676923265.0916264,-19.53125,-38.57421875,-27.34375,-19.53125,0.0
1676923265.0952737,-2.44140625,-35.64453125,-26.85546875,-6.34765625,0.0
1676923265.1002567,1.953125,-35.64453125,-30.76171875,15.13671875,0.0
1676923265.1052396,-1.953125,-37.109375,-31.73828125,24.4140625,0.0
1676923265.1102228,-10.25390625,-39.55078125,-29.296875,3.41796875,0.0
1676923265.1152058,-9.765625,-36.62109375,-30.2734375,7.8125,0.0
1676923265.1201887,9.27734375,-32.2265625,-31.25,32.2265625,0.0
1676923265.1251717,6.8359375,-32.71484375,-31.73828125,31.73828125,0.0
1676923265.1301546,-10.25390625,-35.15625,-30.76171875,-6.34765625,0.0
1676923265.1351376,-11.23046875,-30.2734375,-27.83203125,-40.0390625,0.0
1676923265.1401205,3.41796875,-27.83203125,-25.87890625,-18.5546875,0.0
1676923265.1451037,16.6015625,-29.296875,-27.83203125,17.08984375,0.0
1676923265.1500866,6.8359375,-22.4609375,-30.76171875,3.41796875,0.0
1676923265.1550696,-22.94921875,-20.01953125,-33.203125,-19.04296875,0.0
1676923265.1588347,-13.18359375,-22.4609375,-33.203125,-3.41796875,0.0
1676923265.1626,11.71875,-18.5546875,-23.4375,34.1796875,0.0
1676923265.1663651,-4.39453125,-17.08984375,-21.97265625,30.76171875,0.0
1676923265.1701305,-26.3671875,-20.99609375,-27.34375,6.8359375,0.0
1676923265.1738956,-17.08984375,-21.97265625,-32.2265625,15.13671875,0.0
1676923265.177661,-13.18359375,-16.6015625,-33.203125,9.27734375,0.0
1676923265.181426,-26.3671875,-14.6484375,-38.57421875,-6.8359375,0.0
1676923265.1851912,-33.69140625,-17.08984375,-37.59765625,-28.3203125,0.0
1676923265.1889565,-16.11328125,-18.5546875,-37.59765625,-30.76171875,0.0
1676923265.1927216,4.8828125,-25.390625,-35.15625,-4.8828125,0.0
1676923265.196487,-4.39453125,-32.71484375,-30.76171875,0.9765625,0.0
1676923265.200252,-25.390625,-33.203125,-36.62109375,-3.41796875,0.0
1676923265.2039976,-30.76171875,-31.73828125,-39.0625,-13.671875,0.0
1676923265.2077432,-4.39453125,-34.66796875,-36.62109375,9.27734375,0.0
1676923265.2114887,7.8125,-35.64453125,-29.78515625,7.8125,0.0
1676923265.2152345,1.953125,-31.73828125,-27.83203125,-15.13671875,0.0
1676923265.21898,-6.8359375,-34.1796875,-28.80859375,-29.296875,0.0
1676923265.2227256,-18.5546875,-30.2734375,-24.90234375,9.765625,0.0
1676923265.2264712,-2.9296875,-26.3671875,-28.80859375,38.57421875,0.0
1676923265.2302167,7.32421875,-29.296875,-26.85546875,19.04296875,0.0
1676923265.2339625,-8.30078125,-29.296875,-18.06640625,7.32421875,0.0
1676923265.237708,-18.06640625,-30.76171875,-21.484375,5.859375,0.0
1676923265.2414536,-2.44140625,-30.2734375,-23.92578125,7.32421875,0.0
1676923265.2451992,-1.46484375,-30.76171875,-27.83203125,6.8359375,0.0
1676923265.2489812,-13.671875,-30.2734375,-29.78515625,11.71875,0.0
1676923265.252763,-17.578125,-32.2265625,-31.73828125,-3.90625,0.0
1676923265.256545,-0.48828125,-34.1796875,-37.109375,-6.34765625,0.0
1676923265.2603269,14.16015625,-31.73828125,-36.62109375,9.27734375,0.0
1676923265.264109,-19.04296875,-27.34375,-31.73828125,9.27734375,0.0
1676923265.267891,-35.64453125,-30.2734375,-38.57421875,-16.6015625,0.0
1676923265.2716727,-14.16015625,-32.2265625,-40.0390625,-10.7421875,0.0
1676923265.2754548,3.90625,-29.78515625,-33.203125,5.37109375,0.0
1676923265.2792366,-11.71875,-35.15625,-35.15625,1.953125,0.0
1676923265.2830186,-41.50390625,-33.203125,-41.015625,-19.53125,0.0
1676923265.2868004,-28.80859375,-31.73828125,-40.52734375,-12.20703125,0.0
1676923265.2905824,4.8828125,-34.66796875,-35.64453125,24.90234375,0.0
1676923265.2943058,-11.71875,-28.3203125,-35.64453125,17.578125,0.0
1676923265.2980292,-45.41015625,-27.83203125,-36.62109375,-26.3671875,0.0
1676923265.3017526,-45.41015625,-28.80859375,-37.59765625,-33.203125,0.0
1676923265.305476,-28.80859375,-23.92578125,-37.109375,-0.9765625,0.0
1676923265.3091993,-21.484375,-25.87890625,-36.1328125,9.27734375,0.0
1676923265.312923,-26.85546875,-31.73828125,-37.109375,-14.16015625,0.0
1676923265.3166463,-33.69140625,-23.92578125,-35.15625,-23.92578125,0.0
1676923265.3203697,-9.765625,-18.06640625,-32.2265625,-2.9296875,0.0
1676923265.324093,-1.46484375,-28.80859375,-35.64453125,0.9765625,0.0
1676923265.3278165,-48.33984375,-33.69140625,-37.109375,-22.4609375,0.0
1676923265.3315399,-67.87109375,-34.1796875,-38.57421875,-44.921875,0.0
1676923265.3352633,-46.38671875,-29.78515625,-39.0625,-40.0390625,0.0
1676923265.3402612,-36.62109375,-20.5078125,-34.66796875,-15.625,0.0
1676923265.3452592,-49.8046875,-18.5546875,-35.64453125,-20.99609375,0.0
1676923265.3502572,-60.546875,-19.04296875,-35.64453125,-68.359375,0.0
1676923265.3552551,-58.10546875,-20.01953125,-34.1796875,-93.75,0.0
1676923265.360253,-52.734375,-14.6484375,-32.71484375,-62.98828125,0.0
1676923265.365251,-68.359375,-14.6484375,-29.296875,-64.94140625,0.0
1676923265.3702488,-95.21484375,-20.99609375,-26.85546875,-92.28515625,0.0
1676923265.3752468,-104.00390625,-21.97265625,-24.90234375,-95.21484375,0.0
1676923265.3802447,-89.84375,-20.99609375,-26.3671875,-91.30859375,0.0
1676923265.3852427,-93.26171875,-19.53125,-24.4140625,-96.19140625,0.0
1676923265.3902407,-112.79296875,-22.4609375,-20.99609375,-105.46875,0.0
1676923265.3952386,-119.140625,-21.484375,-25.87890625,-118.1640625,0.0
1676923265.3977387,-102.05078125,-11.71875,-30.2734375,-109.86328125,0.0
1676923265.4002388,-89.35546875,-13.671875,-26.85546875,-78.125,0.0
1676923265.402739,-104.4921875,-25.390625,-24.4140625,-87.40234375,0.0
1676923265.405239,-126.46484375,-27.34375,-29.296875,-104.00390625,0.0
1676923265.4077392,-107.421875,-21.97265625,-32.2265625,-93.26171875,0.0
1676923265.4102392,-79.1015625,-23.4375,-38.57421875,-75.1953125,0.0
1676923265.4127393,-82.03125,-27.34375,-37.109375,-50.29296875,0.0
1676923265.4152393,-92.7734375,-27.34375,-31.73828125,-69.82421875,0.0
1676923265.4177394,-66.89453125,-21.97265625,-32.2265625,-71.2890625,0.0
1676923265.4202397,-42.96875,-18.5546875,-31.73828125,-33.69140625,0.0
1676923265.4227397,-44.921875,-20.5078125,-30.76171875,-5.37109375,0.0
1676923265.4252398,-36.62109375,-17.08984375,-32.2265625,-9.765625,0.0
1676923265.428993,-20.99609375,-16.6015625,-31.25,-12.20703125,0.0
1676923265.4327462,-24.90234375,-23.4375,-26.85546875,18.06640625,0.0
1676923265.4364996,-18.5546875,-25.87890625,-26.3671875,32.71484375,0.0
1676923265.4402528,-21.484375,-22.4609375,-25.87890625,11.23046875,0.0
1676923265.444006,-33.203125,-24.90234375,-29.296875,-18.06640625,0.0
1676923265.4477592,-17.578125,-29.296875,-31.25,19.04296875,0.0
1676923265.4515123,5.859375,-32.2265625,-28.80859375,57.12890625,0.0
1676923265.4552655,7.32421875,-31.73828125,-33.69140625,21.97265625,0.0
1676923265.4590187,-5.37109375,-32.71484375,-36.62109375,-8.7890625,0.0
1676923265.4627721,-2.44140625,-35.64453125,-31.73828125,13.671875,0.0
1676923265.4665253,2.44140625,-30.76171875,-27.83203125,43.45703125,0.0
1676923265.4702785,2.9296875,-23.92578125,-28.80859375,48.828125,0.0
1676923265.475267,-4.39453125,-28.80859375,-29.78515625,37.59765625,0.0
1676923265.4802554,-4.39453125,-40.52734375,-33.203125,34.1796875,0.0
1676923265.4852438,8.30078125,-42.48046875,-34.66796875,39.55078125,0.0
1676923265.4902322,18.06640625,-38.0859375,-30.2734375,58.10546875,0.0
1676923265.4952207,9.765625,-32.2265625,-28.80859375,47.8515625,0.0
1676923265.500209,5.37109375,-25.87890625,-29.296875,44.43359375,0.0
1676923265.5051975,23.92578125,-25.87890625,-26.3671875,59.5703125,0.0
1676923265.510186,45.41015625,-30.76171875,-30.2734375,47.36328125,0.0
1676923265.5151744,33.69140625,-30.76171875,-27.83203125,44.921875,0.0
1676923265.5201628,15.13671875,-30.2734375,-33.69140625,50.29296875,0.0
1676923265.5251513,37.59765625,-26.3671875,-36.62109375,67.87109375,0.0
1676923265.5301397,45.41015625,-19.53125,-23.92578125,85.44921875,0.0
1676923265.5338962,44.921875,-20.5078125,-20.01953125,69.3359375,0.0
1676923265.5376527,42.48046875,-29.78515625,-30.2734375,30.76171875,0.0
1676923265.5414093,38.57421875,-30.76171875,-30.2734375,46.38671875,0.0
1676923265.5451658,58.59375,-25.87890625,-22.94921875,74.70703125,0.0
1676923265.5489223,55.6640625,-31.73828125,-25.87890625,82.03125,0.0
1676923265.5526788,20.01953125,-34.1796875,-26.3671875,51.26953125,0.0
1676923265.5564353,13.18359375,-32.71484375,-29.296875,17.578125,0.0
1676923265.5601919,29.296875,-29.296875,-32.71484375,58.10546875,0.0
1676923265.5639484,33.203125,-27.34375,-29.296875,75.1953125,0.0
1676923265.567705,26.85546875,-34.1796875,-35.15625,26.85546875,0.0
1676923265.5714614,8.7890625,-37.109375,-39.55078125,10.25390625,0.0
1676923265.575218,11.23046875,-33.203125,-33.203125,41.9921875,0.0
1676923265.5789573,22.4609375,-35.15625,-37.109375,63.96484375,0.0
1676923265.5826964,-2.9296875,-32.2265625,-40.52734375,50.78125,0.0
1676923265.5864358,-17.578125,-23.92578125,-37.109375,31.25,0.0
1676923265.5901752,-8.30078125,-26.85546875,-36.1328125,21.97265625,0.0
1676923265.5939145,-1.46484375,-29.78515625,-34.66796875,12.6953125,0.0
1676923265.5976539,-14.16015625,-34.1796875,-34.1796875,14.16015625,0.0
1676923265.601393,-33.69140625,-30.76171875,-34.1796875,-7.8125,0.0
1676923265.6051323,-20.5078125,-21.97265625,-35.15625,-9.27734375,0.0
1676923265.6088717,-1.953125,-26.85546875,-32.2265625,35.64453125,0.0
1676923265.6126108,-20.5078125,-30.76171875,-34.1796875,38.57421875,0.0
1676923265.6163502,-32.2265625,-30.2734375,-36.1328125,13.671875,0.0
1676923265.6200895,-17.578125,-27.34375,-30.76171875,25.87890625,0.0
1676923265.6238487,-9.765625,-28.3203125,-28.80859375,29.296875,0.0
1676923265.627608,-17.08984375,-32.71484375,-34.1796875,24.90234375,0.0
1676923265.6313672,-26.85546875,-31.25,-35.64453125,5.37109375,0.0
1676923265.6351264,-26.3671875,-28.80859375,-35.15625,-0.48828125,0.0
1676923265.6388857,-14.16015625,-27.83203125,-34.1796875,23.92578125,0.0
1676923265.642645,-16.11328125,-36.62109375,-38.57421875,21.484375,0.0
1676923265.646404,-21.484375,-38.57421875,-44.43359375,-2.9296875,0.0
1676923265.6501634,-17.08984375,-34.1796875,-37.109375,-18.5546875,0.0
1676923265.6539226,-16.11328125,-33.69140625,-32.71484375,-1.953125,0.0
1676923265.6576817,-13.671875,-33.203125,-34.1796875,7.8125,0.0
1676923265.661441,-15.13671875,-29.78515625,-31.73828125,6.8359375,0.0
1676923265.6652002,-31.25,-30.2734375,-27.34375,-1.953125,0.0
1676923265.6689558,-31.25,-29.78515625,-30.76171875,-14.16015625,0.0
1676923265.6727116,-14.16015625,-31.73828125,-34.1796875,-7.32421875,0.0
1676923265.6764672,-4.8828125,-33.69140625,-37.59765625,9.27734375,0.0
1676923265.680223,-20.99609375,-37.59765625,-40.52734375,3.41796875,0.0
1676923265.6839786,-31.73828125,-33.69140625,-38.57421875,-21.97265625,0.0
1676923265.6877341,-5.37109375,-27.34375,-32.71484375,-2.9296875,0.0
1676923265.69149,-0.48828125,-33.69140625,-32.2265625,5.37109375,0.0
1676923265.6952455,-23.4375,-38.0859375,-38.0859375,-22.94921875,0.0
1676923265.6990013,-30.2734375,-35.15625,-37.59765625,-35.64453125,0.0
1676923265.702757,-19.04296875,-31.73828125,-31.73828125,-18.5546875,0.0
1676923265.7065127,-12.20703125,-30.76171875,-33.203125,10.25390625,0.0
1676923265.7102683,-30.2734375,-31.25,-34.66796875,-11.23046875,0.0
1676923265.7141373,-53.7109375,-38.0859375,-34.66796875,-34.1796875,0.0
1676923265.7180066,-43.45703125,-33.203125,-37.109375,-13.18359375,0.0
1676923265.7218757,-21.484375,-26.3671875,-36.62109375,21.97265625,0.0
1676923265.7257447,-25.390625,-23.4375,-31.73828125,22.4609375,0.0
1676923265.7296138,-34.1796875,-21.97265625,-32.2265625,-14.16015625,0.0
1676923265.7334828,-17.578125,-22.94921875,-28.80859375,-21.97265625,0.0
1676923265.7373521,-4.39453125,-28.3203125,-31.25,20.01953125,0.0
1676923265.7412212,2.9296875,-27.34375,-34.1796875,46.875,0.0
1676923265.7450902,-7.8125,-27.34375,-33.203125,14.6484375,0.0
1676923265.7489595,-37.109375,-36.1328125,-30.76171875,-19.53125,0.0
1676923265.7528286,-22.4609375,-34.1796875,-23.4375,-5.859375,0.0
1676923265.7566977,-10.7421875,-36.62109375,-22.94921875,13.671875,0.0
1676923265.7603288,-33.203125,-41.9921875,-25.87890625,-3.90625,0.0
1676923265.7639596,-50.29296875,-37.109375,-27.83203125,-29.296875,0.0
1676923265.7675908,-29.296875,-32.2265625,-24.4140625,-11.23046875,0.0
1676923265.7712219,-9.27734375,-24.4140625,-23.4375,20.01953125,0.0
1676923265.7748528,-18.06640625,-17.578125,-27.83203125,17.578125,0.0
1676923265.7784839,-27.34375,-23.92578125,-27.83203125,-13.18359375,0.0
1676923265.782115,-22.94921875,-29.78515625,-30.76171875,-2.44140625,0.0
1676923265.7857459,-6.34765625,-33.69140625,-28.3203125,16.11328125,0.0
1676923265.789377,-0.48828125,-32.2265625,-21.484375,22.94921875,0.0
1676923265.793008,-9.27734375,-25.390625,-26.3671875,0.48828125,0.0
1676923265.796639,-5.859375,-21.484375,-30.76171875,-4.39453125,0.0
1676923265.80027,5.859375,-21.484375,-29.296875,23.92578125,0.0
1676923265.8040211,-0.48828125,-25.87890625,-27.34375,-7.8125,0.0
1676923265.8077724,-25.390625,-29.296875,-26.3671875,-24.4140625,0.0
1676923265.8115234,-42.48046875,-31.25,-29.296875,-25.390625,0.0
1676923265.8152745,-26.3671875,-32.71484375,-24.90234375,-16.11328125,0.0
1676923265.8190258,-19.53125,-34.1796875,-21.97265625,0.48828125,0.0
1676923265.8227768,-30.76171875,-34.66796875,-27.83203125,-3.90625,0.0
1676923265.8265278,-41.9921875,-36.1328125,-30.76171875,-3.90625,0.0
1676923265.830279,-41.50390625,-37.109375,-28.3203125,0.0,0.0
1676923265.8340302,-22.94921875,-29.78515625,-23.4375,4.8828125,0.0
1676923265.8377812,-7.8125,-21.484375,-22.4609375,13.671875,0.0
1676923265.8415325,-20.5078125,-25.390625,-24.4140625,7.32421875,0.0
1676923265.8452835,-33.203125,-30.2734375,-25.390625,1.46484375,0.0
1676923265.850274,-23.92578125,-29.78515625,-22.4609375,17.08984375,0.0
1676923265.8552647,-18.06640625,-28.3203125,-19.04296875,29.296875,0.0
1676923265.8602555,-28.80859375,-31.25,-16.6015625,1.46484375,0.0
1676923265.865246,-34.66796875,-35.64453125,-21.484375,-14.6484375,0.0
1676923265.8702366,-13.671875,-37.109375,-26.85546875,15.625,0.0
1676923265.8752275,-5.859375,-37.59765625,-27.83203125,23.92578125,0.0
1676923265.880218,-11.71875,-32.71484375,-27.83203125,2.44140625,0.0
1676923265.8852086,-13.671875,-30.2734375,-25.390625,-6.34765625,0.0
1676923265.8901992,-12.20703125,-33.69140625,-29.296875,11.71875,0.0
1676923265.8951898,-3.90625,-32.71484375,-30.76171875,48.33984375,0.0
1676923265.9001806,-12.20703125,-27.34375,-24.90234375,26.3671875,0.0
1676923265.9051712,-20.5078125,-27.83203125,-26.85546875,-15.13671875,0.0
1676923265.9089336,-15.13671875,-28.80859375,-33.69140625,-12.6953125,0.0
1676923265.912696,-14.6484375,-25.390625,-34.66796875,4.8828125,0.0
1676923265.9164584,-3.41796875,-26.85546875,-34.66796875,-6.34765625,0.0
1676923265.9202209,-11.71875,-23.92578125,-31.25,-25.390625,0.0
1676923265.923983,-30.2734375,-23.92578125,-28.3203125,-14.16015625,0.0
1676923265.9277456,-23.4375,-30.76171875,-35.15625,11.71875,0.0
1676923265.931508,-16.11328125,-27.34375,-38.57421875,4.8828125,0.0
1676923265.9352703,-15.13671875,-24.4140625,-34.1796875,-31.73828125,0.0
1676923265.9390328,-20.99609375,-21.484375,-31.25,-10.25390625,0.0
1676923265.9427953,-19.53125,-16.6015625,-29.296875,10.7421875,0.0
1676923265.9465575,-11.23046875,-18.5546875,-28.80859375,1.46484375,0.0
1676923265.95032,-23.92578125,-21.97265625,-35.15625,-28.80859375,0.0
1676923265.9540598,-36.1328125,-28.3203125,-41.015625,-40.0390625,0.0
1676923265.9578,-23.92578125,-25.87890625,-38.0859375,-19.04296875,0.0
1676923265.9615397,0.48828125,-24.4140625,-35.64453125,0.0,0.0
1676923265.9652796,5.859375,-23.4375,-30.76171875,2.44140625,0.0
1676923265.9690194,-20.5078125,-19.53125,-28.80859375,-19.04296875,0.0
1676923265.9727592,-29.296875,-28.80859375,-32.2265625,-13.671875,0.0
1676923265.9764993,-25.390625,-33.203125,-33.203125,4.8828125,0.0
1676923265.9802392,-34.66796875,-30.2734375,-30.76171875,0.0,0.0
1676923265.983979,-38.57421875,-29.78515625,-26.85546875,-4.8828125,0.0
1676923265.987719,-25.87890625,-26.85546875,-28.80859375,16.6015625,0.0
1676923265.991459,-26.85546875,-23.92578125,-32.71484375,32.71484375,0.0
1676923265.9951987,-19.53125,-14.6484375,-28.80859375,26.3671875,0.0
1676923265.9989579,-27.83203125,-21.97265625,-27.83203125,4.8828125,0.0
1676923266.0027168,-43.45703125,-32.2265625,-31.25,3.41796875,0.0
1676923266.006476,-16.6015625,-30.2734375,-29.78515625,6.34765625,0.0
1676923266.0102348,-5.37109375,-32.2265625,-30.2734375,15.625,0.0
1676923266.013994,-18.06640625,-32.2265625,-34.66796875,10.7421875,0.0
1676923266.0177531,-39.0625,-26.85546875,-33.69140625,-16.11328125,0.0
1676923266.021512,-21.97265625,-21.97265625,-31.25,-11.71875,0.0
1676923266.0252712,-16.11328125,-21.484375,-31.25,2.44140625,0.0
1676923266.02903,-27.34375,-27.83203125,-30.2734375,12.20703125,0.0
1676923266.0327892,-32.71484375,-27.34375,-24.4140625,-4.8828125,0.0
1676923266.0365481,-32.2265625,-20.99609375,-20.5078125,0.9765625,0.0
1676923266.0403073,-25.390625,-25.390625,-22.4609375,21.97265625,0.0
1676923266.0452967,-26.3671875,-23.4375,-24.90234375,10.25390625,0.0
1676923266.0502858,-31.25,-20.99609375,-29.296875,-17.08984375,0.0
1676923266.0552752,-36.62109375,-21.97265625,-29.296875,-24.4140625,0.0
1676923266.0602646,-26.3671875,-22.94921875,-29.78515625,5.859375,0.0
1676923266.065254,-17.08984375,-28.3203125,-30.76171875,-6.34765625,0.0
1676923266.0702434,-18.5546875,-28.3203125,-30.2734375,-24.4140625,0.0
1676923266.0752325,-43.9453125,-25.87890625,-33.69140625,-30.76171875,0.0
1676923266.080222,-35.15625,-28.80859375,-36.1328125,3.90625,0.0
1676923266.0852113,-25.390625,-26.3671875,-34.1796875,22.94921875,0.0
1676923266.0902004,-35.15625,-22.94921875,-35.15625,-20.01953125,0.0
1676923266.0951898,-46.875,-26.85546875,-34.66796875,-40.0390625,0.0
1676923266.1001792,-49.8046875,-28.80859375,-34.66796875,-21.484375,0.0
1676923266.1026833,-28.3203125,-26.85546875,-30.2734375,1.953125,0.0
1676923266.1051877,-30.2734375,-19.53125,-27.34375,-0.9765625,0.0
1676923266.1076918,-39.55078125,-20.99609375,-29.296875,-18.06640625,0.0
1676923266.110196,-32.71484375,-25.87890625,-29.78515625,-4.8828125,0.0
1676923266.1127002,-12.20703125,-22.4609375,-28.80859375,15.625,0.0
1676923266.1152043,-9.765625,-18.5546875,-24.4140625,21.97265625,0.0
1676923266.1177087,-36.1328125,-15.13671875,-22.94921875,1.953125,0.0
1676923266.1202128,-45.8984375,-20.5078125,-24.90234375,-13.671875,0.0
1676923266.1227171,-42.48046875,-30.2734375,-29.78515625,4.8828125,0.0
1676923266.1252213,-34.66796875,-29.78515625,-27.34375,8.30078125,0.0
1676923266.1277256,-38.0859375,-27.83203125,-25.390625,0.0,0.0
1676923266.1302297,-44.43359375,-28.3203125,-23.92578125,-7.32421875,0.0
1676923266.1339684,-31.73828125,-28.3203125,-25.87890625,-10.25390625,0.0
1676923266.1377072,-20.01953125,-27.83203125,-30.2734375,8.30078125,0.0
1676923266.1414459,-31.25,-30.2734375,-35.15625,7.32421875,0.0
1676923266.1451848,-49.31640625,-28.3203125,-35.15625,-14.16015625,0.0
1676923266.1489234,-39.0625,-28.80859375,-31.25,-20.01953125,0.0
1676923266.1526623,-19.04296875,-32.71484375,-30.76171875,8.30078125,0.0
1676923266.156401,-16.6015625,-32.71484375,-27.83203125,23.4375,0.0
1676923266.1601396,-20.99609375,-27.83203125,-32.2265625,-10.25390625,0.0
1676923266.1638784,-22.4609375,-29.296875,-39.0625,-1.46484375,0.0
1676923266.167617,-14.16015625,-36.62109375,-38.57421875,20.01953125,0.0
1676923266.171356,-13.671875,-40.0390625,-37.109375,-10.7421875,0.0
1676923266.1750946,-27.83203125,-37.109375,-38.0859375,-20.5078125,0.0
1676923266.1789598,-20.01953125,-28.80859375,-34.66796875,-7.32421875,0.0
1676923266.182825,-9.27734375,-23.4375,-30.2734375,15.625,0.0
1676923266.1866903,-20.5078125,-24.4140625,-27.83203125,32.71484375,0.0
1676923266.1905558,-29.78515625,-25.390625,-24.4140625,5.859375,0.0
1676923266.194421,-39.0625,-25.390625,-25.390625,-23.4375,0.0
1676923266.1982863,-24.4140625,-24.4140625,-23.4375,4.39453125,0.0
1676923266.2021515,1.953125,-24.4140625,-25.87890625,21.484375,0.0
1676923266.2060168,-8.7890625,-25.87890625,-29.296875,-12.20703125,0.0
1676923266.2098823,-35.64453125,-29.296875,-26.3671875,-42.96875,0.0
1676923266.2137475,-39.55078125,-35.15625,-28.80859375,-15.13671875,0.0
1676923266.2176127,-30.76171875,-36.62109375,-32.2265625,18.06640625,0.0
1676923266.221478,-21.484375,-31.25,-34.1796875,5.859375,0.0
1676923266.226377,-26.85546875,-27.83203125,-32.71484375,-15.625,0.0
1676923266.231276,-27.83203125,-26.85546875,-34.66796875,-14.16015625,0.0
1676923266.236175,-6.34765625,-24.90234375,-35.64453125,11.23046875,0.0
1676923266.241074,-2.44140625,-27.34375,-33.69140625,39.0625,0.0
1676923266.245973,-10.25390625,-28.3203125,-30.76171875,14.16015625,0.0
1676923266.2508721,2.44140625,-27.83203125,-28.80859375,-11.23046875,0.0
1676923266.2557714,17.578125,-29.296875,-27.83203125,10.7421875,0.0
1676923266.2606704,-0.9765625,-25.390625,-28.80859375,15.625,0.0
1676923266.2655694,-17.08984375,-29.78515625,-30.2734375,-7.8125,0.0
1676923266.2704685,-15.625,-33.203125,-30.2734375,-27.34375,0.0
1676923266.2753675,-11.23046875,-29.78515625,-38.57421875,-4.39453125,0.0
1676923266.2802665,4.8828125,-29.78515625,-37.59765625,25.390625,0.0
1676923266.2840104,-12.6953125,-26.85546875,-28.3203125,0.48828125,0.0
1676923266.2877545,-38.57421875,-24.4140625,-28.80859375,-27.83203125,0.0
1676923266.2914984,-31.73828125,-22.94921875,-31.73828125,-9.27734375,0.0
1676923266.2952423,-18.06640625,-24.90234375,-34.1796875,7.32421875,0.0
1676923266.2989862,-5.37109375,-23.4375,-38.0859375,9.27734375,0.0
1676923266.30273,-5.859375,-26.3671875,-36.1328125,1.46484375,0.0
1676923266.3064742,-21.97265625,-26.85546875,-33.69140625,-14.16015625,0.0
1676923266.310218,-22.94921875,-24.90234375,-31.25,0.48828125,0.0
1676923266.313962,-8.7890625,-21.97265625,-34.1796875,29.296875,0.0
1676923266.317706,-23.92578125,-23.92578125,-34.1796875,14.16015625,0.0
1676923266.32145,-39.0625,-25.87890625,-33.203125,-13.18359375,0.0
1676923266.325194,-29.78515625,-25.390625,-34.1796875,-11.23046875,0.0
1676923266.3289433,-30.2734375,-26.3671875,-33.69140625,-8.30078125,0.0
1676923266.3326926,-38.0859375,-24.4140625,-33.203125,-4.8828125,0.0
1676923266.336442,-42.48046875,-22.94921875,-36.1328125,-18.5546875,0.0
1676923266.3401916,-25.87890625,-25.390625,-36.1328125,-17.08984375,0.0
1676923266.343941,-11.23046875,-27.34375,-34.1796875,17.08984375,0.0
1676923266.3476903,-17.578125,-29.296875,-36.62109375,5.37109375,0.0
1676923266.3514397,-27.34375,-31.25,-34.66796875,-25.390625,0.0
1676923266.355189,-20.99609375,-31.25,-30.2734375,-22.4609375,0.0
1676923266.3589387,-5.859375,-26.3671875,-30.76171875,9.27734375,0.0
1676923266.362688,-14.16015625,-25.390625,-30.76171875,27.34375,0.0
1676923266.3664374,-26.85546875,-33.69140625,-35.15625,-11.23046875,0.0
1676923266.3701868,-27.34375,-33.203125,-36.1328125,-20.99609375,0.0
1676923266.373944,-18.5546875,-27.83203125,-31.25,19.04296875,0.0
1676923266.3777013,-10.25390625,-26.3671875,-33.69140625,11.71875,0.0
1676923266.3814583,-26.3671875,-24.90234375,-34.66796875,-9.27734375,0.0
1676923266.3852155,-34.66796875,-21.484375,-32.2265625,-27.83203125,0.0
1676923266.3889728,-18.06640625,-15.13671875,-33.69140625,-36.62109375,0.0
1676923266.39273,-6.34765625,-15.13671875,-28.3203125,-11.71875,0.0
1676923266.3964872,-20.01953125,-20.01953125,-30.2734375,-8.7890625,0.0
1676923266.4002445,-31.25,-21.484375,-39.55078125,-26.85546875,0.0
1676923266.4040017,-27.83203125,-23.92578125,-34.1796875,-23.92578125,0.0
1676923266.4077587,-20.01953125,-25.87890625,-32.2265625,-13.671875,0.0
1676923266.411516,-15.625,-25.87890625,-36.62109375,-11.23046875,0.0
1676923266.4152732,-32.2265625,-27.34375,-39.0625,-23.4375,0.0
1676923266.4191191,-31.73828125,-26.3671875,-35.64453125,-22.94921875,0.0
1676923266.4229653,-22.94921875,-24.4140625,-28.80859375,-2.9296875,0.0
1676923266.4268112,-29.296875,-25.87890625,-29.296875,1.953125,0.0
1676923266.4306574,-29.296875,-26.85546875,-33.203125,0.0,0.0
1676923266.4345033,-28.80859375,-29.78515625,-36.1328125,-19.53125,0.0
1676923266.4383492,-14.6484375,-28.80859375,-35.64453125,-2.9296875,0.0
1676923266.4421954,0.9765625,-24.4140625,-26.85546875,19.04296875,0.0
1676923266.4460413,-9.765625,-26.3671875,-21.97265625,12.20703125,0.0
1676923266.4498875,-26.85546875,-27.34375,-23.4375,-5.37109375,0.0
1676923266.4537334,-10.25390625,-25.87890625,-22.94921875,-8.30078125,0.0
1676923266.4575796,7.32421875,-24.90234375,-21.97265625,24.4140625,0.0
1676923266.4614255,-2.44140625,-29.296875,-24.4140625,21.484375,0.0
1676923266.4650795,-25.390625,-34.1796875,-27.83203125,-10.7421875,0.0
1676923266.4687333,-22.94921875,-30.76171875,-27.34375,5.37109375,0.0
1676923266.4723873,-5.859375,-31.25,-30.2734375,29.296875,0.0
1676923266.4760413,-6.8359375,-31.25,-31.73828125,4.8828125,0.0
1676923266.4796953,-7.32421875,-34.66796875,-26.3671875,-2.9296875,0.0
1676923266.4833493,-18.06640625,-32.2265625,-26.3671875,7.32421875,0.0
1676923266.487003,-26.85546875,-25.87890625,-35.15625,-11.23046875,0.0
1676923266.490657,-28.80859375,-23.4375,-36.62109375,-7.32421875,0.0
1676923266.494311,-43.9453125,-17.578125,-35.64453125,-36.62109375,0.0
1676923266.4979649,-52.24609375,-20.01953125,-42.96875,-40.52734375,0.0
1676923266.5016189,-30.76171875,-20.5078125,-46.875,-19.53125,0.0
1676923266.5052729,-19.53125,-16.11328125,-50.29296875,-21.97265625,0.0
1676923266.5090227,-24.90234375,-10.7421875,-48.33984375,-24.90234375,0.0
1676923266.5127728,-29.78515625,-11.71875,-40.0390625,-41.50390625,0.0
1676923266.516523,-23.92578125,-16.11328125,-39.55078125,-33.69140625,0.0
1676923266.5202727,-14.6484375,-20.99609375,-43.45703125,-14.16015625,0.0
1676923266.5240226,-7.32421875,-26.3671875,-42.48046875,-24.4140625,0.0
1676923266.5277727,-20.5078125,-28.3203125,-42.96875,-35.15625,0.0
1676923266.5315228,-28.3203125,-27.83203125,-44.921875,-20.01953125,0.0
1676923266.5352726,-3.90625,-24.4140625,-39.0625,16.11328125,0.0
1676923266.5390224,-0.48828125,-20.01953125,-36.62109375,9.27734375,0.0
1676923266.5427725,-22.94921875,-20.5078125,-41.015625,-6.34765625,0.0
1676923266.5465226,-25.87890625,-27.34375,-40.0390625,-1.46484375,0.0
1676923266.5502725,-1.46484375,-26.3671875,-38.0859375,-3.90625,0.0
1676923266.554024,-3.90625,-17.578125,-36.62109375,-5.859375,0.0
1676923266.5577753,-29.78515625,-20.99609375,-34.1796875,-10.25390625,0.0
1676923266.5615268,-30.2734375,-22.94921875,-35.64453125,-28.80859375,0.0
1676923266.5652783,-11.23046875,-25.87890625,-39.55078125,-22.94921875,0.0
1676923266.5690296,2.44140625,-27.34375,-41.015625,-10.25390625,0.0
1676923266.572781,-3.90625,-28.80859375,-40.0390625,-6.8359375,0.0
1676923266.5765326,-11.71875,-36.62109375,-43.9453125,-9.27734375,0.0
1676923266.5802839,-18.5546875,-34.66796875,-43.9453125,-5.859375,0.0
1676923266.5840354,-15.13671875,-27.34375,-37.109375,-1.953125,0.0
1676923266.587787,-13.671875,-26.3671875,-35.15625,-10.7421875,0.0
1676923266.5915382,-35.64453125,-23.4375,-32.71484375,-19.53125,0.0
1676923266.5952897,-32.2265625,-24.4140625,-32.2265625,-29.78515625,0.0
1676923266.600289,-16.6015625,-30.2734375,-35.15625,-5.37109375,0.0
1676923266.6052885,-16.11328125,-35.15625,-30.2734375,14.16015625,0.0
1676923266.6102881,-32.71484375,-39.55078125,-27.83203125,-10.25390625,0.0
1676923266.6152875,-37.59765625,-37.59765625,-34.1796875,-37.109375,0.0
1676923266.620287,-20.5078125,-36.1328125,-34.1796875,-22.94921875,0.0
1676923266.6252866,-26.3671875,-33.69140625,-32.2265625,-4.8828125,0.0
1676923266.630286,-40.0390625,-32.2265625,-34.1796875,-4.39453125,0.0
1676923266.6352854,-37.109375,-30.2734375,-30.2734375,-26.85546875,0.0
1676923266.6402848,-23.4375,-32.71484375,-27.83203125,-22.4609375,0.0
1676923266.6452842,-23.92578125,-36.1328125,-33.69140625,2.9296875,0.0
1676923266.6502838,-21.484375,-37.59765625,-30.2734375,-18.5546875,0.0
1676923266.6552832,-20.01953125,-37.109375,-24.90234375,-37.59765625,0.0
1676923266.6590326,-15.13671875,-32.2265625,-26.3671875,-20.99609375,0.0
1676923266.6627817,-5.37109375,-33.69140625,-25.390625,4.8828125,0.0
1676923266.666531,-15.13671875,-35.64453125,-23.4375,-0.9765625,0.0
1676923266.6702805,-21.484375,-29.78515625,-21.97265625,-17.08984375,0.0
1676923266.6740296,-26.85546875,-30.2734375,-22.4609375,-3.90625,0.0
1676923266.677779,-26.85546875,-31.25,-26.3671875,7.8125,0.0
1676923266.6815283,-20.99609375,-30.76171875,-32.2265625,-1.46484375,0.0
1676923266.6852775,-20.01953125,-34.1796875,-30.76171875,-14.6484375,0.0
1676923266.6890268,-22.94921875,-33.69140625,-30.76171875,-8.7890625,0.0
1676923266.6927762,-12.20703125,-31.25,-31.25,17.578125,0.0
1676923266.6965253,-7.32421875,-27.83203125,-30.76171875,20.5078125,0.0
1676923266.7002747,-17.08984375,-26.3671875,-37.109375,-6.8359375,0.0
1676923266.7040238,-13.18359375,-28.3203125,-36.62109375,-17.578125,0.0
1676923266.707773,-13.671875,-28.3203125,-29.78515625,-3.90625,0.0
1676923266.711522,-3.41796875,-26.85546875,-29.296875,5.37109375,0.0
1676923266.7152712,5.859375,-30.2734375,-33.69140625,-20.5078125,0.0
1676923266.7190204,-21.97265625,-33.203125,-33.203125,-36.62109375,0.0
1676923266.7227695,-26.3671875,-32.71484375,-32.71484375,-15.13671875,0.0
1676923266.7265186,-12.20703125,-33.69140625,-32.2265625,11.23046875,0.0
1676923266.7302678,-18.5546875,-31.73828125,-28.3203125,15.13671875,0.0
1676923266.734017,-18.06640625,-33.203125,-26.3671875,18.06640625,0.0
1676923266.737766,-22.94921875,-35.64453125,-30.2734375,-0.9765625,0.0
1676923266.7415152,-0.9765625,-33.69140625,-37.109375,9.27734375,0.0
1676923266.7452643,5.859375,-35.64453125,-32.71484375,25.87890625,0.0
1676923266.7490141,-19.04296875,-32.71484375,-23.4375,14.16015625,0.0
1676923266.752764,-21.484375,-28.3203125,-23.92578125,10.25390625,0.0
1676923266.7565136,-4.8828125,-31.25,-31.25,4.8828125,0.0
1676923266.7602634,-5.37109375,-35.64453125,-35.15625,10.7421875,0.0
1676923266.7640133,-25.390625,-39.0625,-39.55078125,3.41796875,0.0
1676923266.7677631,-28.3203125,-44.921875,-38.0859375,-2.44140625,0.0
1676923266.771513,-28.3203125,-50.78125,-34.66796875,7.8125,0.0
1676923266.7752628,-29.296875,-45.41015625,-41.9921875,13.18359375,0.0
1676923266.7790127,-24.90234375,-34.1796875,-45.8984375,5.859375,0.0
1676923266.7827623,-28.80859375,-29.78515625,-42.48046875,-19.04296875,0.0
1676923266.7865121,-34.66796875,-30.2734375,-40.52734375,-13.671875,0.0
1676923266.790262,-19.53125,-26.85546875,-40.0390625,14.16015625,0.0
1676923266.7940135,-6.8359375,-22.4609375,-37.59765625,3.90625,0.0
1676923266.797765,-17.578125,-23.92578125,-34.66796875,-19.04296875,0.0
1676923266.8015165,-18.5546875,-26.85546875,-34.66796875,-24.90234375,0.0
1676923266.805268,-5.859375,-28.80859375,-34.1796875,-18.06640625,0.0
1676923266.8090196,-9.765625,-25.87890625,-35.15625,-9.27734375,0.0
1676923266.812771,-29.78515625,-19.53125,-35.15625,-14.16015625,0.0
1676923266.8165226,-22.4609375,-21.97265625,-33.69140625,-17.08984375,0.0
1676923266.820274,2.44140625,-23.92578125,-29.296875,8.30078125,0.0
1676923266.8240256,0.48828125,-23.4375,-29.78515625,7.32421875,0.0
1676923266.8277771,-5.37109375,-23.92578125,-34.66796875,-9.765625,0.0
1676923266.8315287,-23.4375,-28.3203125,-33.203125,-20.5078125,0.0
1676923266.8352802,-33.69140625,-26.85546875,-33.69140625,3.41796875,0.0
1676923266.8390305,-20.01953125,-23.92578125,-36.1328125,5.859375,0.0
1676923266.8427808,-19.53125,-24.4140625,-33.203125,-11.23046875,0.0
1676923266.8465314,-24.90234375,-24.4140625,-32.71484375,-17.08984375,0.0
1676923266.8502817,-19.53125,-27.34375,-35.15625,-8.7890625,0.0
1676923266.854032,-7.8125,-30.76171875,-32.71484375,15.13671875,0.0
1676923266.8577824,-7.8125,-30.2734375,-34.1796875,16.6015625,0.0
1676923266.8615327,-20.5078125,-30.2734375,-42.48046875,-3.90625,0.0
1676923266.865283,-34.66796875,-29.78515625,-40.52734375,-11.23046875,0.0
1676923266.8690333,-30.2734375,-22.94921875,-34.1796875,2.9296875,0.0
1676923266.872784,-19.53125,-22.94921875,-32.71484375,-1.953125,0.0
1676923266.8765342,-14.6484375,-25.87890625,-32.2265625,-28.80859375,0.0
1676923266.8802845,-17.578125,-19.53125,-30.2734375,-28.80859375,0.0
1676923266.8841343,-18.06640625,-24.4140625,-24.90234375,4.39453125,0.0
1676923266.8879838,-6.8359375,-29.296875,-24.90234375,24.90234375,0.0
1676923266.8918335,-1.46484375,-22.94921875,-28.80859375,-1.46484375,0.0
1676923266.895683,-11.23046875,-20.99609375,-36.62109375,-15.625,0.0
1676923266.8995328,-16.11328125,-23.4375,-43.45703125,-5.37109375,0.0
1676923266.9033823,-13.671875,-23.92578125,-41.9921875,22.4609375,0.0
1676923266.907232,-7.8125,-26.85546875,-40.52734375,32.71484375,0.0
1676923266.9110818,-22.94921875,-29.296875,-38.0859375,-5.37109375,0.0
1676923266.9149313,-36.1328125,-31.73828125,-38.0859375,-22.4609375,0.0
1676923266.918781,-10.7421875,-34.66796875,-32.2265625,9.765625,0.0
1676923266.9226305,1.46484375,-32.71484375,-30.76171875,22.4609375,0.0
1676923266.9264803,-14.6484375,-31.25,-35.64453125,-3.41796875,0.0
1676923266.930133,-28.3203125,-29.78515625,-36.62109375,-18.06640625,0.0
1676923266.9337857,-26.85546875,-34.66796875,-40.52734375,-1.46484375,0.0
1676923266.9374385,-18.06640625,-38.0859375,-43.9453125,-2.9296875,0.0
1676923266.941091,-12.6953125,-37.59765625,-41.50390625,-17.578125,0.0
1676923266.9447439,-26.3671875,-37.109375,-37.59765625,-29.78515625,0.0
1676923266.9483967,-25.87890625,-34.1796875,-33.203125,-4.39453125,0.0
1676923266.9520493,-11.71875,-33.69140625,-31.73828125,29.296875,0.0
1676923266.955702,-18.5546875,-32.71484375,-34.66796875,22.4609375,0.0
1676923266.9593546,-26.85546875,-32.2265625,-33.69140625,-11.71875,0.0
1676923266.9630075,-17.578125,-35.15625,-32.2265625,-19.53125,0.0
1676923266.96666,-11.23046875,-34.1796875,-32.2265625,4.39453125,0.0
1676923266.9703128,-19.04296875,-27.83203125,-36.62109375,10.7421875,0.0
1676923266.9753091,-30.2734375,-22.94921875,-38.0859375,-18.5546875,0.0
1676923266.9803054,-33.69140625,-30.76171875,-34.66796875,-40.0390625,0.0
1676923266.9853015,-19.53125,-35.64453125,-36.1328125,-16.6015625,0.0
1676923266.9902978,-20.5078125,-34.1796875,-36.62109375,-0.9765625,0.0
1676923266.995294,-36.1328125,-34.66796875,-33.69140625,-12.20703125,0.0
1676923267.0002904,-29.296875,-33.203125,-32.71484375,-28.3203125,0.0
1676923267.0052867,-14.6484375,-29.296875,-30.2734375,-7.32421875,0.0
1676923267.010283,-21.97265625,-31.73828125,-32.71484375,-1.953125,0.0
1676923267.0152793,-21.97265625,-34.1796875,-37.59765625,-21.97265625,0.0
1676923267.0202754,-33.69140625,-27.83203125,-38.0859375,-2.9296875,0.0
1676923267.0252717,-42.48046875,-30.2734375,-38.0859375,16.11328125,0.0
1676923267.030268,-27.83203125,-29.78515625,-33.203125,11.71875,0.0
1676923267.0339868,-29.296875,-25.390625,-30.76171875,-8.30078125,0.0
1676923267.0377054,-42.96875,-26.85546875,-28.80859375,-33.69140625,0.0
1676923267.0414243,-45.41015625,-30.76171875,-25.390625,-36.1328125,0.0
1676923267.0451431,-36.62109375,-32.71484375,-26.3671875,-14.16015625,0.0
1676923267.0488617,-27.83203125,-35.64453125,-27.83203125,-7.8125,0.0
1676923267.0525806,-32.2265625,-33.69140625,-28.80859375,-16.11328125,0.0
1676923267.0562994,-39.55078125,-31.73828125,-33.69140625,-14.16015625,0.0
1676923267.060018,-23.4375,-33.69140625,-32.71484375,-6.34765625,0.0
1676923267.063737,-7.32421875,-29.78515625,-28.3203125,11.23046875,0.0
1676923267.0674558,-23.4375,-28.80859375,-30.2734375,1.953125,0.0
1676923267.0711744,-38.0859375,-30.76171875,-31.73828125,-13.671875,0.0
1676923267.0748932,-23.92578125,-32.71484375,-30.76171875,9.27734375,0.0
1676923267.078644,-4.8828125,-35.64453125,-32.71484375,20.01953125,0.0
1676923267.0823946,-5.859375,-33.203125,-33.203125,1.953125,0.0
1676923267.0861454,-32.71484375,-26.3671875,-32.2265625,-34.1796875,0.0
1676923267.0898962,-32.2265625,-25.87890625,-33.69140625,-30.76171875,0.0
1676923267.0936468,-20.01953125,-24.90234375,-32.71484375,7.32421875,0.0
1676923267.0973976,-43.45703125,-28.3203125,-29.296875,15.13671875,0.0
1676923267.1011484,-50.29296875,-27.34375,-29.78515625,-19.04296875,0.0
1676923267.104899,-26.85546875,-19.04296875,-27.34375,-20.5078125,0.0
1676923267.1086497,-24.90234375,-19.53125,-26.85546875,3.41796875,0.0
1676923267.1124005,-24.4140625,-23.4375,-28.3203125,4.39453125,0.0
1676923267.116151,-18.5546875,-24.90234375,-31.25,-3.90625,0.0
1676923267.119902,-27.34375,-24.90234375,-35.64453125,-22.94921875,0.0
1676923267.123784,-23.92578125,-21.484375,-31.73828125,-4.39453125,0.0
1676923267.127666,-10.7421875,-18.06640625,-30.2734375,3.90625,0.0
1676923267.1315482,-13.671875,-18.06640625,-30.2734375,-23.4375,0.0
1676923267.1354303,-27.34375,-22.4609375,-30.76171875,-32.2265625,0.0
1676923267.1393125,-36.62109375,-27.83203125,-38.57421875,-13.671875,0.0
1676923267.1431947,-31.73828125,-28.3203125,-40.0390625,6.34765625,0.0
1676923267.1470766,-31.25,-26.85546875,-39.55078125,-20.5078125,0.0
1676923267.1509588,-47.36328125,-27.83203125,-41.015625,-40.0390625,0.0
1676923267.154841,-44.921875,-33.203125,-39.55078125,-28.3203125,0.0
1676923267.1587229,-33.203125,-25.87890625,-40.0390625,3.41796875,0.0
1676923267.162605,-24.4140625,-20.5078125,-41.9921875,13.671875,0.0
1676923267.1664872,-18.06640625,-23.4375,-35.64453125,-19.04296875,0.0
1676923267.171361,-35.64453125,-21.97265625,-30.76171875,-19.53125,0.0
1676923267.176235,-21.484375,-21.97265625,-26.3671875,0.9765625,0.0
1676923267.181109,-8.30078125,-24.4140625,-28.3203125,-4.8828125,0.0
1676923267.1859827,-40.52734375,-22.94921875,-29.78515625,-35.15625,0.0
1676923267.1908565,-44.43359375,-19.04296875,-22.94921875,-39.0625,0.0
1676923267.1957304,-20.5078125,-18.06640625,-27.34375,1.953125,0.0
1676923267.2006044,-10.7421875,-20.01953125,-32.2265625,14.16015625,0.0
1676923267.2054782,-24.90234375,-19.53125,-31.73828125,5.37109375,0.0
1676923267.210352,-28.3203125,-17.578125,-32.2265625,6.8359375,0.0
1676923267.215226,-22.94921875,-20.99609375,-28.80859375,-0.48828125,0.0
1676923267.2201,-22.4609375,-23.4375,-25.87890625,28.80859375,0.0
1676923267.2249737,-23.4375,-22.4609375,-27.34375,20.5078125,0.0
1676923267.2275062,-31.73828125,-24.4140625,-28.80859375,-28.80859375,0.0
1676923267.2300384,-25.390625,-28.80859375,-31.25,-21.484375,0.0
1676923267.232571,-18.5546875,-28.80859375,-30.76171875,-1.953125,0.0
1676923267.2351034,-25.390625,-26.85546875,-27.34375,-6.8359375,0.0
1676923267.2376356,-38.0859375,-28.80859375,-30.76171875,-29.296875,0.0
1676923267.240168,-45.41015625,-35.64453125,-34.66796875,-21.484375,0.0
1676923267.2427006,-35.64453125,-35.64453125,-33.69140625,4.8828125,0.0
1676923267.2452328,-31.73828125,-27.83203125,-30.2734375,10.25390625,0.0
1676923267.2477653,-37.59765625,-21.97265625,-28.3203125,0.0,0.0
1676923267.2502978,-46.38671875,-25.87890625,-27.34375,-18.06640625,0.0
1676923267.25283,-33.203125,-30.2734375,-21.484375,-3.90625,0.0
1676923267.2553625,-20.01953125,-28.3203125,-23.92578125,15.625,0.0
1676923267.2591047,-33.69140625,-23.92578125,-26.3671875,-4.8828125,0.0
1676923267.2628467,-36.1328125,-23.4375,-20.01953125,-32.71484375,0.0
1676923267.2665887,-24.4140625,-28.3203125,-23.4375,-26.3671875,0.0
1676923267.270331,-19.04296875,-33.69140625,-33.203125,-4.39453125,0.0
1676923267.2740731,-25.390625,-30.76171875,-32.71484375,-1.953125,0.0
1676923267.277815,-36.62109375,-29.296875,-28.80859375,-26.85546875,0.0
1676923267.281557,-39.0625,-31.73828125,-29.296875,-30.2734375,0.0
1676923267.2852993,-31.25,-32.2265625,-27.83203125,-2.44140625,0.0
1676923267.2890415,-27.34375,-29.296875,-30.2734375,4.8828125,0.0
1676923267.2927835,-31.73828125,-30.76171875,-37.59765625,-14.6484375,0.0
1676923267.2965255,-42.48046875,-37.59765625,-41.9921875,-13.18359375,0.0
1676923267.3002677,-40.0390625,-38.57421875,-41.015625,-1.953125,0.0
1676923267.3040192,-25.390625,-34.1796875,-36.62109375,-0.9765625,0.0
1676923267.3077707,-27.34375,-31.25,-33.203125,-18.5546875,0.0
1676923267.3115222,-44.43359375,-30.76171875,-29.296875,-25.390625,0.0
1676923267.3152738,-27.83203125,-36.1328125,-32.2265625,4.8828125,0.0
1676923267.3190253,-14.6484375,-36.1328125,-37.109375,8.30078125,0.0
1676923267.3227768,-18.5546875,-30.76171875,-36.62109375,-2.9296875,0.0
1676923267.326528,-19.04296875,-28.3203125,-36.1328125,-14.16015625,0.0
1676923267.3302796,-29.78515625,-30.76171875,-35.64453125,-15.625,0.0
1676923267.334031,-28.80859375,-38.0859375,-36.1328125,0.0,0.0
1676923267.3377826,-25.87890625,-38.57421875,-34.66796875,4.8828125,0.0
1676923267.3415341,-41.50390625,-36.62109375,-32.71484375,-10.25390625,0.0
1676923267.3452857,-42.48046875,-37.59765625,-32.71484375,-25.87890625,0.0
1676923267.3491406,-25.87890625,-35.64453125,-28.80859375,0.0,0.0
1676923267.3529954,-19.53125,-36.62109375,-32.2265625,4.8828125,0.0
1676923267.3568501,-43.45703125,-37.59765625,-38.0859375,-33.69140625,0.0
1676923267.3607051,-59.5703125,-31.73828125,-36.62109375,-48.33984375,0.0
1676923267.3645601,-29.296875,-26.85546875,-33.203125,-12.6953125,0.0
1676923267.3684149,-19.53125,-27.34375,-32.71484375,13.18359375,0.0
1676923267.3722696,-31.73828125,-33.203125,-31.73828125,-11.71875,0.0
1676923267.3761246,-41.50390625,-30.76171875,-26.85546875,-32.71484375,0.0
1676923267.3799796,-30.2734375,-22.4609375,-22.4609375,-6.34765625,0.0
1676923267.3838344,-15.13671875,-25.390625,-26.3671875,16.11328125,0.0
1676923267.387689,-24.4140625,-31.73828125,-33.69140625,-0.48828125,0.0
1676923267.391544,-28.3203125,-32.71484375,-35.64453125,-28.3203125,0.0
1676923267.3964384,-30.2734375,-34.66796875,-35.64453125,-7.32421875,0.0
1676923267.4013329,-18.5546875,-33.69140625,-35.64453125,29.78515625,0.0
1676923267.406227,-14.16015625,-31.73828125,-30.76171875,13.18359375,0.0
1676923267.4111214,-36.62109375,-34.1796875,-23.92578125,-22.94921875,0.0
1676923267.4160156,-44.921875,-33.203125,-28.3203125,-25.390625,0.0
1676923267.42091,-29.78515625,-30.76171875,-29.78515625,3.41796875,0.0
1676923267.4258044,-11.71875,-32.2265625,-27.34375,-8.30078125,0.0
1676923267.4306986,-23.92578125,-31.73828125,-24.90234375,-29.296875,0.0
1676923267.435593,-35.64453125,-32.2265625,-27.34375,-28.3203125,0.0
1676923267.4404874,-22.4609375,-35.64453125,-27.34375,-6.34765625,0.0
1676923267.4453816,-14.6484375,-33.69140625,-23.92578125,0.9765625,0.0
1676923267.450276,-21.484375,-33.203125,-27.83203125,-4.8828125,0.0
1676923267.4540262,-24.90234375,-31.25,-25.390625,-14.6484375,0.0
1676923267.4577765,-29.296875,-34.66796875,-29.78515625,-14.16015625,0.0
1676923267.461527,-22.94921875,-38.57421875,-36.1328125,9.27734375,0.0
1676923267.4652774,-33.203125,-33.203125,-34.1796875,-8.30078125,0.0
1676923267.4690278,-49.8046875,-31.25,-32.71484375,-35.15625,0.0
1676923267.4727783,-35.64453125,-30.2734375,-28.80859375,-23.4375,0.0
1676923267.4765286,-9.27734375,-26.85546875,-24.90234375,0.48828125,0.0
1676923267.480279,-1.46484375,-31.73828125,-29.78515625,-2.44140625,0.0
1676923267.4840293,-27.83203125,-35.64453125,-39.0625,-25.390625,0.0
1676923267.4877796,-44.921875,-31.25,-38.57421875,-14.6484375,0.0
1676923267.4915302,-21.97265625,-30.2734375,-32.2265625,1.46484375,0.0
1676923267.4952805,-9.27734375,-30.2734375,-27.83203125,7.32421875,0.0
1676923267.50028,-15.13671875,-30.2734375,-21.484375,1.46484375,0.0
1676923267.5052795,-27.83203125,-35.64453125,-25.390625,-29.78515625,0.0
1676923267.510279,-27.34375,-35.15625,-31.73828125,-26.3671875,0.0
1676923267.5152786,-12.20703125,-26.85546875,-33.69140625,15.13671875,0.0
1676923267.520278,-9.27734375,-25.87890625,-31.25,5.859375,0.0
1676923267.5252776,-28.80859375,-26.85546875,-27.83203125,-16.6015625,0.0
1676923267.530277,-41.50390625,-30.76171875,-29.296875,-16.6015625,0.0
1676923267.5352764,-34.1796875,-31.73828125,-30.2734375,-8.7890625,0.0
1676923267.540276,-32.2265625,-31.25,-32.71484375,-1.953125,0.0
1676923267.5452754,-36.1328125,-35.15625,-29.296875,-28.3203125,0.0
1676923267.550275,-31.73828125,-34.66796875,-31.73828125,-30.76171875,0.0
1676923267.5552745,-24.90234375,-28.80859375,-35.64453125,-14.6484375,0.0
1676923267.5590453,-31.25,-23.92578125,-38.0859375,-3.41796875,0.0
1676923267.5628161,-44.43359375,-26.3671875,-39.55078125,-9.765625,0.0
1676923267.566587,-37.59765625,-23.92578125,-32.2265625,-9.765625,0.0
1676923267.570358,-17.578125,-20.99609375,-33.69140625,1.953125,0.0
1676923267.5741289,-26.3671875,-21.97265625,-38.0859375,-9.27734375,0.0
1676923267.5778997,-46.38671875,-21.484375,-36.1328125,-13.671875,0.0
1676923267.5816705,-52.734375,-20.01953125,-31.25,-21.484375,0.0
1676923267.5854414,-33.203125,-13.18359375,-27.34375,-8.30078125,0.0
1676923267.5892124,-18.5546875,-17.578125,-28.80859375,12.6953125,0.0
1676923267.5929832,-19.04296875,-27.83203125,-30.76171875,-5.37109375,0.0
1676923267.596754,-25.87890625,-25.390625,-30.2734375,-22.94921875,0.0
1676923267.600525,-20.5078125,-25.390625,-30.2734375,-5.859375,0.0
1676923267.603247,-13.18359375,-26.85546875,-32.2265625,15.625,0.0
1676923267.605969,-17.578125,-25.87890625,-27.83203125,15.625,0.0
1676923267.6086912,-18.5546875,-26.3671875,-23.4375,4.39453125,0.0
1676923267.6114132,-25.87890625,-25.390625,-24.4140625,10.7421875,0.0
1676923267.6141353,-32.2265625,-23.4375,-25.87890625,23.92578125,0.0
1676923267.6168573,-23.92578125,-23.92578125,-25.390625,35.64453125,0.0
1676923267.6195793,-21.97265625,-20.01953125,-26.85546875,24.90234375,0.0
1676923267.6223013,-22.4609375,-19.53125,-29.296875,-8.30078125,0.0
1676923267.6250234,-18.06640625,-29.78515625,-33.69140625,4.8828125,0.0
1676923267.6277456,-10.25390625,-30.76171875,-31.25,29.78515625,0.0
1676923267.6304677,-13.18359375,-26.3671875,-28.80859375,12.20703125,0.0
1676923267.6331897,-32.2265625,-26.3671875,-28.3203125,-8.7890625,0.0
1676923267.6366892,-31.73828125,-26.3671875,-26.85546875,7.32421875,0.0
1676923267.6401887,-15.625,-29.78515625,-27.83203125,33.203125,0.0
1676923267.6436882,-10.7421875,-30.76171875,-24.4140625,31.73828125,0.0
1676923267.6471877,-26.85546875,-28.80859375,-22.94921875,6.8359375,0.0
1676923267.6506872,-29.296875,-31.25,-28.3203125,-3.90625,0.0
1676923267.6541867,-14.6484375,-30.76171875,-29.296875,1.46484375,0.0
1676923267.6576865,-14.16015625,-28.80859375,-28.80859375,11.71875,0.0
1676923267.661186,-33.203125,-31.25,-24.4140625,9.765625,0.0
1676923267.6646855,-45.41015625,-27.34375,-20.99609375,4.39453125,0.0
1676923267.668185,-24.4140625,-23.4375,-20.01953125,15.13671875,0.0
1676923267.6716845,-10.7421875,-25.390625,-24.90234375,11.71875,0.0
1676923267.675184,-22.94921875,-29.296875,-28.3203125,-17.08984375,0.0
1676923267.680193,-52.24609375,-31.25,-26.85546875,-23.4375,0.0
1676923267.685202,-48.33984375,-34.66796875,-29.78515625,-8.30078125,0.0
1676923267.6902108,-25.390625,-37.109375,-24.90234375,1.46484375,0.0
1676923267.6952198,-36.1328125,-32.2265625,-28.3203125,1.953125,0.0
1676923267.7002287,-41.50390625,-26.3671875,-31.73828125,-13.18359375,0.0
1676923267.7052374,-36.62109375,-31.73828125,-25.87890625,-6.34765625,0.0
1676923267.7102463,-34.1796875,-39.55078125,-21.484375,14.6484375,0.0
1676923267.7152553,-39.0625,-42.96875,-24.4140625,11.71875,0.0
1676923267.7202642,-41.9921875,-39.0625,-24.90234375,-18.5546875,0.0
1676923267.7252731,-39.0625,-38.0859375,-24.90234375,-18.5546875,0.0
1676923267.730282,-28.3203125,-35.15625,-23.4375,7.8125,0.0
1676923267.735291,1.46484375,-31.73828125,-24.90234375,-3.41796875,0.0
1676923267.739024,-17.08984375,-33.69140625,-29.296875,-1.46484375,0.0
1676923267.7427568,-41.50390625,-39.0625,-28.80859375,-4.8828125,0.0
1676923267.7464898,-23.4375,-39.0625,-31.25,-23.4375,0.0
1676923267.7502227,-19.53125,-31.25,-25.390625,-3.90625,0.0
1676923267.7539556,-30.2734375,-32.2265625,-18.5546875,-14.16015625,0.0
1676923267.7576885,-41.9921875,-37.59765625,-23.92578125,-32.71484375,0.0
1676923267.7614212,-40.0390625,-36.62109375,-28.3203125,-12.20703125,0.0
1676923267.7651541,-26.85546875,-32.71484375,-25.390625,13.671875,0.0
1676923267.768887,-26.85546875,-31.25,-26.85546875,-18.5546875,0.0
1676923267.77262,-38.57421875,-32.2265625,-27.83203125,-42.48046875,0.0
1676923267.776353,-35.15625,-31.73828125,-27.34375,-20.99609375,0.0
1676923267.7800858,-31.25,-30.2734375,-29.78515625,-11.71875,0.0
1676923267.7839453,-31.73828125,-29.78515625,-28.80859375,-7.32421875,0.0
1676923267.7878046,-46.38671875,-32.2265625,-31.25,-24.90234375,0.0
1676923267.7916641,-54.6875,-27.34375,-35.15625,-45.41015625,0.0
1676923267.7955234,-37.109375,-23.4375,-32.2265625,-33.69140625,0.0
1676923267.799383,-37.59765625,-21.97265625,-27.34375,-32.71484375,0.0
1676923267.8032422,-61.5234375,-20.5078125,-29.296875,-51.26953125,0.0
1676923267.8071017,-68.359375,-25.390625,-32.2265625,-61.5234375,0.0
1676923267.8109612,-51.7578125,-22.94921875,-28.3203125,-51.7578125,0.0
1676923267.8148205,-64.94140625,-20.5078125,-27.83203125,-33.69140625,0.0
1676923267.81868,-86.42578125,-21.484375,-25.87890625,-55.17578125,0.0
1676923267.8225393,-97.16796875,-21.97265625,-26.85546875,-91.796875,0.0
1676923267.8263988,-96.6796875,-22.94921875,-28.3203125,-83.0078125,0.0
1676923267.8301497,-83.984375,-18.5546875,-28.80859375,-72.75390625,0.0
1676923267.8339005,-74.21875,-15.625,-29.296875,-65.91796875,0.0
1676923267.8376513,-96.6796875,-20.01953125,-29.296875,-93.26171875,0.0
1676923267.841402,-105.46875,-22.94921875,-29.296875,-98.6328125,0.0
1676923267.8451529,-95.703125,-24.90234375,-32.2265625,-92.28515625,0.0
1676923267.8489037,-102.5390625,-27.34375,-34.66796875,-106.4453125,0.0
1676923267.8526547,-105.95703125,-25.390625,-35.64453125,-116.69921875,0.0
1676923267.8564055,-100.5859375,-22.4609375,-33.203125,-116.2109375,0.0
1676923267.8601563,-89.35546875,-27.34375,-35.64453125,-66.89453125,0.0
1676923267.863907,-85.44921875,-26.3671875,-36.62109375,-51.26953125,0.0
1676923267.867658,-89.84375,-14.16015625,-33.203125,-81.54296875,0.0
1676923267.8714087,-82.03125,-16.11328125,-37.109375,-70.3125,0.0
1676923267.8750665,-65.91796875,-19.53125,-32.71484375,-45.41015625,0.0
1676923267.8787243,-62.01171875,-20.01953125,-31.25,-33.203125,0.0
1676923267.882382,-65.91796875,-25.87890625,-30.76171875,-58.59375,0.0
1676923267.8860397,-51.26953125,-25.390625,-26.3671875,-68.359375,0.0
1676923267.8896976,-51.7578125,-19.53125,-29.296875,-30.2734375,0.0
1676923267.8933554,-55.17578125,-21.484375,-31.25,-19.04296875,0.0
1676923267.8970132,-46.875,-21.484375,-28.3203125,-12.6953125,0.0
1676923267.900671,-62.98828125,-23.4375,-27.34375,-16.11328125,0.0
1676923267.9043288,-56.640625,-34.66796875,-29.78515625,-4.8828125,0.0
1676923267.9079864,-33.69140625,-33.69140625,-32.2265625,17.578125,0.0
1676923267.9116442,-23.4375,-25.87890625,-32.2265625,15.625,0.0
1676923267.915302,-33.69140625,-29.78515625,-36.62109375,2.44140625,0.0
1676923267.9203057,-35.64453125,-28.3203125,-39.0625,-0.9765625,0.0
1676923267.9253092,-12.20703125,-20.5078125,-36.1328125,12.6953125,0.0
1676923267.9303129,-3.90625,-19.04296875,-33.203125,31.25,0.0
1676923267.9353163,-7.8125,-20.99609375,-28.80859375,40.0390625,0.0
1676923267.94032,-13.671875,-26.85546875,-29.296875,14.6484375,0.0
1676923267.9453235,-3.41796875,-30.2734375,-31.25,16.11328125,0.0
1676923267.9503272,6.34765625,-28.80859375,-30.2734375,29.296875,0.0
1676923267.9553308,1.953125,-29.78515625,-32.71484375,25.390625,0.0
