timestamps,TP9,Fp1,Fp2,TP10,stim
1676923132.5292444,143.5546875,-17.08984375,-340.33203125,-192.87109375,0.0
1676923132.5329862,601.5625,-40.52734375,-356.4453125,-373.53515625,0.0
1676923132.5367281,-222.16796875,-44.43359375,-458.49609375,70.3125,0.0
1676923132.54047,-834.9609375,-27.83203125,-333.49609375,297.36328125,0.0
1676923132.5467508,-77.1484375,-26.85546875,-363.76953125,-99.609375,0.0
1676923132.5530314,668.9453125,-34.1796875,-464.84375,-416.015625,0.0
1676923132.5593123,50.29296875,-40.52734375,-590.33203125,-55.17578125,0.0
1676923132.565593,-773.92578125,-11.71875,-408.69140625,302.734375,0.0
1676923132.571874,-302.24609375,-5.37109375,-235.83984375,12.20703125,0.0
1676923132.5781546,565.91796875,-25.87890625,-504.39453125,-385.25390625,0.0
1676923132.5844355,272.94921875,-21.484375,-857.91015625,-173.33984375,0.0
1676923132.5907164,-663.57421875,5.859375,-621.09375,258.7890625,0.0
1676923132.596997,-612.3046875,2.9296875,-152.34375,143.06640625,0.0
1676923132.603278,310.05859375,-36.62109375,-423.828125,-309.5703125,0.0
1676923132.6095586,459.47265625,-45.41015625,-645.5078125,-322.75390625,0.0
1676923132.6158395,-449.21875,-24.90234375,-310.546875,141.11328125,0.0
1676923132.6170619,-824.70703125,-30.2734375,-153.80859375,257.8125,0.0
1676923132.6182842,26.85546875,-41.9921875,-400.87890625,-173.828125,0.0
1676923132.6195064,574.21875,-37.59765625,-599.12109375,-376.46484375,0.0
1676923132.6207287,-188.96484375,-31.73828125,-479.00390625,61.03515625,0.0
1676923132.621951,-868.1640625,-22.4609375,-268.5546875,324.70703125,0.0
1676923132.6231732,-212.40234375,-32.2265625,-525.390625,-54.19921875,0.0
1676923132.6243956,569.3359375,-19.04296875,-738.28125,-399.4140625,0.0
1676923132.625618,78.125,2.44140625,-400.390625,-68.84765625,0.0
1676923132.6268404,-765.625,-14.16015625,-208.49609375,321.77734375,0.0
1676923132.6280627,-407.71484375,-19.04296875,-419.921875,91.30859375,0.0
1676923132.6292849,495.60546875,-14.6484375,-528.3203125,-334.9609375,0.0
1676923132.6305072,372.55859375,-18.5546875,-355.95703125,-199.70703125,0.0
1676923132.6355019,-526.85546875,-30.2734375,-209.9609375,253.41796875,0.0
1676923132.6404965,-610.3515625,-50.78125,-572.75390625,221.6796875,0.0
1676923132.6454911,284.66796875,-23.92578125,-838.37890625,-250.0,0.0
1676923132.6504858,594.7265625,4.39453125,-432.12890625,-395.01953125,0.0
1676923132.6554804,-229.00390625,-23.4375,-295.8984375,43.45703125,0.0
1676923132.660475,-679.6875,-22.94921875,-440.4296875,238.76953125,0.0
1676923132.6654696,142.08984375,-7.32421875,-554.19921875,-154.296875,0.0
1676923132.6704643,779.78515625,-4.8828125,-479.4921875,-406.25,0.0
1676923132.675459,73.2421875,-5.859375,-367.1875,-6.8359375,0.0
1676923132.6804535,-737.3046875,-20.01953125,-682.12890625,339.84375,0.0
1676923132.6854482,-224.609375,4.8828125,-616.2109375,21.484375,0.0
1676923132.6904428,552.734375,-7.8125,-278.3203125,-349.609375,0.0
1676923132.6941843,111.81640625,-32.71484375,-439.453125,-70.3125,0.0
1676923132.6979258,-775.87890625,-7.32421875,-371.09375,323.73046875,0.0
1676923132.7016673,-511.23046875,-2.9296875,-141.11328125,113.28125,0.0
1676923132.7054086,430.17578125,-10.7421875,-274.90234375,-340.8203125,0.0
1676923132.70915,429.19921875,-16.6015625,-536.62109375,-286.1328125,0.0
1676923132.7128916,-449.70703125,-21.97265625,-565.4296875,147.94921875,0.0
1676923132.716633,-611.81640625,-11.23046875,-331.54296875,154.296875,0.0
1676923132.7203746,285.15625,-9.27734375,-207.51953125,-293.9453125,0.0
1676923132.7241158,650.87890625,-37.109375,-656.25,-415.0390625,0.0
1676923132.7278574,-193.84765625,-28.3203125,-875.0,40.0390625,0.0
1676923132.7315989,-748.53515625,2.44140625,-357.91015625,250.48828125,0.0
1676923132.7353404,-7.32421875,-10.7421875,-187.01171875,-137.6953125,0.0
1676923132.739099,643.06640625,-27.83203125,-572.265625,-419.43359375,0.0
1676923132.7428575,3.41796875,-7.8125,-574.70703125,-37.59765625,0.0
1676923132.7466161,-769.53125,19.04296875,-204.58984375,306.640625,0.0
1676923132.7503748,-259.765625,10.25390625,-198.2421875,0.48828125,0.0
1676923132.7541335,589.35546875,-5.859375,-457.03125,-389.16015625,0.0
1676923132.7578921,256.8359375,-4.8828125,-575.1953125,-142.578125,0.0
1676923132.7616506,-641.6015625,2.44140625,-324.21875,285.15625,0.0
1676923132.7654092,-510.7421875,-5.859375,-199.70703125,135.25390625,0.0
1676923132.769168,372.55859375,-23.92578125,-663.0859375,-283.203125,0.0
1676923132.7729263,460.44921875,-8.30078125,-627.44140625,-267.08984375,0.0
1676923132.776685,-452.63671875,-3.90625,-162.109375,194.82421875,0.0
1676923132.7804437,-685.546875,-14.16015625,-224.12109375,247.0703125,0.0
1676923132.7842717,214.35546875,-17.578125,-475.09765625,-206.0546875,0.0
1676923132.7880998,586.42578125,-14.6484375,-521.484375,-347.65625,0.0
1676923132.791928,-182.6171875,-5.37109375,-270.5078125,86.42578125,0.0
1676923132.795756,-806.15234375,-35.15625,-299.8046875,334.47265625,0.0
1676923132.7995842,-107.421875,-40.52734375,-511.71875,-72.265625,0.0
1676923132.8034124,633.30078125,-10.7421875,-507.8125,-404.296875,0.0
1676923132.8072405,62.01171875,3.41796875,-432.6171875,-44.921875,0.0
1676923132.8110685,-752.44140625,-18.5546875,-497.0703125,326.171875,0.0
1676923132.8148966,-311.03515625,-23.4375,-590.33203125,44.43359375,0.0
1676923132.8187246,572.265625,10.25390625,-323.73046875,-386.71875,0.0
1676923132.822553,339.84375,3.90625,-302.734375,-190.4296875,0.0
1676923132.826381,-574.70703125,-15.13671875,-302.734375,271.97265625,0.0
1676923132.8300626,-545.8984375,-8.7890625,-193.359375,183.59375,0.0
1676923132.8337445,371.09375,1.953125,-213.8671875,-265.13671875,0.0
1676923132.8374262,551.26953125,-2.9296875,-382.8125,-287.59765625,0.0
1676923132.8411078,-329.58984375,22.4609375,-405.76171875,172.8515625,0.0
1676923132.8447897,-718.26171875,30.2734375,-359.375,279.78515625,0.0
1676923132.8484714,121.58203125,13.671875,-460.44921875,-158.69140625,0.0
1676923132.852153,666.015625,23.4375,-496.09375,-376.46484375,0.0
1676923132.855835,-95.21484375,30.2734375,-737.3046875,65.4296875,0.0
1676923132.8595166,-772.94921875,46.875,-561.5234375,330.56640625,0.0
1676923132.8631983,-106.4453125,63.96484375,-124.51171875,-60.546875,0.0
1676923132.8668802,652.34375,36.62109375,-392.08984375,-387.20703125,0.0
1676923132.8705618,114.74609375,21.97265625,-686.5234375,-41.50390625,0.0
1676923132.8743024,-754.8828125,44.43359375,-369.140625,344.7265625,0.0
1676923132.8780432,-399.4140625,34.66796875,-164.55078125,97.16796875,0.0
1676923132.8817837,512.6953125,17.578125,-493.1640625,-319.82421875,0.0
1676923132.8855243,386.23046875,16.11328125,-549.31640625,-170.41015625,0.0
1676923132.8892648,-531.25,6.8359375,-265.625,271.484375,0.0
1676923132.8930054,-596.6796875,-12.6953125,-280.76171875,224.12109375,0.0
1676923132.8967462,325.68359375,-37.59765625,-687.98828125,-223.6328125,0.0
1676923132.9004867,597.65625,-12.20703125,-920.41015625,-313.96484375,0.0
1676923132.9042273,-270.5078125,25.87890625,-439.453125,127.9296875,0.0
1676923132.907968,-738.28125,-5.37109375,-123.046875,297.36328125,0.0
1676923132.9117086,77.63671875,-24.4140625,-473.14453125,-131.8359375,0.0
1676923132.9154491,705.56640625,-0.9765625,-657.71484375,-398.92578125,0.0
1676923132.9191988,12.6953125,3.90625,-317.87109375,24.4140625,0.0
1676923132.9229481,-729.4921875,-27.83203125,-193.84765625,346.19140625,0.0
1676923132.9266977,-127.44140625,-35.15625,-337.40234375,-18.06640625,0.0
1676923132.930447,702.1484375,-10.7421875,-399.4140625,-403.3203125,0.0
1676923132.9341967,259.765625,-5.37109375,-366.69921875,-90.8203125,0.0
1676923132.9379463,-632.32421875,-24.90234375,-393.5546875,335.44921875,0.0
1676923132.9416957,-369.140625,-25.390625,-691.40625,116.2109375,0.0
1676923132.9454453,556.15234375,-3.90625,-698.2421875,-345.703125,0.0
1676923132.9491947,513.671875,6.34765625,-350.5859375,-244.62890625,0.0
1676923132.9529443,-433.10546875,-8.30078125,-361.328125,236.328125,0.0
1676923132.9566936,-623.046875,-16.6015625,-449.70703125,247.55859375,0.0
1676923132.9604433,304.6875,1.953125,-447.265625,-216.796875,0.0
1676923132.9642942,690.4296875,2.9296875,-382.8125,-360.3515625,0.0
1676923132.9681454,-178.22265625,-16.6015625,-447.75390625,115.72265625,0.0
1676923132.9719963,-730.95703125,-0.9765625,-514.6484375,343.26171875,0.0
1676923132.9758472,52.734375,50.78125,-312.98828125,-98.6328125,0.0
1676923132.9796984,698.73046875,56.640625,-303.22265625,-410.15625,0.0
1676923132.9835494,0.48828125,29.78515625,-643.5546875,0.9765625,0.0
1676923132.9874003,-789.55078125,48.828125,-665.52734375,352.5390625,0.0
1676923132.9912515,-229.00390625,78.61328125,-266.11328125,-2.9296875,0.0
1676923132.9951024,635.25390625,64.94140625,-351.07421875,-402.34375,0.0
1676923132.9989533,269.04296875,65.4296875,-547.36328125,-127.9296875,0.0
1676923133.0028045,-649.90234375,81.54296875,-401.85546875,300.78125,0.0
1676923133.0066555,-485.3515625,86.42578125,-188.4765625,141.6015625,0.0
1676923133.011656,442.3828125,74.21875,-320.3125,-304.19921875,0.0
1676923133.0166566,502.44140625,52.24609375,-611.328125,-255.859375,0.0
1676923133.0216572,-406.25,43.45703125,-474.609375,212.890625,0.0
1676923133.0266578,-680.17578125,56.15234375,-166.015625,264.16015625,0.0
1676923133.0316584,220.21484375,60.546875,-270.01953125,-189.94140625,0.0
1676923133.0366588,669.921875,25.390625,-822.265625,-350.5859375,0.0
1676923133.0416594,-139.6484375,42.96875,-776.3671875,105.46875,0.0
1676923133.04666,-733.3984375,85.44921875,-158.69140625,320.3125,0.0
1676923133.0516605,-12.20703125,61.5234375,-282.2265625,-95.703125,0.0
1676923133.0566611,711.9140625,56.15234375,-596.6796875,-420.8984375,0.0
1676923133.0616617,121.09375,72.75390625,-416.015625,-44.921875,0.0
1676923133.0666623,-694.3359375,62.5,-185.05859375,334.9609375,0.0
1676923133.0703084,-229.4921875,52.24609375,-327.1484375,31.25,0.0
1676923133.0739548,652.83203125,48.828125,-510.7421875,-384.27734375,0.0
1676923133.077601,397.94921875,44.43359375,-389.6484375,-169.921875,0.0
1676923133.081247,-523.4375,59.5703125,-216.30859375,279.78515625,0.0
1676923133.0848935,-477.5390625,46.875,-328.125,188.96484375,0.0
1676923133.0885396,437.98828125,19.53125,-610.83984375,-260.7421875,0.0
1676923133.0921857,589.84375,38.57421875,-704.58984375,-293.9453125,0.0
1676923133.095832,-312.01171875,78.61328125,-414.55078125,178.7109375,0.0
1676923133.0994782,-720.21484375,55.17578125,-467.7734375,306.640625,0.0
1676923133.1031244,106.93359375,42.48046875,-915.52734375,-147.94921875,0.0
1676923133.1067708,665.52734375,84.47265625,-584.9609375,-393.06640625,0.0
1676923133.110417,-105.46875,63.96484375,-270.5078125,55.17578125,0.0
1676923133.1141634,-796.875,53.22265625,-273.4375,343.26171875,0.0
1676923133.1179101,-125.9765625,63.96484375,-248.53515625,-51.26953125,0.0
1676923133.1216567,650.390625,53.7109375,-291.015625,-411.1328125,0.0
1676923133.1254032,122.0703125,41.9921875,-352.5390625,-68.359375,0.0
1676923133.12915,-737.3046875,42.96875,-333.49609375,328.61328125,0.0
1676923133.1328964,-375.0,57.12890625,-411.1328125,62.01171875,0.0
1676923133.136643,535.15625,71.77734375,-470.21484375,-380.37109375,0.0
1676923133.1403897,380.859375,69.82421875,-449.21875,-217.28515625,0.0
1676923133.1441362,-575.68359375,52.24609375,-611.328125,251.953125,0.0
1676923133.1478827,-636.23046875,44.921875,-386.23046875,185.05859375,0.0
1676923133.1516294,292.96875,42.96875,-155.76171875,-281.25,0.0
1676923133.155376,545.41015625,43.45703125,-462.40234375,-339.84375,0.0
1676923133.1591246,-350.5859375,45.8984375,-732.421875,134.765625,0.0
1676923133.1628735,-804.19921875,58.10546875,-350.5859375,272.94921875,0.0
1676923133.1666222,14.16015625,50.29296875,-130.37109375,-169.921875,0.0
1676923133.1703708,613.76953125,40.52734375,-434.5703125,-428.22265625,0.0
1676923133.1741197,-106.4453125,40.52734375,-451.66015625,8.30078125,0.0
1676923133.1778684,-813.96484375,30.76171875,-313.96484375,321.2890625,0.0
1676923133.181617,-191.89453125,34.1796875,-262.6953125,-40.52734375,0.0
1676923133.185366,600.09765625,9.27734375,-606.93359375,-396.484375,0.0
1676923133.1891146,134.27734375,2.9296875,-802.734375,-89.35546875,0.0
1676923133.1928632,-717.7734375,45.8984375,-187.5,291.50390625,0.0
1676923133.1966121,-425.29296875,18.06640625,-69.82421875,73.73046875,0.0
1676923133.2003608,483.3984375,0.0,-451.66015625,-343.75,0.0
1676923133.204144,422.8515625,17.08984375,-474.609375,-237.3046875,0.0
1676923133.2079272,-493.1640625,16.11328125,-194.82421875,226.5625,0.0
1676923133.2117105,-637.20703125,-5.859375,-109.86328125,236.81640625,0.0
1676923133.2154937,272.94921875,-8.30078125,-368.1640625,-216.30859375,0.0
1676923133.219277,631.34765625,8.7890625,-487.79296875,-348.14453125,0.0
1676923133.2230601,-232.421875,-0.48828125,-412.109375,108.88671875,0.0
1676923133.226843,-767.578125,-4.39453125,-354.4921875,310.546875,0.0
1676923133.2306263,-4.39453125,-5.859375,-650.390625,-103.515625,0.0
1676923133.2344096,664.55078125,11.71875,-711.42578125,-414.0625,0.0
1676923133.2381928,3.90625,15.625,-276.85546875,-17.08984375,0.0
1676923133.241976,-777.34375,-13.671875,-249.0234375,323.73046875,0.0
1676923133.2457592,-221.19140625,-20.99609375,-382.32421875,-25.390625,0.0
1676923133.2494807,645.5078125,-1.46484375,-352.5390625,-407.2265625,0.0
1676923133.2532024,247.0703125,15.625,-303.22265625,-115.234375,0.0
1676923133.256924,-668.9453125,5.37109375,-401.3671875,307.12890625,0.0
1676923133.2606454,-460.44921875,-3.41796875,-404.78515625,107.91015625,0.0
1676923133.264367,465.33203125,8.7890625,-325.68359375,-342.7734375,0.0
1676923133.2680886,496.09375,15.625,-452.1484375,-274.4140625,0.0
1676923133.27181,-428.7109375,-6.34765625,-635.7421875,216.796875,0.0
1676923133.2755318,-670.41015625,-7.32421875,-774.90234375,256.34765625,0.0
1676923133.2792532,234.86328125,20.5078125,-423.33984375,-219.23828125,0.0
1676923133.2829747,687.98828125,-4.39453125,-315.91796875,-390.625,0.0
1676923133.2866964,-144.04296875,-15.13671875,-413.57421875,71.2890625,0.0
1676923133.290418,-764.16015625,-18.5546875,-254.8828125,310.546875,0.0
1676923133.2941592,-37.59765625,-31.25,-180.17578125,-99.609375,0.0
1676923133.2979004,683.59375,-26.3671875,-363.76953125,-413.0859375,0.0
1676923133.301642,59.5703125,-20.5078125,-443.359375,-32.2265625,0.0
1676923133.3053832,-768.06640625,-19.04296875,-233.88671875,334.47265625,0.0
1676923133.3091245,-273.92578125,-34.66796875,-234.86328125,22.4609375,0.0
1676923133.3128657,600.5859375,-46.875,-512.20703125,-380.37109375,0.0
1676923133.316607,281.73828125,-57.6171875,-838.8671875,-140.625,0.0
1676923133.3203483,-640.625,-39.0625,-674.31640625,288.57421875,0.0
1676923133.3240895,-554.6875,-27.34375,-169.43359375,159.66796875,0.0
1676923133.327831,382.8125,-54.19921875,-367.67578125,-291.50390625,0.0
1676923133.3315723,526.85546875,-47.36328125,-690.4296875,-308.10546875,0.0
1676923133.3353136,-379.39453125,-13.18359375,-376.953125,156.25,0.0
1676923133.3390799,-716.796875,-23.4375,-108.3984375,253.41796875,0.0
1676923133.3428462,158.69140625,-53.7109375,-375.9765625,-180.17578125,0.0
1676923133.3466125,693.359375,-46.38671875,-576.171875,-395.5078125,0.0
1676923133.3503788,-94.23828125,-12.6953125,-350.09765625,30.76171875,0.0
1676923133.354145,-771.97265625,-9.27734375,-153.80859375,302.734375,0.0
1676923133.357911,-113.76953125,-36.1328125,-518.06640625,-64.453125,0.0
1676923133.3616774,650.390625,-15.625,-843.26171875,-405.76171875,0.0
1676923133.3654437,95.703125,17.578125,-434.5703125,-61.03515625,0.0
1676923133.36921,-772.4609375,-4.39453125,-156.73828125,322.75390625,0.0
1676923133.3729763,-396.484375,-42.48046875,-525.390625,68.359375,0.0
1676923133.3767426,499.51171875,-30.2734375,-803.22265625,-353.02734375,0.0
1676923133.380509,327.1484375,3.41796875,-406.73828125,-208.49609375,0.0
1676923133.3867538,-621.58203125,-9.27734375,-190.4296875,250.0,0.0
1676923133.3929985,-669.921875,-28.3203125,-242.67578125,175.78125,0.0
1676923133.3992434,271.97265625,-38.0859375,-319.82421875,-292.96875,0.0
1676923133.405488,527.83203125,-25.390625,-339.35546875,-371.09375,0.0
1676923133.411733,-380.859375,-38.0859375,-314.94140625,88.37890625,0.0
1676923133.4179778,-820.80078125,-68.84765625,-411.1328125,247.0703125,0.0
1676923133.4242225,20.99609375,-39.0625,-442.87109375,-189.453125,0.0
1676923133.4304674,625.0,-15.13671875,-335.9375,-438.96484375,0.0
1676923133.436712,-131.34765625,-42.96875,-340.33203125,15.13671875,0.0
1676923133.442957,-895.01953125,-52.734375,-499.51171875,317.3828125,0.0
1676923133.4492016,-284.66796875,-25.87890625,-344.7265625,-69.3359375,0.0
1676923133.4554465,539.0625,-28.80859375,-261.71875,-439.453125,0.0
1676923133.458036,46.38671875,-46.38671875,-552.24609375,-115.72265625,0.0
1676923133.4606254,-841.30859375,-48.33984375,-516.11328125,283.203125,0.0
1676923133.4632149,-507.32421875,-29.78515625,-207.51953125,33.203125,0.0
1676923133.4658046,418.9453125,-33.69140625,-238.28125,-404.78515625,0.0
1676923133.468394,315.4296875,-50.78125,-472.16796875,-281.73828125,0.0
1676923133.4709835,-656.25,-49.31640625,-533.69140625,180.17578125,0.0
1676923133.473573,-835.44921875,-27.34375,-331.0546875,151.85546875,0.0
1676923133.4761624,72.265625,-10.25390625,-210.44921875,-300.29296875,0.0
1676923133.4787521,428.22265625,-38.57421875,-604.4921875,-391.11328125,0.0
1676923133.4813416,-435.546875,-35.15625,-620.60546875,66.89453125,0.0
1676923133.483931,-944.82421875,-18.5546875,-126.46484375,247.55859375,0.0
1676923133.4865205,-143.5546875,-23.4375,-104.98046875,-172.36328125,0.0
1676923133.4901807,500.48828125,-30.2734375,-650.390625,-446.2890625,0.0
1676923133.493841,-203.61328125,-16.11328125,-754.39453125,-32.2265625,0.0
1676923133.497501,-966.796875,0.48828125,-175.78125,268.5546875,0.0
1676923133.501161,-410.64453125,-13.18359375,-270.99609375,-84.47265625,0.0
1676923133.5048213,450.68359375,-7.8125,-565.4296875,-467.7734375,0.0
1676923133.5084815,76.171875,-6.8359375,-561.03515625,-185.546875,0.0
1676923133.5121417,-805.6640625,-10.7421875,-361.328125,235.83984375,0.0
1676923133.515802,-566.89453125,-17.578125,-219.23828125,39.55078125,0.0
1676923133.519462,376.46484375,-48.828125,-740.72265625,-381.8359375,0.0
1676923133.523122,430.17578125,-17.578125,-859.375,-321.77734375,0.0
1676923133.5267823,-476.07421875,21.97265625,-212.890625,121.09375,0.0
1676923133.5304425,-725.09765625,-12.20703125,-167.48046875,179.19921875,0.0
1676923133.5341842,166.9921875,-16.6015625,-428.22265625,-263.18359375,0.0
1676923133.5379257,628.41796875,11.71875,-377.44140625,-437.01171875,0.0
1676923133.5416675,-176.26953125,11.23046875,-200.68359375,30.76171875,0.0
1676923133.5454092,-783.69140625,3.90625,-219.23828125,276.85546875,0.0
1676923133.5491507,-41.9921875,14.6484375,-314.453125,-123.046875,0.0
1676923133.5528924,682.12890625,22.94921875,-449.21875,-418.45703125,0.0
1676923133.5566342,40.0390625,18.5546875,-412.109375,-31.25,0.0
1676923133.5603757,-793.45703125,-4.39453125,-423.828125,332.51953125,0.0
1676923133.5641174,-314.94140625,-8.7890625,-672.8515625,23.4375,0.0
1676923133.5678592,599.12109375,32.2265625,-364.2578125,-409.66796875,0.0
1676923133.5716007,329.1015625,29.296875,-186.03515625,-183.59375,0.0
1676923133.5753424,-606.4453125,14.6484375,-248.046875,273.4375,0.0
1676923133.5791261,-524.4140625,18.5546875,-134.27734375,152.83203125,0.0
1676923133.5829096,432.12890625,20.99609375,-120.1171875,-278.3203125,0.0
1676923133.5866933,596.6796875,15.13671875,-276.85546875,-276.85546875,0.0
1676923133.5904768,-321.2890625,5.37109375,-305.17578125,189.453125,0.0
1676923133.5942605,-687.98828125,8.30078125,-208.49609375,295.41015625,0.0
1676923133.598044,174.8046875,0.9765625,-347.65625,-146.484375,0.0
1676923133.6018276,710.44921875,-1.46484375,-499.51171875,-354.98046875,0.0
1676923133.6056113,-91.796875,11.71875,-656.25,95.21484375,0.0
1676923133.6093948,-772.4609375,26.85546875,-412.109375,354.98046875,0.0
1676923133.6131785,-87.890625,13.18359375,-181.640625,-39.0625,0.0
1676923133.616962,666.50390625,-1.953125,-525.87890625,-377.44140625,0.0
1676923133.6207457,96.19140625,1.46484375,-590.33203125,-41.9921875,0.0
1676923133.6244705,-756.34765625,16.11328125,-222.16796875,331.54296875,0.0
1676923133.628195,-353.515625,0.48828125,-70.80078125,62.5,0.0
1676923133.6319199,551.7578125,-19.53125,-416.9921875,-359.375,0.0
1676923133.6356447,364.2578125,-2.44140625,-490.234375,-186.5234375,0.0
1676923133.6393692,-571.77734375,-1.953125,-200.68359375,255.859375,0.0
1676923133.643094,-606.93359375,-21.97265625,-216.30859375,189.453125,0.0
1676923133.6468189,308.10546875,-35.15625,-602.5390625,-231.93359375,0.0
1676923133.6505435,566.89453125,-24.4140625,-812.01171875,-297.36328125,0.0
1676923133.6542683,-306.640625,-3.90625,-328.125,143.06640625,0.0
1676923133.657993,-768.5546875,-14.6484375,-83.0078125,302.734375,0.0
1676923133.6617177,45.41015625,-17.578125,-306.15234375,-117.67578125,0.0
1676923133.6654425,667.96875,-23.4375,-435.05859375,-371.58203125,0.0
1676923133.670474,-61.03515625,-22.4609375,-306.640625,51.26953125,0.0
1676923133.6755059,-800.29296875,-19.53125,-277.34375,344.23828125,0.0
1676923133.6805375,-177.734375,-18.5546875,-476.07421875,-15.625,0.0
1676923133.6855693,641.6015625,-15.13671875,-513.18359375,-383.7890625,0.0
1676923133.6906009,166.50390625,-21.97265625,-357.421875,-78.61328125,0.0
1676923133.6956325,-722.16796875,-26.3671875,-349.609375,341.796875,0.0
1676923133.7006643,-443.84765625,-30.76171875,-667.48046875,128.41796875,0.0
1676923133.7056959,479.98046875,0.48828125,-677.734375,-324.70703125,0.0
1676923133.7107277,435.546875,19.04296875,-341.30859375,-223.6328125,0.0
1676923133.7157593,-495.60546875,-7.8125,-336.9140625,249.51171875,0.0
1676923133.720791,-632.32421875,-6.34765625,-350.09765625,245.60546875,0.0
1676923133.7258227,321.77734375,8.7890625,-317.87109375,-214.35546875,0.0
1676923133.7282968,700.1953125,8.30078125,-346.19140625,-357.91015625,0.0
1676923133.7307708,-174.8046875,10.25390625,-361.81640625,74.70703125,0.0
1676923133.733245,-725.5859375,16.11328125,-295.41015625,230.95703125,0.0
1676923133.7357192,64.94140625,13.671875,-251.46484375,-200.68359375,0.0
1676923133.7381933,768.06640625,-4.39453125,-466.796875,-444.82421875,0.0
1676923133.7406673,111.81640625,-4.8828125,-666.50390625,-4.8828125,0.0
1676923133.7431414,-653.3203125,11.71875,-486.328125,325.1953125,0.0
1676923133.7456155,-137.20703125,32.71484375,-190.4296875,-10.7421875,0.0
1676923133.7480898,625.48828125,34.66796875,-231.4453125,-384.765625,0.0
1676923133.7505639,144.53125,0.9765625,-673.33984375,-87.40234375,0.0
1676923133.753038,-817.3828125,10.25390625,-780.76171875,358.88671875,0.0
1676923133.755512,-622.55859375,43.9453125,-220.703125,172.36328125,0.0
1676923133.7605062,321.2890625,20.99609375,-276.85546875,-269.53125,0.0
1676923133.7655003,378.41796875,19.53125,-554.6875,-219.23828125,0.0
1676923133.7704945,-530.76171875,37.59765625,-350.5859375,220.21484375,0.0
1676923133.7754886,-755.859375,57.6171875,-115.234375,232.91015625,0.0
1676923133.7804828,169.921875,47.36328125,-255.37109375,-229.4921875,0.0
1676923133.7854772,641.11328125,24.4140625,-611.328125,-410.64453125,0.0
1676923133.7904713,-180.6640625,39.0625,-519.04296875,13.18359375,0.0
1676923133.7954655,-791.9921875,42.96875,-304.19921875,227.05078125,0.0
1676923133.8004596,-63.4765625,27.34375,-389.6484375,-164.0625,0.0
1676923133.8054538,634.27734375,16.6015625,-808.59375,-459.9609375,0.0
1676923133.810448,0.9765625,35.64453125,-765.625,-71.77734375,0.0
1676923133.815442,-816.40625,34.66796875,-161.62109375,285.15625,0.0
1676923133.8191924,-367.1875,20.5078125,-198.73046875,-19.53125,0.0
1676923133.8229425,517.08984375,34.1796875,-457.51953125,-416.50390625,0.0
1676923133.8266926,250.0,45.41015625,-374.51171875,-204.1015625,0.0
1676923133.830443,-675.78125,32.2265625,-171.38671875,226.07421875,0.0
1676923133.8341932,-596.19140625,20.5078125,-271.97265625,117.1875,0.0
1676923133.8379433,332.03125,19.04296875,-580.078125,-331.0546875,0.0
1676923133.8416934,475.09765625,26.85546875,-544.921875,-344.23828125,0.0
1676923133.8454437,-435.546875,41.9921875,-228.515625,118.1640625,0.0
1676923133.849194,-801.26953125,9.765625,-447.265625,238.76953125,0.0
1676923133.8529441,67.3828125,8.30078125,-754.8828125,-175.29296875,0.0
1676923133.8566942,632.32421875,41.50390625,-549.31640625,-400.87890625,0.0
1676923133.8604445,-150.87890625,37.59765625,-423.828125,46.875,0.0
1676923133.864195,-834.9609375,15.625,-519.53125,344.23828125,0.0
1676923133.8679457,-161.62109375,18.5546875,-507.32421875,-36.1328125,0.0
1676923133.8716962,623.53515625,40.0390625,-316.89453125,-402.34375,0.0
1676923133.8754468,65.91796875,25.390625,-371.58203125,-55.17578125,0.0
1676923133.8791974,-801.7578125,14.6484375,-300.29296875,321.77734375,0.0
1676923133.882948,-424.31640625,26.3671875,-342.28515625,44.921875,0.0
1676923133.8866985,482.91015625,48.828125,-444.82421875,-372.55859375,0.0
1676923133.890449,306.15234375,42.48046875,-403.80859375,-203.61328125,0.0
1676923133.8941996,-649.90234375,26.3671875,-628.41796875,253.41796875,0.0
1676923133.8979502,-684.5703125,42.48046875,-438.96484375,187.98828125,0.0
1676923133.9017007,234.375,34.66796875,-127.9296875,-259.27734375,0.0
1676923133.9054513,469.23828125,22.94921875,-417.48046875,-320.3125,0.0
1676923133.9093173,-435.546875,19.53125,-399.4140625,131.8359375,0.0
1676923133.9131835,-885.25390625,15.625,-226.07421875,271.484375,0.0
1676923133.9170494,-55.17578125,12.20703125,-252.9296875,-152.83203125,0.0
1676923133.9209154,546.875,-12.20703125,-496.09375,-383.30078125,0.0
1676923133.9247816,-182.6171875,2.9296875,-605.95703125,44.43359375,0.0
1676923133.9286475,-890.625,27.83203125,-332.03125,326.66015625,0.0
1676923133.9325135,-254.8828125,22.94921875,-361.81640625,-35.64453125,0.0
1676923133.9363797,576.171875,1.46484375,-719.23828125,-392.08984375,0.0
1676923133.9402456,121.58203125,6.8359375,-810.05859375,-71.77734375,0.0
1676923133.9441116,-742.1875,39.55078125,-245.60546875,313.96484375,0.0
1676923133.9479778,-446.2890625,9.765625,-112.3046875,86.9140625,0.0
1676923133.9518437,477.05078125,10.7421875,-420.41015625,-339.84375,0.0
1676923133.9567618,434.5703125,28.80859375,-455.078125,-229.00390625,0.0
1676923133.96168,-480.46875,26.3671875,-205.56640625,235.83984375,0.0
1676923133.966598,-646.97265625,20.5078125,-159.66796875,229.00390625,0.0
1676923133.971516,247.0703125,17.08984375,-386.71875,-224.12109375,0.0
1676923133.976434,621.58203125,28.3203125,-492.1875,-351.5625,0.0
1676923133.981352,-237.79296875,17.08984375,-455.078125,110.83984375,0.0
1676923133.9862702,-783.69140625,13.671875,-375.48828125,310.05859375,0.0
1676923133.9911883,-18.06640625,1.953125,-728.515625,-93.75,0.0
1676923133.9961061,650.87890625,16.11328125,-868.65234375,-384.27734375,0.0
1676923134.0010242,-20.99609375,41.9921875,-346.19140625,-3.90625,0.0
1676923134.0059423,-806.640625,11.23046875,-227.5390625,322.265625,0.0
1676923134.0108604,-238.76953125,-4.8828125,-333.0078125,-18.5546875,0.0
1676923134.0133293,630.37109375,-1.46484375,-344.23828125,-397.94921875,0.0
1676923134.0157979,250.9765625,12.6953125,-303.7109375,-115.72265625,0.0
1676923134.0182667,-658.69140625,10.25390625,-359.375,308.10546875,0.0
1676923134.0207355,-462.890625,0.0,-353.02734375,123.53515625,0.0
1676923134.023204,480.95703125,-0.48828125,-353.515625,-338.37890625,0.0
1676923134.025673,525.87890625,-10.7421875,-574.21875,-303.22265625,0.0
1676923134.0281417,-404.78515625,-8.30078125,-627.44140625,157.2265625,0.0
1676923134.0306103,-677.24609375,3.41796875,-457.51953125,189.453125,0.0
1676923134.0330791,207.03125,13.671875,-390.13671875,-243.65234375,0.0
1676923134.035548,676.26953125,11.71875,-388.671875,-408.69140625,0.0
1676923134.0380166,-159.66796875,-21.97265625,-603.515625,57.12890625,0.0
1676923134.0404854,-780.76171875,0.0,-712.890625,295.8984375,0.0
1676923134.0442405,-40.0390625,45.41015625,-341.30859375,-130.37109375,0.0
1676923134.0479956,675.78125,25.87890625,-341.796875,-423.33984375,0.0
1676923134.0517507,33.203125,1.953125,-724.12109375,-17.578125,0.0
1676923134.0555058,-802.734375,20.01953125,-628.90625,318.359375,0.0
1676923134.0592608,-319.82421875,28.80859375,-192.87109375,-2.9296875,0.0
1676923134.063016,558.10546875,3.90625,-455.56640625,-394.53125,0.0
1676923134.0667713,273.92578125,3.90625,-846.6796875,-176.26953125,0.0
1676923134.0705264,-629.39453125,28.3203125,-582.51953125,245.1171875,0.0
1676923134.0742815,-541.9921875,28.80859375,-119.140625,124.51171875,0.0
1676923134.0780365,383.30078125,4.39453125,-334.47265625,-312.5,0.0
1676923134.0817916,502.9296875,-0.9765625,-525.390625,-304.6875,0.0
1676923134.0855467,-411.62109375,8.7890625,-438.96484375,169.43359375,0.0
1676923134.0893896,-728.02734375,17.578125,-254.8828125,234.86328125,0.0
1676923134.0932326,113.28125,-7.32421875,-417.48046875,-181.640625,0.0
1676923134.0970755,636.23046875,-27.83203125,-748.53515625,-367.67578125,0.0
1676923134.1009183,-140.625,-6.34765625,-459.9609375,48.828125,0.0
1676923134.1047614,-807.6171875,3.41796875,-204.58984375,292.96875,0.0
1676923134.1086042,-147.94921875,-23.92578125,-545.41015625,-71.77734375,0.0
1676923134.112447,619.62890625,-18.06640625,-861.328125,-408.203125,0.0
1676923134.11629,101.07421875,18.06640625,-460.9375,-88.8671875,0.0
1676923134.120133,-761.23046875,1.953125,-210.44921875,304.19921875,0.0
1676923134.1239758,-400.87890625,-5.859375,-422.36328125,44.921875,0.0
1676923134.1278188,511.23046875,-4.39453125,-533.203125,-371.58203125,0.0
1676923134.1316617,346.6796875,-3.90625,-421.875,-205.56640625,0.0
1676923134.1365607,-591.30859375,-3.41796875,-304.19921875,244.140625,0.0
1676923134.1414597,-628.90625,-9.765625,-336.9140625,187.5,0.0
1676923134.1463587,304.19921875,-17.578125,-550.78125,-261.23046875,0.0
1676923134.1512578,582.03125,-12.20703125,-594.7265625,-325.1953125,0.0
1676923134.1561568,-304.19921875,-18.06640625,-356.93359375,149.4140625,0.0
1676923134.1610556,-790.52734375,-51.26953125,-681.15234375,314.94140625,0.0
1676923134.1659546,23.92578125,-6.34765625,-851.07421875,-136.23046875,0.0
1676923134.1708536,665.0390625,37.59765625,-431.640625,-411.62109375,0.0
1676923134.1757526,-64.94140625,9.765625,-392.08984375,14.6484375,0.0
1676923134.1806517,-817.3828125,0.48828125,-417.48046875,312.01171875,0.0
1676923134.1855507,-197.265625,14.6484375,-339.84375,-48.828125,0.0
1676923134.1904497,627.44140625,19.04296875,-391.11328125,-407.71484375,0.0
1676923134.1942077,177.734375,0.48828125,-535.15625,-103.515625,0.0
1676923134.1979656,-698.73046875,-2.9296875,-462.890625,295.41015625,0.0
1676923134.2017236,-428.22265625,18.06640625,-257.8125,63.4765625,0.0
1676923134.2054818,494.140625,14.6484375,-323.73046875,-372.0703125,0.0
1676923134.2092397,459.9609375,-1.46484375,-587.890625,-266.11328125,0.0
1676923134.2129977,-471.19140625,-6.8359375,-646.484375,193.359375,0.0
1676923134.2167556,-647.94921875,-1.953125,-454.1015625,208.0078125,0.0
1676923134.2205136,250.0,18.5546875,-489.2578125,-245.60546875,0.0
1676923134.2242718,606.4453125,1.953125,-800.78125,-373.046875,0.0
1676923134.2280297,-247.0703125,-7.8125,-936.5234375,99.12109375,0.0
1676923134.2317877,-775.87890625,25.390625,-492.67578125,287.59765625,0.0
1676923134.2355456,19.53125,17.08984375,-282.2265625,-132.32421875,0.0
1676923134.2392871,704.1015625,8.7890625,-529.78515625,-415.0390625,0.0
1676923134.2430289,38.57421875,16.11328125,-473.6328125,-23.92578125,0.0
1676923134.2467704,-738.28125,7.32421875,-209.47265625,313.96484375,0.0
1676923134.250512,-202.63671875,-0.9765625,-288.57421875,-6.34765625,0.0
1676923134.2542536,638.671875,11.71875,-513.18359375,-393.5546875,0.0
1676923134.2579951,275.390625,25.87890625,-601.5625,-134.765625,0.0
1676923134.2617366,-635.25390625,36.62109375,-424.31640625,279.78515625,0.0
1676923134.2654784,-481.93359375,22.94921875,-268.06640625,118.65234375,0.0
1676923134.2692199,446.2890625,10.7421875,-752.44140625,-315.4296875,0.0
1676923134.2729614,526.85546875,55.6640625,-854.4921875,-275.87890625,0.0
1676923134.2767031,-383.30078125,64.94140625,-289.0625,187.5,0.0
1676923134.2804446,-671.38671875,28.80859375,-255.37109375,249.51171875,0.0
1676923134.284191,221.19140625,19.53125,-569.3359375,-194.3359375,0.0
1676923134.2879372,699.70703125,41.50390625,-510.7421875,-380.37109375,0.0
1676923134.2916837,-128.41796875,51.7578125,-278.80859375,55.6640625,0.0
1676923134.29543,-762.20703125,45.41015625,-274.90234375,294.921875,0.0
1676923134.2991762,-41.50390625,35.15625,-375.48828125,-100.09765625,0.0
1676923134.3029227,683.59375,26.85546875,-510.7421875,-423.33984375,0.0
1676923134.306669,72.265625,15.13671875,-534.1796875,-72.75390625,0.0
1676923134.3104153,-781.25,-8.30078125,-577.63671875,298.828125,0.0
1676923134.3141615,-335.44921875,-5.37109375,-693.359375,12.20703125,0.0
1676923134.3179078,593.75,35.64453125,-378.41796875,-421.875,0.0
1676923134.3216543,352.05078125,46.875,-308.10546875,-207.03125,0.0
1676923134.3254006,-590.8203125,26.85546875,-341.796875,243.65234375,0.0
1676923134.329255,-548.33984375,8.30078125,-342.7734375,130.37109375,0.0
1676923134.3331096,381.8359375,16.11328125,-337.40234375,-320.80078125,0.0
1676923134.3369641,536.62109375,8.7890625,-385.7421875,-334.47265625,0.0
1676923134.3408184,-401.85546875,-0.9765625,-529.296875,124.0234375,0.0
1676923134.344673,-798.33984375,0.9765625,-410.15625,234.375,0.0
1676923134.3485274,62.01171875,-9.27734375,-430.6640625,-199.21875,0.0
1676923134.352382,617.1875,-16.6015625,-585.9375,-426.26953125,0.0
1676923134.3562365,-157.71484375,-16.6015625,-783.203125,13.18359375,0.0
1676923134.3600907,-857.91015625,18.06640625,-542.48046875,271.97265625,0.0
1676923134.3639452,-187.5,27.83203125,-188.4765625,-110.3515625,0.0
1676923134.3677998,596.19140625,-3.90625,-458.984375,-441.89453125,0.0
1676923134.3716543,70.3125,-5.37109375,-505.859375,-112.79296875,0.0
1676923134.375321,-791.50390625,4.39453125,-227.5390625,268.06640625,0.0
1676923134.3789878,-461.42578125,-6.34765625,-119.140625,32.2265625,0.0
1676923134.3826544,412.59765625,-19.04296875,-434.08203125,-363.76953125,0.0
1676923134.386321,273.92578125,-14.6484375,-660.15625,-213.37890625,0.0
1676923134.3899877,-644.04296875,-3.90625,-365.234375,228.515625,0.0
1676923134.3936543,-724.12109375,-2.9296875,-263.18359375,185.05859375,0.0
1676923134.3973212,195.80078125,-6.8359375,-645.99609375,-255.859375,0.0
1676923134.4009879,481.93359375,-0.48828125,-988.28125,-329.1015625,0.0
1676923134.4046545,-362.3046875,34.1796875,-520.5078125,114.74609375,0.0
1676923134.4083214,-812.98828125,34.66796875,-105.46875,264.6484375,0.0
1676923134.411988,-5.859375,17.578125,-345.21484375,-150.87890625,0.0
1676923134.4156547,636.71875,11.71875,-461.9140625,-412.109375,0.0
1676923134.4193878,-40.0390625,28.80859375,-291.50390625,1.46484375,0.0
1676923134.4231207,-779.296875,26.3671875,-208.984375,303.7109375,0.0
1676923134.4268537,-202.1484375,16.11328125,-343.26171875,-52.24609375,0.0
1676923134.4305868,604.00390625,31.73828125,-420.8984375,-416.50390625,0.0
1676923134.43432,143.5546875,32.2265625,-410.15625,-111.328125,0.0
1676923134.438053,-761.71875,28.3203125,-434.08203125,306.640625,0.0
1676923134.4417858,-519.53125,23.4375,-772.94921875,114.74609375,0.0
1676923134.445519,407.71484375,38.0859375,-853.515625,-328.125,0.0
1676923134.4492521,410.15625,30.76171875,-433.10546875,-256.8359375,0.0
1676923134.452985,-518.06640625,-2.44140625,-368.65234375,219.7265625,0.0
1676923134.456718,-714.35546875,11.23046875,-401.85546875,233.3984375,0.0
1676923134.4604511,193.359375,35.15625,-345.21484375,-220.703125,0.0
1676923134.464206,580.078125,36.1328125,-352.5390625,-361.328125,0.0
1676923134.4679608,-303.22265625,17.08984375,-395.01953125,83.49609375,0.0
1676923134.471716,-889.6484375,23.92578125,-299.31640625,299.31640625,0.0
1676923134.4754708,-113.76953125,47.8515625,-208.984375,-98.6328125,0.0
1676923134.4792256,572.265625,46.875,-363.28125,-387.6953125,0.0
1676923134.4829807,-121.09375,18.06640625,-692.87109375,11.71875,0.0
1676923134.4867356,-930.6640625,20.99609375,-714.35546875,345.703125,0.0
1676923134.4904904,-379.39453125,62.98828125,-301.26953125,-5.859375,0.0
1676923134.4942453,511.23046875,56.640625,-309.08203125,-403.3203125,0.0
1676923134.4980001,184.08203125,45.8984375,-624.51171875,-155.2734375,0.0
1676923134.5017552,-722.16796875,53.7109375,-529.296875,246.09375,0.0
1676923134.50551,-569.3359375,54.19921875,-189.453125,70.3125,0.0
1676923134.510608,335.9375,45.41015625,-313.4765625,-349.609375,0.0
1676923134.5157056,369.62890625,42.96875,-682.12890625,-296.875,0.0
1676923134.5208035,-570.80078125,64.94140625,-534.1796875,156.73828125,0.0
1676923134.525901,-865.234375,65.4296875,-157.2265625,225.5859375,0.0
1676923134.530999,-0.9765625,48.828125,-292.96875,-190.91796875,0.0
1676923134.5360966,447.265625,39.0625,-680.6640625,-364.74609375,0.0
1676923134.5411944,-378.90625,36.62109375,-586.42578125,43.45703125,0.0
1676923134.5462923,-1000.0,17.578125,-212.890625,250.48828125,0.0
1676923134.55139,-291.015625,19.53125,-336.9140625,-149.90234375,0.0
1676923134.5564878,475.5859375,56.15234375,-770.01953125,-455.078125,0.0
1676923134.5615854,-98.14453125,75.1953125,-606.4453125,-92.7734375,0.0
1676923134.5666833,-911.62109375,62.5,-158.69140625,254.8828125,0.0
1676923134.5703623,-468.26171875,40.0390625,-312.5,-22.94921875,0.0
1676923134.5740414,409.1796875,40.0390625,-610.83984375,-407.71484375,0.0
1676923134.5777206,152.34375,72.265625,-460.44921875,-205.56640625,0.0
1676923134.5813997,-812.98828125,65.4296875,-187.01171875,232.91015625,0.0
1676923134.5850787,-830.078125,19.04296875,-369.62890625,160.15625,0.0
1676923134.588758,58.10546875,20.01953125,-757.32421875,-264.6484375,0.0
1676923134.592437,230.46875,59.5703125,-632.32421875,-299.31640625,0.0
1676923134.596116,-625.48828125,57.6171875,-261.71875,155.2734375,0.0
1676923134.599795,-1000.0,14.6484375,-422.8515625,262.6953125,0.0
1676923134.6034741,-189.453125,0.9765625,-962.890625,-173.33984375,0.0
1676923134.6071534,446.77734375,35.15625,-723.14453125,-426.7578125,0.0
1676923134.6108325,-297.36328125,34.1796875,-304.19921875,-17.578125,0.0
1676923134.6145494,-1000.0,29.296875,-267.08984375,248.53515625,0.0
1676923134.618266,-319.3359375,28.80859375,-270.5078125,-142.08984375,0.0
1676923134.621983,506.34765625,20.99609375,-303.22265625,-480.46875,0.0
1676923134.6257,1.953125,11.23046875,-360.3515625,-135.7421875,0.0
1676923134.629417,-859.375,-3.41796875,-434.08203125,254.39453125,0.0
1676923134.633134,-488.28125,-0.48828125,-500.48828125,14.6484375,0.0
1676923134.6368506,455.078125,4.39453125,-475.09765625,-393.06640625,0.0
1676923134.6405675,346.6796875,-8.7890625,-382.32421875,-237.3046875,0.0
1676923134.6442845,-598.6328125,-36.62109375,-744.62890625,223.6328125,0.0
1676923134.6480012,-691.40625,-9.27734375,-652.83203125,162.109375,0.0
1676923134.6517181,256.34765625,10.7421875,-281.25,-289.0625,0.0
1676923134.655435,552.24609375,-5.859375,-593.26171875,-350.5859375,0.0
1676923134.659186,-329.1015625,18.06640625,-541.9921875,112.79296875,0.0
1676923134.662937,-797.8515625,42.96875,-197.75390625,273.92578125,0.0
1676923134.6666877,46.38671875,26.3671875,-194.3359375,-147.4609375,0.0
1676923134.6704388,685.05859375,7.32421875,-476.5625,-395.99609375,0.0
1676923134.6741896,-45.41015625,2.9296875,-468.75,27.34375,0.0
1676923134.6779404,-784.66796875,-6.8359375,-322.75390625,324.70703125,0.0
1676923134.6816914,-153.80859375,0.9765625,-316.40625,-33.69140625,0.0
1676923134.6854422,694.3359375,-10.7421875,-602.5390625,-368.1640625,0.0
1676923134.6891932,246.09375,0.0,-941.40625,-53.22265625,0.0
1676923134.692944,-624.51171875,41.50390625,-392.578125,319.3359375,0.0
1676923134.696695,-360.83984375,33.69140625,-79.1015625,106.4453125,0.0
1676923134.700446,554.6875,29.78515625,-395.01953125,-316.89453125,0.0
1676923134.7041945,495.1171875,42.48046875,-443.84765625,-227.05078125,0.0
1676923134.7079432,-473.14453125,40.52734375,-161.1328125,226.07421875,0.0
1676923134.7116919,-660.15625,10.7421875,-132.32421875,230.46875,0.0
1676923134.7154405,244.62890625,4.8828125,-332.51953125,-214.35546875,0.0
1676923134.7191892,603.515625,19.53125,-465.8203125,-336.42578125,0.0
1676923134.722938,-266.6015625,15.13671875,-459.9609375,114.2578125,0.0
1676923134.7266867,-837.890625,18.06640625,-331.0546875,294.43359375,0.0
1676923134.7304354,-90.33203125,25.390625,-635.25390625,-108.3984375,0.0
1676923134.734184,597.16796875,53.22265625,-727.05078125,-392.08984375,0.0
1676923134.7379327,-65.4296875,57.6171875,-319.3359375,-19.53125,0.0
1676923134.7416813,-893.5546875,25.390625,-318.359375,308.59375,0.0
1676923134.74543,-374.51171875,24.4140625,-493.65234375,-12.6953125,0.0
1676923134.7491636,499.0234375,38.0859375,-441.40625,-402.34375,0.0
1676923134.752897,154.296875,34.1796875,-310.05859375,-149.4140625,0.0
1676923134.7566307,-752.44140625,11.71875,-427.24609375,281.73828125,0.0
1676923134.760364,-594.23828125,0.9765625,-586.42578125,116.69921875,0.0
1676923134.7640977,351.07421875,21.484375,-444.82421875,-324.21875,0.0
1676923134.7678313,412.59765625,29.296875,-539.55078125,-267.578125,0.0
1676923134.7715647,-536.1328125,19.04296875,-731.4453125,187.01171875,0.0
1676923134.7752984,-822.265625,13.671875,-730.46875,240.72265625,0.0
1676923134.7790318,100.09765625,42.48046875,-408.203125,-213.8671875,0.0
1676923134.7827654,583.984375,30.2734375,-415.52734375,-398.92578125,0.0
1676923134.7864988,-236.328125,8.30078125,-491.69921875,43.9453125,0.0
1676923134.7902324,-862.79296875,15.625,-318.359375,266.6015625,0.0
1676923134.794051,-130.859375,20.99609375,-236.81640625,-124.51171875,0.0
1676923134.7978694,628.90625,-7.8125,-445.80078125,-422.8515625,0.0
1676923134.8016877,37.59765625,-21.484375,-662.109375,-57.6171875,0.0
1676923134.8055062,-777.34375,13.18359375,-393.5546875,276.3671875,0.0
1676923134.8093247,-299.31640625,23.92578125,-188.4765625,-19.04296875,0.0
1676923134.8131433,586.9140625,-1.46484375,-466.796875,-387.6953125,0.0
1676923134.8169618,320.80078125,-16.11328125,-840.33203125,-170.41015625,0.0
1676923134.8207803,-590.33203125,8.30078125,-597.65625,251.46484375,0.0
1676923134.8245988,-531.73828125,12.6953125,-72.75390625,142.08984375,0.0
1676923134.828417,402.83203125,-22.94921875,-286.62109375,-290.52734375,0.0
1676923134.8322356,603.02734375,-35.64453125,-510.25390625,-331.54296875,0.0
1676923134.836054,-296.38671875,-13.18359375,-278.3203125,89.84375,0.0
1676923134.839759,-703.125,-3.90625,-85.44921875,181.640625,0.0
1676923134.8434641,135.7421875,-21.484375,-313.96484375,-230.46875,0.0
1676923134.8471692,715.8203125,-16.6015625,-544.43359375,-408.203125,0.0
1676923134.8508742,-30.76171875,-0.48828125,-289.55078125,35.15625,0.0
1676923134.8545792,-748.046875,-7.8125,-186.03515625,314.94140625,0.0
1676923134.8582842,-157.2265625,-9.765625,-547.8515625,-36.62109375,0.0
1676923134.8619893,541.9921875,9.765625,-859.375,-377.44140625,0.0
1676923134.8656943,-52.24609375,42.48046875,-565.4296875,-50.29296875,0.0
1676923134.8693993,-952.1484375,52.734375,-151.3671875,329.58984375,0.0
1676923134.8731043,-604.4921875,8.30078125,-499.51171875,92.28515625,0.0
1676923134.8768094,342.28515625,-2.9296875,-876.46484375,-317.3828125,0.0
1676923134.8805144,274.90234375,29.296875,-476.07421875,-212.890625,0.0
1676923134.8855066,-644.53125,11.71875,-237.79296875,203.125,0.0
1676923134.8904986,-704.58984375,-4.39453125,-294.43359375,141.11328125,0.0
1676923134.8954906,262.6953125,-0.48828125,-400.390625,-309.08203125,0.0
1676923134.900483,578.125,16.6015625,-392.08984375,-396.97265625,0.0
1676923134.9054751,-304.6875,4.8828125,-289.55078125,45.41015625,0.0
1676923134.9104671,-812.01171875,-25.87890625,-404.78515625,214.84375,0.0
1676923134.9154592,21.97265625,0.9765625,-444.3359375,-195.80078125,0.0
1676923134.9204514,669.43359375,25.87890625,-347.65625,-443.359375,0.0
1676923134.9254436,-48.33984375,9.27734375,-441.89453125,-20.01953125,0.0
1676923134.9304357,-798.828125,9.27734375,-426.7578125,292.48046875,0.0
1676923134.9354277,-186.5234375,30.2734375,-251.46484375,-49.8046875,0.0
1676923134.94042,651.85546875,45.41015625,-262.20703125,-407.71484375,0.0
1676923134.944172,188.4765625,22.4609375,-416.015625,-109.86328125,0.0
1676923134.9479237,-714.84375,4.39453125,-738.76953125,289.0625,0.0
1676923134.9516757,-467.28515625,41.015625,-485.3515625,54.19921875,0.0
1676923134.9554276,450.1953125,36.1328125,-203.125,-373.53515625,0.0
1676923134.9591794,432.12890625,16.6015625,-471.6796875,-270.01953125,0.0
1676923134.9629314,-509.27734375,10.25390625,-531.73828125,188.96484375,0.0
1676923134.9666834,-701.66015625,20.01953125,-326.66015625,204.58984375,0.0
1676923134.9704351,232.421875,28.80859375,-146.484375,-231.93359375,0.0
1676923134.9741871,627.9296875,-4.39453125,-569.3359375,-344.7265625,0.0
1676923134.9779391,-243.1640625,3.41796875,-777.34375,111.328125,0.0
1676923134.981691,-810.546875,40.52734375,-197.265625,296.875,0.0
1676923134.9854429,-29.296875,18.5546875,-192.87109375,-112.79296875,0.0
1676923134.9891908,658.203125,11.23046875,-623.046875,-389.6484375,0.0
1676923134.9929385,-3.41796875,44.43359375,-511.23046875,-12.20703125,0.0
1676923134.9966865,-775.390625,59.08203125,-73.2421875,318.359375,0.0
1676923135.0004344,-240.72265625,24.90234375,-112.79296875,-3.41796875,0.0
1676923135.004182,619.140625,6.8359375,-416.015625,-365.234375,0.0
1676923135.00793,286.1328125,20.5078125,-541.015625,-71.2890625,0.0
1676923135.011678,-622.0703125,46.875,-320.3125,310.546875,0.0
1676923135.0154257,-496.58203125,30.2734375,-118.1640625,145.01953125,0.0
1676923135.0191736,402.34375,-18.06640625,-651.85546875,-268.06640625,0.0
1676923135.0229216,500.9765625,32.71484375,-744.140625,-274.90234375,0.0
1676923135.0266693,-398.4375,69.82421875,-180.6640625,171.38671875,0.0
1676923135.0304172,-716.30859375,42.96875,-176.7578125,231.4453125,0.0
1676923135.0341692,183.10546875,34.1796875,-383.7890625,-195.3125,0.0
1676923135.0379214,712.40234375,37.109375,-388.18359375,-379.39453125,0.0
1676923135.0416734,-100.5859375,28.3203125,-316.89453125,51.7578125,0.0
1676923135.0454254,-740.234375,-10.25390625,-412.59765625,303.7109375,0.0
1676923135.0491774,-9.27734375,-25.87890625,-559.08203125,-90.8203125,0.0
1676923135.0529294,727.5390625,11.71875,-571.2890625,-394.53125,0.0
1676923135.0566816,138.18359375,37.109375,-395.99609375,-43.45703125,0.0
1676923135.0604336,-711.42578125,13.18359375,-431.640625,306.15234375,0.0
1676923135.0641856,-275.87890625,-1.953125,-648.4375,17.08984375,0.0
1676923135.0679379,634.27734375,30.2734375,-371.58203125,-404.296875,0.0
1676923135.0716898,387.20703125,23.4375,-360.83984375,-199.70703125,0.0
1676923135.0754418,-551.7578125,19.04296875,-382.32421875,240.72265625,0.0
1676923135.07917,-512.20703125,31.73828125,-226.5625,145.5078125,0.0
1676923135.0828981,431.640625,33.69140625,-199.70703125,-288.57421875,0.0
1676923135.086626,635.7421875,26.3671875,-369.140625,-324.70703125,0.0
1676923135.0903542,-312.98828125,17.08984375,-354.4921875,134.27734375,0.0
1676923135.0940824,-593.75,11.71875,-215.8203125,194.82421875,0.0
1676923135.0978105,329.58984375,14.16015625,-432.6171875,-254.39453125,0.0
1676923135.1015387,738.76953125,28.3203125,-523.4375,-399.4140625,0.0
1676923135.1052668,-8.7890625,11.71875,-803.22265625,37.109375,0.0
1676923135.108995,-650.87890625,45.8984375,-716.796875,281.73828125,0.0
1676923135.1127229,46.875,86.42578125,-138.18359375,-109.375,0.0
1676923135.116451,820.80078125,37.59765625,-345.21484375,-426.26953125,0.0
1676923135.1201792,268.06640625,43.45703125,-449.70703125,-106.4453125,0.0
1676923135.1239514,-650.87890625,82.51953125,-169.43359375,261.23046875,0.0
1676923135.1277237,-361.81640625,79.1015625,-41.50390625,27.83203125,0.0
1676923135.131496,484.375,56.15234375,-378.41796875,-374.51171875,0.0
1676923135.1352682,315.4296875,55.6640625,-609.375,-245.1171875,0.0
1676923135.1390405,-608.88671875,67.87109375,-241.2109375,186.03515625,0.0
1676923135.1428127,-670.8984375,61.03515625,-193.84765625,153.80859375,0.0
1676923135.1465852,276.85546875,43.9453125,-604.4921875,-270.01953125,0.0
1676923135.1503575,601.07421875,60.05859375,-825.68359375,-348.6328125,0.0
1676923135.1541297,-249.51171875,94.23828125,-334.47265625,93.26171875,0.0
1676923135.157902,-736.328125,70.80078125,-180.17578125,245.1171875,0.0
1676923135.1616743,69.82421875,54.6875,-552.24609375,-158.69140625,0.0
1676923135.1654465,698.73046875,55.17578125,-582.03125,-405.2734375,0.0
1676923135.169191,-27.83203125,66.89453125,-232.421875,-13.18359375,0.0
1676923135.1729355,-792.48046875,71.77734375,-124.0234375,302.734375,0.0
1676923135.1766798,-198.2421875,65.91796875,-243.65234375,-40.52734375,0.0
1676923135.1804242,634.27734375,62.5,-309.08203125,-392.08984375,0.0
1676923135.1841686,212.40234375,69.82421875,-261.23046875,-109.86328125,0.0
1676923135.187913,-672.8515625,54.6875,-232.421875,270.5078125,0.0
1676923135.1916575,-440.91796875,35.15625,-633.30078125,96.19140625,0.0
1676923135.195402,482.91015625,70.3125,-684.08203125,-327.1484375,0.0
1676923135.1991463,468.75,87.890625,-309.5703125,-263.671875,0.0
1676923135.2028909,-475.09765625,59.5703125,-303.7109375,197.75390625,0.0
1676923135.2066352,-675.29296875,49.8046875,-267.08984375,230.46875,0.0
1676923135.2103796,247.0703125,60.05859375,-228.515625,-215.33203125,0.0
1676923135.2142756,663.0859375,59.08203125,-412.109375,-348.14453125,0.0
1676923135.2181718,-177.734375,47.8515625,-530.76171875,94.23828125,0.0
1676923135.2220678,-746.09375,43.45703125,-437.01171875,289.55078125,0.0
1676923135.2259638,29.296875,53.7109375,-281.73828125,-110.3515625,0.0
1676923135.22986,721.19140625,50.29296875,-333.0078125,-387.6953125,0.0
1676923135.233756,43.9453125,17.578125,-627.44140625,-7.32421875,0.0
1676923135.237652,-785.64453125,26.3671875,-647.94921875,310.546875,0.0
1676923135.2415483,-235.83984375,55.17578125,-248.046875,-17.578125,0.0
1676923135.2454443,663.0859375,24.90234375,-252.44140625,-389.16015625,0.0
1676923135.2493403,317.87109375,4.8828125,-593.26171875,-137.20703125,0.0
1676923135.2532365,-604.4921875,19.53125,-485.3515625,273.92578125,0.0
1676923135.2571325,-461.42578125,31.25,-132.8125,113.76953125,0.0
1676923135.2619922,463.8671875,11.23046875,-265.625,-305.17578125,0.0
1676923135.266852,553.7109375,19.53125,-572.265625,-267.578125,0.0
1676923135.2717118,-371.09375,44.43359375,-412.109375,164.0625,0.0
1676923135.2765715,-702.63671875,35.15625,-219.23828125,223.6328125,0.0
1676923135.2814312,185.546875,36.1328125,-386.71875,-203.61328125,0.0
1676923135.286291,662.109375,14.16015625,-798.33984375,-356.93359375,0.0
1676923135.2911506,-166.50390625,25.87890625,-802.24609375,63.96484375,0.0
1676923135.2960103,-766.6015625,70.80078125,-185.546875,273.4375,0.0
1676923135.30087,-33.203125,39.0625,-217.28515625,-98.6328125,0.0
1676923135.3057299,709.47265625,38.57421875,-496.58203125,-402.34375,0.0
1676923135.3105896,126.953125,58.10546875,-330.078125,-64.453125,0.0
1676923135.3154492,-687.01171875,53.7109375,-89.35546875,281.25,0.0
1676923135.3191988,-240.72265625,41.015625,-263.671875,15.13671875,0.0
1676923135.3229487,644.04296875,55.17578125,-508.7890625,-373.046875,0.0
1676923135.3266983,402.83203125,74.70703125,-369.62890625,-183.59375,0.0
1676923135.330448,-541.50390625,60.546875,-148.4375,246.58203125,0.0
1676923135.3341978,-537.109375,45.8984375,-229.4921875,160.64453125,0.0
1676923135.3379474,398.92578125,42.96875,-535.15625,-253.90625,0.0
1676923135.341697,614.74609375,44.43359375,-638.671875,-275.87890625,0.0
1676923135.3454468,-275.87890625,60.546875,-334.47265625,158.203125,0.0
1676923135.3491964,-692.3828125,45.8984375,-320.80078125,297.36328125,0.0
1676923135.352946,142.578125,21.484375,-779.296875,-104.00390625,0.0
1676923135.356696,729.98046875,45.41015625,-520.99609375,-348.6328125,0.0
1676923135.3604455,-25.87890625,37.59765625,-197.75390625,55.6640625,0.0
1676923135.36419,-730.95703125,43.45703125,-181.15234375,319.3359375,0.0
1676923135.3679345,-74.70703125,45.8984375,-164.55078125,-50.29296875,0.0
1676923135.371679,709.47265625,30.2734375,-248.046875,-386.71875,0.0
1676923135.3754237,189.94140625,20.99609375,-300.78125,-68.84765625,0.0
1676923135.379168,-703.125,9.765625,-302.734375,300.29296875,0.0
1676923135.3829126,-405.76171875,11.71875,-372.0703125,63.4765625,0.0
1676923135.3866572,510.7421875,24.4140625,-399.4140625,-353.515625,0.0
1676923135.3904016,389.6484375,31.25,-360.3515625,-218.75,0.0
1676923135.3941462,-508.7890625,23.92578125,-574.21875,210.44921875,0.0
1676923135.3978908,-597.65625,35.64453125,-475.5859375,169.43359375,0.0
1676923135.4016352,256.8359375,52.734375,-258.7890625,-247.55859375,0.0
1676923135.4053798,567.3828125,41.015625,-431.15234375,-330.078125,0.0
1676923135.4091673,-304.6875,29.78515625,-571.77734375,121.09375,0.0
1676923135.412955,-778.80859375,65.4296875,-226.07421875,269.04296875,0.0
1676923135.4167426,44.43359375,57.6171875,-65.4296875,-131.8359375,0.0
1676923135.4205303,673.828125,31.73828125,-356.93359375,-366.2109375,0.0
1676923135.4243178,-37.59765625,44.921875,-343.26171875,22.4609375,0.0
1676923135.4281054,-791.50390625,44.921875,-266.6015625,307.6171875,0.0
1676923135.431893,-199.70703125,47.8515625,-213.8671875,-40.0390625,0.0
1676923135.4356806,622.0703125,32.71484375,-484.86328125,-378.90625,0.0
1676923135.4394684,188.96484375,31.73828125,-750.48828125,-84.9609375,0.0
1676923135.443256,-679.19921875,63.4765625,-187.01171875,284.66796875,0.0
1676923135.4470437,-432.12890625,44.43359375,-23.4375,90.33203125,0.0
1676923135.4508312,480.95703125,31.25,-300.29296875,-324.21875,0.0
1676923135.4546483,474.609375,41.015625,-385.7421875,-238.76953125,0.0
1676923135.4584653,-449.70703125,51.26953125,-277.34375,204.58984375,0.0
1676923135.4622824,-671.875,44.921875,-119.62890625,210.44921875,0.0
1676923135.4660995,222.16796875,31.25,-302.734375,-202.1484375,0.0
1676923135.4699166,635.25390625,48.33984375,-439.453125,-323.2421875,0.0
1676923135.473734,-206.0546875,47.36328125,-363.28125,113.28125,0.0
1676923135.477551,-783.203125,42.48046875,-244.62890625,319.82421875,0.0
1676923135.481368,-33.69140625,14.6484375,-591.30859375,-56.640625,0.0
1676923135.4851851,659.1796875,44.921875,-743.65234375,-350.09765625,0.0
1676923135.4890022,17.08984375,92.28515625,-194.3359375,1.46484375,0.0
1676923135.4928193,-792.96875,60.546875,-158.69140625,329.1015625,0.0
1676923135.4966364,-280.76171875,51.7578125,-270.01953125,14.6484375,0.0
1676923135.5002873,594.7265625,60.05859375,-252.44140625,-360.3515625,0.0
1676923135.503938,277.83203125,53.22265625,-229.4921875,-129.8828125,0.0
1676923135.5075889,-647.94921875,48.828125,-228.02734375,279.78515625,0.0
1676923135.5112398,-475.5859375,47.36328125,-249.51171875,130.859375,0.0
1676923135.5148904,488.76953125,43.45703125,-332.03125,-295.41015625,0.0
1676923135.5185413,560.05859375,49.31640625,-453.61328125,-247.55859375,0.0
1676923135.5221922,-355.95703125,45.41015625,-526.3671875,194.3359375,0.0
1676923135.525843,-673.828125,46.38671875,-705.56640625,253.41796875,0.0
1676923135.5294938,226.5625,82.51953125,-422.36328125,-185.05859375,0.0
1676923135.5331447,745.1171875,66.89453125,-243.1640625,-369.62890625,0.0
1676923135.5367954,-51.26953125,48.33984375,-332.51953125,59.5703125,0.0
1676923135.5404463,-701.66015625,56.15234375,-173.33984375,296.38671875,0.0
1676923135.5441935,21.97265625,62.5,-41.50390625,-84.9609375,0.0
1676923135.5479407,790.52734375,40.52734375,-230.46875,-386.71875,0.0
1676923135.551688,237.79296875,31.73828125,-368.1640625,-52.734375,0.0
1676923135.5554352,-584.9609375,57.12890625,-149.4140625,293.9453125,0.0
1676923135.5591824,-157.71484375,52.734375,-55.6640625,31.73828125,0.0
1676923135.5629296,726.07421875,37.59765625,-335.44921875,-351.5625,0.0
1676923135.5666766,480.46875,38.57421875,-766.6015625,-166.50390625,0.0
1676923135.5704238,-450.68359375,58.10546875,-669.43359375,241.69921875,0.0
1676923135.574171,-450.1953125,70.80078125,-162.59765625,147.4609375,0.0
1676923135.5779183,449.70703125,50.78125,-230.95703125,-259.27734375,0.0
1676923135.5816655,645.5078125,51.26953125,-546.875,-274.4140625,0.0
1676923135.5854127,-273.92578125,78.125,-323.73046875,152.83203125,0.0
1676923135.589265,-743.1640625,68.84765625,-20.01953125,274.90234375,0.0
1676923135.5931172,83.984375,55.6640625,-220.703125,-112.3046875,0.0
1676923135.5969696,667.96875,49.31640625,-440.91796875,-333.0078125,0.0
1676923135.600822,-61.5234375,60.05859375,-229.98046875,48.828125,0.0
1676923135.6046743,-743.65234375,66.40625,-47.36328125,316.40625,0.0
1676923135.6085267,-104.4921875,37.59765625,-406.73828125,-29.78515625,0.0
1676923135.6123788,672.8515625,42.96875,-674.8046875,-370.1171875,0.0
1676923135.6162312,167.48046875,81.0546875,-322.265625,-83.0078125,0.0
1676923135.6200836,-707.51953125,81.0546875,-72.265625,283.69140625,0.0
1676923135.6239357,-381.8359375,61.5234375,-328.125,63.96484375,0.0
1676923135.627788,520.5078125,58.59375,-625.48828125,-338.8671875,0.0
1676923135.6316404,404.296875,94.7265625,-427.24609375,-220.703125,0.0
1676923135.6365707,-534.66796875,110.3515625,-161.1328125,212.40234375,0.0
1676923135.641501,-659.1796875,97.16796875,-237.3046875,190.91796875,0.0
1676923135.646431,261.23046875,91.30859375,-341.796875,-236.328125,0.0
1676923135.6513612,590.33203125,92.7734375,-318.359375,-335.44921875,0.0
1676923135.6562915,-280.2734375,96.6796875,-195.80078125,92.7734375,0.0
1676923135.6612217,-817.3828125,67.87109375,-553.7109375,282.2265625,0.0
1676923135.666152,-14.16015625,75.1953125,-767.08984375,-123.046875,0.0
1676923135.6710823,652.34375,104.4921875,-334.47265625,-398.92578125,0.0
1676923135.6760125,-63.4765625,104.00390625,-329.58984375,-9.27734375,0.0
1676923135.6809425,-822.265625,95.703125,-333.0078125,284.66796875,0.0
1676923135.6858728,-214.35546875,104.98046875,-203.125,-57.12890625,0.0
1676923135.690803,631.34765625,114.74609375,-225.09765625,-411.62109375,0.0
1676923135.6945677,211.9140625,93.75,-400.390625,-133.7890625,0.0
1676923135.6983325,-700.1953125,83.49609375,-494.62890625,260.7421875,0.0
1676923135.7020972,-474.609375,94.23828125,-328.61328125,72.75390625,0.0
1676923135.7058618,474.609375,107.421875,-228.02734375,-348.6328125,0.0
1676923135.7096267,483.3984375,88.8671875,-493.65234375,-265.13671875,0.0
1676923135.7133913,-449.70703125,71.2890625,-682.6171875,183.10546875,0.0
1676923135.717156,-663.0859375,95.703125,-336.42578125,195.80078125,0.0
1676923135.7209208,243.65234375,91.796875,-174.8046875,-228.515625,0.0
1676923135.7246854,633.7890625,49.31640625,-604.4921875,-347.65625,0.0
1676923135.72845,-229.98046875,48.828125,-829.58984375,70.80078125,0.0
1676923135.732215,-815.91796875,102.5390625,-272.4609375,244.62890625,0.0
1676923135.7359796,-73.2421875,85.44921875,-147.4609375,-132.8125,0.0
1676923135.7396848,614.74609375,69.3359375,-478.515625,-388.18359375,0.0
1676923135.74339,-18.5546875,91.796875,-425.29296875,-27.83203125,0.0
1676923135.7470953,-822.265625,93.26171875,-136.23046875,269.04296875,0.0
1676923135.7508006,-304.19921875,75.1953125,-162.59765625,-37.59765625,0.0
1676923135.7545059,588.37890625,65.4296875,-454.1015625,-398.4375,0.0
1676923135.7582111,280.2734375,62.5,-554.6875,-196.2890625,0.0
1676923135.7619164,-636.23046875,64.453125,-425.29296875,202.63671875,0.0
1676923135.7656217,-521.484375,74.70703125,-270.5078125,82.51953125,0.0
1676923135.769327,401.85546875,47.36328125,-693.359375,-304.19921875,0.0
1676923135.7730322,508.30078125,49.31640625,-834.47265625,-270.01953125,0.0
1676923135.7767375,-419.921875,72.265625,-205.56640625,158.69140625,0.0
1676923135.7804427,-795.41015625,44.921875,-170.8984375,254.39453125,0.0
1676923135.7841933,48.33984375,38.57421875,-588.37890625,-161.62109375,0.0
1676923135.787944,566.40625,69.3359375,-503.41796875,-379.39453125,0.0
1676923135.7916946,-207.03125,69.82421875,-225.09765625,10.25390625,0.0
1676923135.7954452,-870.60546875,54.6875,-262.6953125,240.72265625,0.0
1676923135.799196,-167.96875,58.10546875,-328.61328125,-136.71875,0.0
1676923135.8029466,587.40234375,52.24609375,-506.34765625,-432.12890625,0.0
1676923135.8066971,23.92578125,64.94140625,-411.1328125,-93.75,0.0
1676923135.810448,-838.8671875,47.36328125,-371.58203125,264.16015625,0.0
1676923135.8141985,-467.28515625,36.62109375,-691.40625,16.6015625,0.0
1676923135.817949,414.55078125,76.171875,-440.4296875,-379.39453125,0.0
1676923135.8216999,172.36328125,47.8515625,-235.3515625,-205.078125,0.0
1676923135.8254504,-797.36328125,20.5078125,-456.0546875,220.21484375,0.0
1676923135.82921,-815.4296875,39.55078125,-440.91796875,141.6015625,0.0
1676923135.83297,125.48828125,47.36328125,-286.62109375,-298.33984375,0.0
1676923135.8367295,391.11328125,44.43359375,-425.29296875,-346.19140625,0.0
1676923135.8404891,-480.46875,40.0390625,-398.92578125,77.1484375,0.0
1676923135.844249,-914.0625,38.57421875,-208.0078125,177.734375,0.0
1676923135.8480086,-44.921875,38.0859375,-377.9296875,-227.5390625,0.0
1676923135.8517683,577.1484375,32.71484375,-610.3515625,-443.359375,0.0
1676923135.855528,-149.90234375,16.6015625,-791.015625,-45.8984375,0.0
1676923135.8592877,-814.94140625,31.25,-526.3671875,207.51953125,0.0
1676923135.8630474,-139.6484375,50.29296875,-127.44140625,-155.76171875,0.0
1676923135.8668072,659.66796875,43.9453125,-386.71875,-464.84375,0.0
1676923135.8705668,178.7109375,51.7578125,-572.75390625,-141.6015625,0.0
1676923135.8755884,-677.24609375,57.12890625,-321.2890625,240.234375,0.0
1676923135.8806102,-337.40234375,51.26953125,-76.171875,31.25,0.0
1676923135.8856318,569.3359375,35.64453125,-380.37109375,-339.84375,0.0
1676923135.8906536,455.078125,32.71484375,-632.32421875,-215.8203125,0.0
1676923135.8956752,-465.33203125,52.734375,-256.8359375,190.91796875,0.0
1676923135.9006968,-586.42578125,47.36328125,-163.57421875,173.33984375,0.0
1676923135.9057186,329.1015625,24.90234375,-580.56640625,-230.46875,0.0
1676923135.9107401,676.7578125,40.52734375,-802.24609375,-337.890625,0.0
1676923135.915762,-160.64453125,78.61328125,-333.49609375,64.453125,0.0
1676923135.9207835,-662.59765625,76.66015625,-46.875,245.1171875,0.0
1676923135.9258053,138.18359375,52.24609375,-268.5546875,-141.6015625,0.0
1676923135.930827,788.0859375,40.52734375,-410.15625,-392.08984375,0.0
1676923135.9332645,102.05078125,52.24609375,-199.70703125,-6.34765625,0.0
1676923135.935702,-659.1796875,44.921875,-36.62109375,288.57421875,0.0
1676923135.9381397,-93.75,31.73828125,-274.90234375,-33.203125,0.0
1676923135.9405773,723.6328125,38.0859375,-436.5234375,-384.27734375,0.0
1676923135.9430149,296.38671875,34.1796875,-281.73828125,-132.8125,0.0
1676923135.9454527,-630.859375,22.94921875,-293.9453125,249.51171875,0.0
1676923135.9478903,-441.89453125,42.48046875,-376.46484375,78.125,0.0
1676923135.9503279,479.98046875,59.08203125,-365.72265625,-326.66015625,0.0
1676923135.9527655,494.62890625,55.17578125,-308.59375,-260.25390625,0.0
1676923135.955203,-445.3125,44.921875,-228.515625,148.92578125,0.0
1676923135.9576406,-719.23828125,29.78515625,-612.79296875,195.3125,0.0
1676923135.9600782,176.26953125,58.10546875,-642.578125,-208.984375,0.0
1676923135.9638603,614.2578125,69.3359375,-287.109375,-370.1171875,0.0
1676923135.9676423,-233.88671875,40.0390625,-349.12109375,40.52734375,0.0
1676923135.971424,-829.58984375,35.64453125,-289.0625,251.46484375,0.0
1676923135.9752061,-78.125,49.31640625,-171.38671875,-134.27734375,0.0
1676923135.9789882,581.54296875,58.59375,-277.83203125,-375.9765625,0.0
1676923135.98277,-48.828125,29.296875,-580.56640625,2.9296875,0.0
1676923135.986552,-801.26953125,29.296875,-689.453125,274.4140625,0.0
1676923135.990334,-317.87109375,51.7578125,-375.0,-37.109375,0.0
1676923135.994116,544.921875,22.4609375,-247.0703125,-404.296875,0.0
1676923135.997898,257.32421875,6.8359375,-611.81640625,-177.24609375,0.0
1676923136.00168,-654.78515625,42.48046875,-625.0,212.890625,0.0
1676923136.005462,-564.94140625,62.01171875,-137.6953125,78.125,0.0
1676923136.0105164,360.3515625,32.71484375,-210.44921875,-310.546875,0.0
1676923136.0155709,504.39453125,31.25,-438.4765625,-307.6171875,0.0
1676923136.0206254,-374.0234375,44.43359375,-270.99609375,86.9140625,0.0
1676923136.0256798,-715.33203125,42.48046875,-90.8203125,170.41015625,0.0
1676923136.0307343,122.55859375,24.90234375,-235.83984375,-224.12109375,0.0
1676923136.0357888,627.44140625,20.01953125,-595.703125,-405.76171875,0.0
1676923136.0408432,-105.46875,49.8046875,-539.0625,-34.66796875,0.0
1676923136.0458977,-740.234375,69.3359375,-124.51171875,190.4296875,0.0
1676923136.0509522,-121.09375,48.828125,-141.6015625,-128.90625,0.0
1676923136.0560067,597.16796875,11.23046875,-756.34765625,-389.6484375,0.0
1676923136.0610611,141.11328125,35.64453125,-731.93359375,-120.60546875,0.0
1676923136.0661156,-649.90234375,55.6640625,-92.28515625,175.78125,0.0
1676923136.0697885,-365.72265625,18.5546875,-170.41015625,-2.9296875,0.0
1676923136.0734615,422.8515625,-1.953125,-416.015625,-337.40234375,0.0
1676923136.0771344,310.546875,22.4609375,-295.41015625,-240.234375,0.0
1676923136.0808072,-526.85546875,38.0859375,-116.69921875,116.69921875,0.0
1676923136.08448,-615.234375,25.87890625,-201.66015625,84.47265625,0.0
1676923136.088153,245.1171875,11.23046875,-473.14453125,-312.5,0.0
1676923136.091826,555.6640625,18.5546875,-492.1875,-414.55078125,0.0
1676923136.0954988,-242.67578125,33.69140625,-167.96875,-48.828125,0.0
1676923136.0991716,-706.0546875,-8.7890625,-295.8984375,120.60546875,0.0
1676923136.1028447,75.68359375,-9.27734375,-690.4296875,-191.89453125,0.0
1676923136.1065176,680.17578125,43.45703125,-397.94921875,-415.52734375,0.0
1676923136.1101904,-36.62109375,20.5078125,-187.98828125,-58.10546875,0.0
1676923136.114066,-819.3359375,-7.8125,-306.640625,224.12109375,0.0
1676923136.1179414,-318.359375,-9.27734375,-293.9453125,-81.54296875,0.0
1676923136.1218169,434.5703125,-14.6484375,-231.4453125,-395.5078125,0.0
1676923136.1256924,29.296875,-26.85546875,-289.55078125,-139.6484375,0.0
1676923136.1295679,-808.59375,-29.296875,-380.859375,212.890625,0.0
1676923136.1334434,-568.359375,-21.484375,-434.5703125,40.0390625,0.0
1676923136.1373186,322.75390625,-2.9296875,-398.92578125,-351.5625,0.0
1676923136.141194,360.83984375,-3.90625,-373.046875,-302.734375,0.0
1676923136.1450696,-469.23828125,-33.69140625,-618.65234375,79.1015625,0.0
1676923136.148945,-646.484375,4.39453125,-486.328125,73.73046875,0.0
1676923136.1528206,178.7109375,34.66796875,-155.2734375,-315.91796875,0.0
1676923136.156696,537.59765625,16.11328125,-367.1875,-432.12890625,0.0
1676923136.1603415,-185.05859375,18.06640625,-391.6015625,-69.3359375,0.0
1676923136.1639867,-692.87109375,29.78515625,-163.0859375,125.9765625,0.0
1676923136.167632,-59.08203125,22.4609375,-145.5078125,-151.85546875,0.0
1676923136.1712775,520.5078125,-5.37109375,-453.125,-363.28125,0.0
1676923136.174923,55.6640625,-0.9765625,-492.1875,-106.93359375,0.0
1676923136.1785684,-550.78125,8.7890625,-326.66015625,120.60546875,0.0
1676923136.1822135,-272.94921875,12.20703125,-330.078125,-37.59765625,0.0
1676923136.185859,232.91015625,-7.8125,-499.0234375,-228.515625,0.0
1676923136.1895044,104.98046875,-18.5546875,-957.51953125,-126.46484375,0.0
1676923136.1931496,-341.796875,36.1328125,-553.22265625,22.94921875,0.0
1676923136.196795,-276.85546875,27.83203125,-61.03515625,-34.1796875,0.0
1676923136.2004404,165.0390625,-4.39453125,-252.9296875,-167.96875,0.0
1676923136.2041907,196.2890625,13.671875,-274.4140625,-137.6953125,0.0
1676923136.207941,-188.96484375,26.85546875,-129.39453125,12.20703125,0.0
1676923136.2116914,-296.875,17.08984375,-96.19140625,17.08984375,0.0
1676923136.2154417,104.00390625,18.5546875,-218.75,-118.65234375,0.0
1676923136.219192,275.390625,29.296875,-242.67578125,-151.3671875,0.0
1676923136.2229424,-93.75,26.85546875,-309.5703125,-6.8359375,0.0
1676923136.226693,-362.79296875,37.109375,-323.2421875,42.48046875,0.0
1676923136.2304432,-49.31640625,15.13671875,-679.19921875,-73.73046875,0.0
1676923136.2341936,251.46484375,20.01953125,-799.8046875,-174.31640625,0.0
1676923136.237944,-7.8125,55.6640625,-209.47265625,-70.3125,0.0
1676923136.2416942,-377.44140625,20.5078125,-186.03515625,34.1796875,0.0
1676923136.2454445,-158.69140625,-1.953125,-325.68359375,-70.80078125,0.0
1676923136.2491937,240.72265625,13.671875,-230.95703125,-197.265625,0.0
1676923136.2529428,115.234375,0.48828125,-129.39453125,-102.05078125,0.0
1676923136.256692,-308.59375,-7.8125,-250.9765625,60.546875,0.0
1676923136.260441,-277.34375,36.1328125,-326.171875,10.25390625,0.0
1676923136.2641902,148.4375,49.31640625,-260.25390625,-141.11328125,0.0
1676923136.2679396,193.84765625,41.015625,-388.18359375,-124.51171875,0.0
1676923136.2716887,-219.7265625,19.04296875,-579.58984375,49.8046875,0.0
1676923136.2754378,-375.0,1.46484375,-674.8046875,63.4765625,0.0
1676923136.279187,51.7578125,43.45703125,-327.1484375,-99.609375,0.0
1676923136.282936,277.83203125,37.59765625,-199.70703125,-145.5078125,0.0
1676923136.2866852,-82.03125,7.8125,-446.77734375,28.80859375,0.0
1676923136.2904344,-376.953125,26.85546875,-367.1875,104.00390625,0.0
1676923136.294187,-55.6640625,40.52734375,-164.55078125,-37.59765625,0.0
1676923136.29794,273.92578125,33.69140625,-236.81640625,-115.234375,0.0
1676923136.3016927,8.30078125,27.34375,-405.76171875,14.6484375,0.0
1676923136.3054457,-372.55859375,31.73828125,-308.59375,116.2109375,0.0
1676923136.3091984,-177.24609375,42.96875,-180.17578125,17.08984375,0.0
1676923136.312951,236.328125,41.50390625,-395.5078125,-112.79296875,0.0
1676923136.316704,145.99609375,11.71875,-790.52734375,-40.0390625,0.0
1676923136.3204567,-265.13671875,19.53125,-667.48046875,83.984375,0.0
1676923136.3242097,-242.67578125,46.38671875,-187.5,24.4140625,0.0
1676923136.3279624,194.82421875,35.64453125,-298.33984375,-126.953125,0.0
1676923136.3317153,298.33984375,41.9921875,-513.18359375,-130.859375,0.0
1676923136.335468,-87.890625,68.359375,-309.08203125,36.62109375,0.0
1676923136.339339,-287.59765625,75.1953125,-99.609375,58.10546875,0.0
1676923136.3432102,69.3359375,41.015625,-369.140625,-97.16796875,0.0
1676923136.3470812,308.59375,25.390625,-589.84375,-161.62109375,0.0
1676923136.3509524,-5.859375,44.43359375,-290.52734375,-20.01953125,0.0
1676923136.3548234,-328.125,45.8984375,-142.578125,53.7109375,0.0
1676923136.3586946,-61.5234375,29.296875,-488.28125,-60.05859375,0.0
1676923136.3625655,294.43359375,42.48046875,-645.5078125,-180.17578125,0.0
1676923136.3664365,108.3984375,72.265625,-297.36328125,-67.87109375,0.0
1676923136.3703077,-291.50390625,61.03515625,-110.3515625,64.94140625,0.0
1676923136.3741786,-196.2890625,28.3203125,-429.19921875,-10.25390625,0.0
1676923136.3780499,206.54296875,38.0859375,-684.08203125,-142.578125,0.0
1676923136.3819208,193.359375,62.98828125,-307.6171875,-99.609375,0.0
1676923136.3867962,-234.86328125,31.73828125,-157.71484375,56.15234375,0.0
1676923136.3916717,-332.03125,16.6015625,-318.84765625,44.921875,0.0
1676923136.3965468,95.21484375,24.4140625,-333.0078125,-106.93359375,0.0
1676923136.4014223,281.73828125,27.34375,-240.234375,-149.4140625,0.0
1676923136.4062977,-107.91015625,13.18359375,-279.78515625,28.3203125,0.0
1676923136.411173,-410.64453125,-10.7421875,-615.234375,118.65234375,0.0
1676923136.4160485,-37.59765625,18.5546875,-674.31640625,-44.921875,0.0
1676923136.420924,338.37890625,53.7109375,-333.0078125,-196.2890625,0.0
1676923136.4257994,38.57421875,30.2734375,-309.08203125,-53.22265625,0.0
1676923136.4306746,-415.52734375,11.71875,-554.6875,93.26171875,0.0
1676923136.43555,-180.17578125,29.296875,-419.921875,-44.43359375,0.0
1676923136.4404254,330.078125,15.13671875,-206.54296875,-229.4921875,0.0
1676923136.444169,228.02734375,10.25390625,-373.046875,-139.6484375,0.0
1676923136.4479127,-296.38671875,31.73828125,-395.5078125,67.87109375,0.0
1676923136.4516566,-277.34375,36.1328125,-231.93359375,22.4609375,0.0
1676923136.4554002,307.6171875,22.94921875,-181.640625,-196.77734375,0.0
1676923136.4591439,437.01171875,10.25390625,-354.00390625,-196.77734375,0.0
1676923136.4628878,-137.20703125,12.6953125,-524.90234375,40.52734375,0.0
1676923136.4666314,-399.4140625,31.73828125,-342.7734375,108.88671875,0.0
1676923136.470375,143.5546875,32.71484375,-278.80859375,-107.421875,0.0
1676923136.4741187,507.8125,10.25390625,-649.90234375,-225.5859375,0.0
1676923136.4778624,29.78515625,25.87890625,-934.5703125,-2.9296875,0.0
1676923136.4816062,-428.22265625,62.01171875,-440.91796875,131.8359375,0.0
1676923136.48535,-2.44140625,49.8046875,-153.3203125,-64.94140625,0.0
1676923136.4890912,540.52734375,43.45703125,-427.24609375,-262.20703125,0.0
1676923136.4928324,211.9140625,47.8515625,-384.765625,-61.03515625,0.0
1676923136.4965737,-444.82421875,48.828125,-168.45703125,192.3828125,0.0
1676923136.500315,-204.58984375,55.17578125,-168.9453125,49.31640625,0.0
1676923136.5040562,494.62890625,57.6171875,-370.60546875,-227.05078125,0.0
1676923136.5077972,385.25390625,32.2265625,-500.48828125,-135.25390625,0.0
1676923136.5115385,-365.234375,20.5078125,-391.11328125,172.36328125,0.0
1676923136.5152798,-431.640625,29.78515625,-254.39453125,155.76171875,0.0
1676923136.519021,297.8515625,27.34375,-646.484375,-155.2734375,0.0
1676923136.5227623,482.91015625,56.640625,-667.96875,-222.65625,0.0
1676923136.5265036,-225.5859375,55.6640625,-263.671875,93.26171875,0.0
1676923136.5302448,-582.51953125,24.4140625,-353.515625,200.1953125,0.0
1676923136.5340521,81.0546875,22.4609375,-469.7265625,-104.00390625,0.0
1676923136.5378594,598.14453125,53.22265625,-368.65234375,-308.59375,0.0
1676923136.5416665,-3.41796875,66.40625,-188.4765625,-19.53125,0.0
1676923136.5454738,-648.92578125,35.64453125,-229.00390625,214.84375,0.0
1676923136.5492811,-141.6015625,23.92578125,-370.1171875,-36.1328125,0.0
1676923136.5530884,555.6640625,30.2734375,-507.32421875,-304.19921875,0.0
1676923136.5568957,174.8046875,42.96875,-382.8125,-83.0078125,0.0
1676923136.560703,-601.07421875,24.4140625,-383.7890625,230.95703125,0.0
1676923136.5645103,-377.9296875,16.6015625,-631.8359375,62.5,0.0
1676923136.5683174,435.05859375,44.43359375,-345.703125,-292.48046875,0.0
1676923136.5721247,376.46484375,24.4140625,-242.67578125,-195.80078125,0.0
1676923136.575932,-449.70703125,21.484375,-306.640625,152.34375,0.0
1676923136.5797062,-571.2890625,37.59765625,-208.0078125,132.32421875,0.0
1676923136.5834804,226.5625,33.69140625,-201.66015625,-220.21484375,0.0
1676923136.5872545,524.4140625,21.97265625,-420.41015625,-299.8046875,0.0
1676923136.5910287,-225.09765625,33.69140625,-548.33984375,66.89453125,0.0
1676923136.5948029,-688.4765625,45.41015625,-347.16796875,211.42578125,0.0
1676923136.598577,12.20703125,41.015625,-311.03515625,-126.953125,0.0
1676923136.602351,590.8203125,35.15625,-479.00390625,-353.02734375,0.0
1676923136.606125,-22.94921875,5.859375,-683.10546875,-21.97265625,0.0
1676923136.6098993,-711.42578125,26.3671875,-468.75,227.5390625,0.0
1676923136.6136734,-195.3125,61.03515625,-71.77734375,-52.24609375,0.0
1676923136.6174476,546.875,45.8984375,-296.875,-348.14453125,0.0
1676923136.6212218,184.08203125,36.62109375,-370.60546875,-122.55859375,0.0
1676923136.624907,-635.25390625,49.8046875,-150.390625,209.47265625,0.0
1676923136.6285925,-455.56640625,51.26953125,-41.50390625,59.5703125,0.0
1676923136.632278,367.1875,16.6015625,-313.4765625,-301.7578125,0.0
1676923136.6359632,371.58203125,8.7890625,-466.796875,-243.1640625,0.0
1676923136.6396484,-467.28515625,27.83203125,-238.28125,126.953125,0.0
1676923136.643334,-668.45703125,16.11328125,-240.234375,135.7421875,0.0
1676923136.6470194,163.57421875,-7.8125,-517.578125,-226.07421875,0.0
1676923136.6507046,511.71875,-7.8125,-990.234375,-342.28515625,0.0
1676923136.6543899,-259.27734375,47.36328125,-612.3046875,17.08984375,0.0
1676923136.6580753,-775.87890625,50.29296875,-35.15625,203.125,0.0
1676923136.6617608,-65.4296875,23.4375,-252.44140625,-140.625,0.0
1676923136.665446,574.21875,36.1328125,-375.9765625,-405.76171875,0.0
1676923136.6691961,-60.546875,38.0859375,-204.1015625,-67.87109375,0.0
1676923136.672946,-823.2421875,29.296875,-84.9609375,225.09765625,0.0
1676923136.6766958,-306.640625,10.7421875,-239.74609375,-49.31640625,0.0
1676923136.680446,519.53125,9.27734375,-333.984375,-377.9296875,0.0
1676923136.684196,184.5703125,20.5078125,-267.578125,-156.25,0.0
1676923136.6879458,-692.87109375,10.25390625,-272.94921875,227.5390625,0.0
1676923136.6916957,-557.6171875,9.765625,-584.47265625,84.9609375,0.0
1676923136.6954458,354.4921875,41.9921875,-622.0703125,-333.0078125,0.0
1676923136.6991959,451.66015625,59.5703125,-375.48828125,-303.7109375,0.0
1676923136.7029457,-437.5,43.9453125,-355.95703125,114.74609375,0.0
1676923136.7066956,-716.30859375,40.0390625,-311.03515625,155.76171875,0.0
1676923136.7104456,153.80859375,54.19921875,-257.8125,-244.140625,0.0
1676923136.714192,610.83984375,44.921875,-245.60546875,-385.25390625,0.0
1676923136.7179382,-178.22265625,29.296875,-325.68359375,22.4609375,0.0
1676923136.7216845,-784.1796875,34.66796875,-227.5390625,238.28125,0.0
1676923136.7254307,-68.84765625,40.0390625,-85.9375,-109.375,0.0
1676923136.729177,641.6015625,28.3203125,-189.94140625,-377.9296875,0.0
1676923136.7329233,41.015625,10.7421875,-542.48046875,-35.15625,0.0
1676923136.7366695,-759.27734375,14.16015625,-633.7890625,269.53125,0.0
1676923136.7404158,-279.78515625,41.9921875,-205.56640625,-17.578125,0.0
1676923136.744162,573.73046875,41.50390625,-170.41015625,-361.328125,0.0
1676923136.7479084,298.33984375,20.99609375,-420.41015625,-161.62109375,0.0
1676923136.7516546,-606.93359375,31.25,-342.7734375,210.9375,0.0
1676923136.755401,-550.29296875,40.52734375,-191.40625,97.65625,0.0
1676923136.7592764,356.93359375,25.87890625,-349.12109375,-275.390625,0.0
1676923136.763152,503.90625,25.87890625,-616.2109375,-269.04296875,0.0
1676923136.7670274,-373.046875,39.0625,-436.03515625,128.41796875,0.0
1676923136.770903,-736.81640625,39.55078125,-44.921875,214.84375,0.0
1676923136.7747786,99.12109375,16.11328125,-192.87109375,-168.45703125,0.0
1676923136.778654,625.0,6.34765625,-524.4140625,-332.03125,0.0
1676923136.7825296,-107.91015625,13.671875,-429.19921875,68.359375,0.0
1676923136.786405,-759.27734375,8.7890625,-51.26953125,280.76171875,0.0
1676923136.7902808,-129.39453125,-2.9296875,-86.42578125,-64.94140625,0.0
1676923136.7941563,611.81640625,-1.953125,-665.0390625,-337.890625,0.0
1676923136.7980318,114.74609375,36.62109375,-604.4921875,-43.9453125,0.0
1676923136.8019073,-698.73046875,45.8984375,-50.29296875,271.97265625,0.0
1676923136.8067853,-331.0546875,14.16015625,-188.4765625,33.69140625,0.0
1676923136.8116634,472.16796875,13.671875,-455.56640625,-300.78125,0.0
1676923136.8165414,286.1328125,30.76171875,-452.63671875,-135.25390625,0.0
1676923136.8214195,-540.0390625,37.59765625,-269.04296875,222.65625,0.0
1676923136.8262975,-613.28125,11.23046875,-278.3203125,180.6640625,0.0
1676923136.8311753,271.484375,-9.765625,-699.21875,-216.30859375,0.0
1676923136.8360534,558.10546875,25.390625,-568.84765625,-306.15234375,0.0
1676923136.8409314,-308.10546875,34.66796875,-171.38671875,87.890625,0.0
1676923136.8458095,-799.8046875,2.44140625,-341.30859375,232.421875,0.0
1676923136.8506875,1.46484375,3.41796875,-564.453125,-142.08984375,0.0
1676923136.8555655,613.76953125,30.76171875,-329.1015625,-361.81640625,0.0
1676923136.8604436,-108.3984375,16.11328125,-221.6796875,6.34765625,0.0
1676923136.8641732,-834.9609375,11.71875,-242.67578125,271.484375,0.0
1676923136.8679025,-217.28515625,22.94921875,-231.4453125,-40.0390625,0.0
1676923136.871632,588.8671875,32.2265625,-249.0234375,-353.02734375,0.0
1676923136.8753617,147.94921875,28.3203125,-290.0390625,-97.65625,0.0
1676923136.879091,-719.7265625,17.08984375,-283.69140625,242.1875,0.0
1676923136.8828206,-455.078125,13.18359375,-351.5625,48.828125,0.0
1676923136.8865502,450.68359375,4.8828125,-521.484375,-326.171875,0.0
1676923136.8902795,406.25,18.06640625,-511.23046875,-234.375,0.0
1676923136.894009,-524.90234375,19.53125,-731.4453125,167.48046875,0.0
1676923136.8977387,-698.2421875,35.15625,-728.02734375,166.015625,0.0
1676923136.901468,211.9140625,62.01171875,-207.03125,-236.328125,0.0
1676923136.9051976,558.59375,24.4140625,-365.234375,-337.40234375,0.0
1676923136.9089668,-275.390625,5.37109375,-484.375,53.22265625,0.0
1676923136.9127362,-786.1328125,27.34375,-135.7421875,217.7734375,0.0
1676923136.9165053,-9.765625,23.92578125,-47.8515625,-146.484375,0.0
1676923136.9202745,641.11328125,-8.7890625,-373.53515625,-389.16015625,0.0
1676923136.924044,-1.46484375,-13.18359375,-425.29296875,-41.50390625,0.0
1676923136.927813,-760.25390625,-12.6953125,-262.20703125,242.67578125,0.0
1676923136.9315822,-248.046875,5.859375,-224.609375,-61.5234375,0.0
1676923136.9353516,552.24609375,-0.9765625,-514.6484375,-389.16015625,0.0
1676923136.9391208,182.6171875,-3.90625,-763.18359375,-140.625,0.0
1676923136.94289,-685.05859375,21.97265625,-377.9296875,220.21484375,0.0
1676923136.9466593,-518.06640625,14.16015625,-144.53125,76.171875,0.0
1676923136.9504285,369.62890625,-1.953125,-461.9140625,-300.29296875,0.0
1676923136.9541671,427.24609375,0.0,-601.07421875,-258.30078125,0.0
1676923136.9579055,-460.9375,15.13671875,-215.33203125,133.7890625,0.0
1676923136.9616442,-747.0703125,2.9296875,-133.7890625,169.921875,0.0
1676923136.9653826,118.1640625,0.48828125,-304.6875,-229.98046875,0.0
1676923136.9691212,565.91796875,4.39453125,-499.0234375,-395.99609375,0.0
1676923136.9728599,-237.3046875,4.39453125,-447.75390625,-9.765625,0.0
1676923136.9765983,-838.8671875,-5.859375,-266.11328125,197.265625,0.0
1676923136.980337,-124.51171875,-27.83203125,-614.2578125,-133.30078125,0.0
1676923136.9840753,586.42578125,4.39453125,-682.12890625,-385.7421875,0.0
1676923136.987814,-12.20703125,26.85546875,-206.0546875,-48.828125,0.0
1676923136.9915524,-856.4453125,-6.8359375,-157.71484375,262.20703125,0.0
1676923136.995291,-433.10546875,-6.34765625,-241.69921875,-23.4375,0.0
1676923136.99913,415.52734375,4.8828125,-381.8359375,-395.5078125,0.0
1676923137.0029693,162.109375,16.6015625,-353.515625,-226.07421875,0.0
1676923137.0068083,-721.19140625,9.765625,-265.13671875,161.1328125,0.0
1676923137.0106475,-654.78515625,-7.8125,-392.08984375,79.58984375,0.0
1676923137.0144866,256.34765625,9.765625,-353.515625,-315.91796875,0.0
1676923137.0183258,405.2734375,4.39453125,-433.10546875,-330.078125,0.0
1676923137.0221648,-485.83984375,-13.671875,-581.54296875,80.078125,0.0
1676923137.0260038,-862.3046875,-20.99609375,-633.30078125,175.29296875,0.0
1676923137.029843,-31.73828125,8.7890625,-306.640625,-224.609375,0.0
1676923137.033682,473.6328125,3.90625,-277.34375,-414.55078125,0.0
1676923137.0375214,-276.3671875,5.37109375,-412.59765625,-25.87890625,0.0
1676923137.0413604,-927.24609375,32.2265625,-212.40234375,219.23828125,0.0
1676923137.0462868,-265.625,36.62109375,-118.1640625,-121.09375,0.0
1676923137.0512133,489.74609375,23.92578125,-312.98828125,-418.45703125,0.0
1676923137.0561397,-22.94921875,21.97265625,-408.203125,-119.62890625,0.0
1676923137.0610662,-851.5625,23.4375,-341.796875,199.70703125,0.0
1676923137.0659926,-477.05078125,17.578125,-328.61328125,-37.109375,0.0
1676923137.070919,422.8515625,14.16015625,-416.015625,-407.71484375,0.0
1676923137.0758455,274.90234375,-3.41796875,-807.12890625,-257.32421875,0.0
1676923137.080772,-607.91015625,27.83203125,-796.875,125.0,0.0
1676923137.0856984,-622.55859375,61.03515625,-167.48046875,48.33984375,0.0
1676923137.0906248,291.50390625,13.671875,-216.796875,-330.078125,0.0
1676923137.0955513,567.87109375,9.765625,-472.16796875,-380.859375,0.0
1676923137.1004777,-275.87890625,41.015625,-268.5546875,15.13671875,0.0
1676923137.1029806,-721.19140625,43.9453125,-62.5,161.62109375,0.0
1676923137.1054833,96.19140625,35.64453125,-291.9921875,-181.15234375,0.0
1676923137.107986,694.3359375,34.1796875,-486.328125,-399.4140625,0.0
1676923137.110489,-5.859375,29.296875,-239.74609375,-40.52734375,0.0
1676923137.1129918,-725.5859375,28.80859375,-113.28125,250.9765625,0.0
1676923137.1154945,-144.53125,21.484375,-373.53515625,-48.33984375,0.0
1676923137.1179972,634.765625,16.6015625,-623.046875,-361.328125,0.0
1676923137.1205,203.61328125,21.97265625,-481.93359375,-88.37890625,0.0
1676923137.123003,-641.6015625,33.203125,-89.35546875,265.13671875,0.0
1676923137.1255057,-389.16015625,-5.859375,-297.8515625,91.796875,0.0
1676923137.1280084,493.65234375,-22.4609375,-866.69921875,-279.296875,0.0
1676923137.1305113,456.54296875,35.15625,-520.01953125,-217.28515625,0.0
1676923137.1354997,-444.82421875,28.80859375,-104.98046875,176.26953125,0.0
1676923137.1404881,-628.41796875,5.37109375,-173.828125,179.6875,0.0
1676923137.1454766,241.69921875,15.13671875,-216.30859375,-220.21484375,0.0
1676923137.150465,608.3984375,12.20703125,-205.078125,-323.2421875,0.0
1676923137.1554534,-218.26171875,1.46484375,-207.03125,82.51953125,0.0
1676923137.1604419,-768.06640625,-3.41796875,-324.70703125,258.7890625,0.0
1676923137.1654303,-7.32421875,0.0,-352.05078125,-97.16796875,0.0
1676923137.1704187,652.34375,-4.39453125,-240.72265625,-343.26171875,0.0
1676923137.1754072,-1.46484375,-21.484375,-269.53125,0.48828125,0.0
1676923137.1803956,-774.4140625,-15.13671875,-480.95703125,287.109375,0.0
1676923137.185384,-254.8828125,7.8125,-504.39453125,-9.27734375,0.0
1676923137.1903725,574.70703125,21.484375,-293.9453125,-335.44921875,0.0
1676923137.1941311,220.21484375,-16.6015625,-347.65625,-99.12109375,0.0
1676923137.19789,-664.0625,-24.4140625,-440.4296875,266.11328125,0.0
1676923137.2016487,-512.6953125,5.859375,-221.19140625,111.328125,0.0
1676923137.2054076,377.9296875,-11.71875,-201.171875,-264.16015625,0.0
1676923137.2091663,454.58984375,-25.87890625,-418.45703125,-223.14453125,0.0
1676923137.212925,-273.4375,-26.3671875,-540.52734375,94.7265625,0.0
1676923137.2166839,-514.6484375,-9.765625,-368.65234375,132.8125,0.0
1676923137.2204425,6.8359375,-5.859375,-182.12890625,-90.33203125,0.0
1676923137.2242014,344.23828125,-48.828125,-523.4375,-188.96484375,0.0
1676923137.22796,-105.46875,-48.33984375,-753.41796875,22.4609375,0.0
1676923137.231719,-541.9921875,-3.90625,-235.83984375,142.578125,0.0
1676923137.2354777,-169.43359375,-26.3671875,-118.1640625,-38.57421875,0.0
1676923137.2393243,334.9609375,-49.8046875,-382.32421875,-214.35546875,0.0
1676923137.2431712,23.4375,-47.8515625,-470.703125,-40.52734375,0.0
1676923137.2470179,-637.6953125,-27.34375,-265.13671875,188.4765625,0.0
1676923137.2508645,-361.81640625,-7.32421875,-139.6484375,20.99609375,0.0
1676923137.2547114,412.109375,-17.08984375,-474.12109375,-296.875,0.0
1676923137.258558,264.6484375,-17.578125,-660.64453125,-182.12890625,0.0
1676923137.2624047,-567.3828125,-9.765625,-401.3671875,164.55078125,0.0
1676923137.2662516,-591.30859375,-13.671875,-172.8515625,105.95703125,0.0
1676923137.2700982,262.6953125,-39.0625,-582.03125,-246.58203125,0.0
1676923137.2739449,487.79296875,-27.34375,-661.1328125,-293.9453125,0.0
1676923137.2777917,-313.96484375,-15.625,-158.69140625,72.265625,0.0
1676923137.2816384,-699.70703125,-29.78515625,-155.76171875,195.3125,0.0
1676923137.285288,74.21875,-16.6015625,-297.36328125,-153.3203125,0.0
1676923137.288938,622.0703125,-2.9296875,-290.0390625,-344.7265625,0.0
1676923137.2925878,-49.31640625,-13.18359375,-210.44921875,-14.6484375,0.0
1676923137.2962377,-716.30859375,-27.34375,-252.44140625,191.40625,0.0
1676923137.2998874,-140.13671875,-34.66796875,-375.48828125,-125.0,0.0
1676923137.3035374,604.98046875,-31.73828125,-468.75,-399.4140625,0.0
1676923137.307187,207.51953125,-12.6953125,-439.453125,-121.58203125,0.0
1676923137.3108368,-558.10546875,-15.625,-432.12890625,225.5859375,0.0
1676923137.3144867,-299.31640625,-30.76171875,-759.765625,62.01171875,0.0
1676923137.3181365,494.62890625,-6.8359375,-520.99609375,-289.0625,0.0
1676923137.3217864,385.7421875,-4.39453125,-215.33203125,-200.1953125,0.0
1676923137.325436,-473.14453125,2.9296875,-300.78125,156.73828125,0.0
1676923137.3291829,-653.80859375,10.7421875,-179.19921875,161.62109375,0.0
1676923137.3329298,56.640625,-6.8359375,-162.109375,-157.2265625,0.0
1676923137.3366766,376.953125,-21.484375,-345.703125,-250.0,0.0
1676923137.3404236,-205.078125,-8.30078125,-344.7265625,28.80859375,0.0
1676923137.3441703,-604.98046875,0.9765625,-241.69921875,138.671875,0.0
1676923137.347917,-55.6640625,-20.5078125,-366.69921875,-106.4453125,0.0
1676923137.351664,471.6796875,-20.5078125,-438.4765625,-287.109375,0.0
1676923137.3554108,78.125,-26.3671875,-740.72265625,-76.171875,0.0
1676923137.3591578,-458.0078125,-11.71875,-645.5078125,111.81640625,0.0
1676923137.3629045,-123.53515625,5.37109375,-84.9609375,-68.359375,0.0
1676923137.3666515,449.21875,-27.83203125,-265.13671875,-285.15625,0.0
1676923137.3703983,245.60546875,-28.3203125,-472.16796875,-131.8359375,0.0
1676923137.3741431,-369.62890625,7.8125,-246.09375,115.72265625,0.0
1676923137.3778882,-313.4765625,12.6953125,-52.734375,39.0625,0.0
1676923137.381633,296.875,-11.23046875,-305.17578125,-203.125,0.0
1676923137.385378,342.28515625,0.0,-716.796875,-191.40625,0.0
1676923137.3891227,-266.11328125,29.296875,-484.86328125,51.26953125,0.0
1676923137.3928676,-464.84375,12.6953125,-253.41796875,108.88671875,0.0
1676923137.3966126,116.69921875,-18.5546875,-489.2578125,-109.86328125,0.0
1676923137.4003575,455.56640625,-29.296875,-728.515625,-238.28125,0.0
1676923137.4041023,-94.7265625,10.25390625,-317.3828125,-13.671875,0.0
1676923137.4078474,-564.453125,5.37109375,-18.06640625,146.484375,0.0
1676923137.4115922,-53.7109375,-14.6484375,-265.625,-63.4765625,0.0
1676923137.415337,524.4140625,-0.9765625,-439.453125,-262.6953125,0.0
1676923137.4191873,137.20703125,14.6484375,-206.54296875,-47.8515625,0.0
1676923137.4230375,-488.28125,-14.6484375,-56.15234375,176.7578125,0.0
1676923137.4268875,-206.54296875,-41.9921875,-338.37890625,24.4140625,0.0
1676923137.4307377,456.0546875,-1.953125,-414.55078125,-228.02734375,0.0
1676923137.434588,308.10546875,20.5078125,-209.9609375,-133.30078125,0.0
1676923137.4384382,-399.90234375,9.27734375,-224.12109375,151.85546875,0.0
1676923137.4422884,-411.62109375,-11.23046875,-515.13671875,120.60546875,0.0
1676923137.4461386,322.265625,2.44140625,-538.0859375,-189.94140625,0.0
1676923137.4499888,502.44140625,17.578125,-199.21875,-229.00390625,0.0
1676923137.4538388,-240.234375,5.37109375,-198.73046875,81.54296875,0.0
1676923137.457689,-576.66015625,15.625,-189.94140625,165.52734375,0.0
1676923137.4615393,94.23828125,24.90234375,-124.0234375,-117.67578125,0.0
1676923137.4664521,527.34375,12.20703125,-147.94921875,-263.18359375,0.0
1676923137.471365,-74.21875,2.44140625,-289.0625,29.78515625,0.0
1676923137.4762778,-647.94921875,5.859375,-360.83984375,228.515625,0.0
1676923137.4811907,-111.328125,14.16015625,-201.171875,-28.3203125,0.0
1676923137.4861035,539.55078125,7.8125,-193.359375,-289.0625,0.0
1676923137.4910164,122.55859375,-25.87890625,-468.26171875,-45.41015625,0.0
1676923137.4959292,-613.76953125,-29.296875,-833.0078125,246.58203125,0.0
1676923137.500842,-303.22265625,26.3671875,-472.16796875,28.80859375,0.0
1676923137.505755,487.79296875,22.94921875,-153.80859375,-288.57421875,0.0
1676923137.5106678,336.42578125,-4.39453125,-387.20703125,-141.6015625,0.0
1676923137.5155807,-478.515625,-2.44140625,-251.953125,196.77734375,0.0
1676923137.5204935,-499.0234375,-14.16015625,-56.15234375,140.625,0.0
1676923137.5242422,307.6171875,-26.85546875,-208.0078125,-208.984375,0.0
1676923137.5279906,502.9296875,-23.92578125,-391.11328125,-247.0703125,0.0
1676923137.5317392,-285.64453125,-14.6484375,-306.640625,108.88671875,0.0
1676923137.535488,-677.24609375,-7.32421875,-98.6328125,217.7734375,0.0
1676923137.5392363,73.73046875,-19.53125,-210.44921875,-125.9765625,0.0
1676923137.542985,602.5390625,-28.80859375,-510.7421875,-315.4296875,0.0
1676923137.5467336,-75.68359375,-29.78515625,-556.15234375,21.484375,0.0
1676923137.550482,-722.16796875,-30.2734375,-314.94140625,250.48828125,0.0
1676923137.5542307,-90.33203125,-22.94921875,-183.10546875,-74.21875,0.0
1676923137.5579793,629.8828125,-56.640625,-742.67578125,-357.91015625,0.0
1676923137.5617278,113.76953125,-25.390625,-810.546875,-73.2421875,0.0
1676923137.5654764,-693.359375,25.87890625,-123.53515625,225.09765625,0.0
1676923137.5692263,-335.44921875,-1.46484375,-162.59765625,16.11328125,0.0
1676923137.5729759,537.59765625,-3.90625,-408.203125,-320.80078125,0.0
1676923137.5767255,378.41796875,-2.44140625,-312.01171875,-196.2890625,0.0
1676923137.5804753,-527.83203125,-10.7421875,-150.390625,174.31640625,0.0
1676923137.5842252,-587.890625,-27.83203125,-191.89453125,134.27734375,0.0
1676923137.5879748,310.546875,-48.828125,-501.46484375,-257.32421875,0.0
1676923137.5917244,584.9609375,-25.87890625,-524.90234375,-322.265625,0.0
1676923137.5954742,-242.67578125,-8.7890625,-226.5625,62.01171875,0.0
1676923137.599224,-715.33203125,-39.55078125,-368.1640625,210.44921875,0.0
1676923137.6029737,50.29296875,-45.8984375,-833.984375,-130.37109375,0.0
1676923137.6067233,674.31640625,10.7421875,-616.2109375,-361.328125,0.0
1676923137.6104732,-1.953125,21.484375,-228.515625,-11.71875,0.0
1676923137.6142335,-704.58984375,-2.44140625,-215.8203125,242.67578125,0.0
1676923137.6179938,-109.375,-6.34765625,-249.0234375,-62.5,0.0
1676923137.6217544,667.96875,-8.30078125,-250.48828125,-366.2109375,0.0
1676923137.6255147,212.890625,-16.11328125,-291.9921875,-112.3046875,0.0
1676923137.629275,-649.90234375,-11.71875,-248.53515625,230.46875,0.0
1676923137.6330357,-391.6015625,-9.27734375,-315.4296875,62.01171875,0.0
1676923137.636796,494.62890625,-4.8828125,-404.296875,-303.7109375,0.0
1676923137.6405563,449.70703125,-7.32421875,-299.8046875,-219.7265625,0.0
1676923137.6443167,-483.3984375,-45.8984375,-578.125,180.6640625,0.0
1676923137.648077,-648.92578125,-35.64453125,-480.46875,166.9921875,0.0
1676923137.6518376,254.39453125,0.0,-118.65234375,-234.375,0.0
1676923137.655598,600.09765625,-15.625,-370.60546875,-321.2890625,0.0
1676923137.6594386,-219.23828125,-20.5078125,-409.1796875,64.453125,0.0
1676923137.663279,-736.81640625,-11.23046875,-117.1875,204.58984375,0.0
1676923137.6671197,24.90234375,-20.5078125,-77.1484375,-150.390625,0.0
1676923137.6709604,677.24609375,-43.45703125,-429.19921875,-372.0703125,0.0
1676923137.674801,31.25,-52.24609375,-527.34375,-32.71484375,0.0
1676923137.6786418,-728.02734375,-31.25,-314.453125,243.65234375,0.0
1676923137.6824822,-201.66015625,-1.953125,-200.1953125,-52.734375,0.0
1676923137.686323,615.72265625,-29.78515625,-441.40625,-375.0,0.0
1676923137.6901636,239.2578125,-31.73828125,-739.2578125,-134.765625,0.0
1676923137.694004,-639.6484375,22.4609375,-257.32421875,206.0546875,0.0
1676923137.6978447,-464.84375,18.06640625,-26.3671875,58.59375,0.0
1676923137.7016854,440.91796875,10.7421875,-336.42578125,-310.546875,0.0
1676923137.705326,482.91015625,17.578125,-420.41015625,-258.7890625,0.0
1676923137.7089667,-419.921875,21.484375,-140.625,137.20703125,0.0
1676923137.7126074,-681.15234375,-8.30078125,-82.03125,167.48046875,0.0
1676923137.716248,182.12890625,-13.18359375,-309.08203125,-217.7734375,0.0
1676923137.7198887,629.8828125,13.18359375,-422.36328125,-345.703125,0.0
1676923137.7235293,-166.50390625,19.04296875,-420.8984375,55.6640625,0.0
1676923137.72717,-771.97265625,19.04296875,-264.6484375,244.140625,0.0
1676923137.7308106,-80.56640625,-29.78515625,-624.0234375,-100.5859375,0.0
1676923137.7344513,614.74609375,-18.06640625,-858.3984375,-352.5390625,0.0
1676923137.738092,37.59765625,34.1796875,-271.484375,-55.6640625,0.0
1676923137.7417326,-775.390625,-0.9765625,-132.32421875,241.69921875,0.0
1676923137.7453732,-343.75,-9.765625,-247.55859375,-7.8125,0.0
1676923137.7491653,503.41796875,17.578125,-302.734375,-354.98046875,0.0
1676923137.7529573,239.2578125,12.20703125,-272.4609375,-164.0625,0.0
1676923137.7567494,-664.55078125,-4.39453125,-251.953125,213.8671875,0.0
1676923137.7605414,-597.65625,3.41796875,-236.328125,99.609375,0.0
1676923137.7643335,314.94140625,7.32421875,-246.58203125,-291.015625,0.0
1676923137.7681255,468.26171875,-2.9296875,-439.94140625,-279.78515625,0.0
1676923137.7719173,-413.57421875,-26.3671875,-512.6953125,128.90625,0.0
1676923137.7757094,-780.76171875,-32.2265625,-732.421875,215.33203125,0.0
1676923137.7795014,68.359375,5.859375,-480.46875,-190.91796875,0.0
1676923137.7832935,593.26171875,-5.859375,-224.12109375,-379.8828125,0.0
1676923137.7870855,-167.48046875,-13.671875,-355.95703125,10.7421875,0.0
1676923137.7908776,-831.54296875,-12.6953125,-226.5625,239.2578125,0.0
1676923137.794594,-166.015625,-7.32421875,-111.81640625,-86.9140625,0.0
1676923137.7983105,596.6796875,-3.90625,-270.5078125,-356.4453125,0.0
1676923137.8020267,71.77734375,-2.44140625,-387.20703125,-51.26953125,0.0
1676923137.8057432,-766.11328125,2.9296875,-227.05078125,258.7890625,0.0
1676923137.8094597,-402.83203125,2.9296875,-203.61328125,27.83203125,0.0
1676923137.8131762,475.09765625,0.48828125,-414.55078125,-311.5234375,0.0
1676923137.8168926,310.05859375,-18.5546875,-773.92578125,-162.109375,0.0
1676923137.820609,-601.5625,-9.27734375,-582.51953125,206.0546875,0.0
1676923137.8243256,-615.234375,9.765625,-71.77734375,126.46484375,0.0
1676923137.8280418,273.4375,-13.671875,-329.58984375,-263.18359375,0.0
1676923137.8317583,493.65234375,-4.39453125,-617.67578125,-306.15234375,0.0
1676923137.8354747,-337.40234375,29.296875,-325.68359375,75.68359375,0.0
1676923137.8392274,-790.52734375,9.765625,-9.765625,199.21875,0.0
1676923137.8429804,-0.9765625,-9.765625,-242.1875,-156.25,0.0
1676923137.846733,601.07421875,-1.953125,-487.79296875,-360.83984375,0.0
1676923137.850486,-84.47265625,23.4375,-246.58203125,-4.39453125,0.0
1676923137.8542387,-790.0390625,16.11328125,-45.41015625,244.140625,0.0
1676923137.8579917,-203.61328125,-41.9921875,-372.55859375,-56.15234375,0.0
1676923137.8617444,571.2890625,-33.203125,-798.33984375,-360.3515625,0.0
1676923137.865497,148.4375,42.48046875,-447.75390625,-111.328125,0.0
1676923137.86925,-696.77734375,30.2734375,-75.1953125,233.88671875,0.0
1676923137.8730028,-442.87109375,-0.48828125,-221.19140625,53.7109375,0.0
1676923137.8767557,464.84375,11.23046875,-334.9609375,-308.59375,0.0
1676923137.8805084,423.828125,-0.9765625,-284.1796875,-221.19140625,0.0
1676923137.8854961,-474.609375,-13.18359375,-283.69140625,182.6171875,0.0
1676923137.8904839,-640.625,-1.953125,-428.7109375,188.96484375,0.0
1676923137.8954718,250.48828125,10.7421875,-417.48046875,-203.125,0.0
1676923137.9004595,622.0703125,23.4375,-274.4140625,-294.921875,0.0
1676923137.9054472,-185.546875,12.6953125,-255.859375,82.03125,0.0
1676923137.9104352,-711.42578125,2.9296875,-394.04296875,244.62890625,0.0
1676923137.915423,20.99609375,22.94921875,-420.41015625,-84.9609375,0.0
1676923137.9204106,678.22265625,29.296875,-301.26953125,-328.61328125,0.0
1676923137.9253983,15.625,18.06640625,-307.12890625,3.90625,0.0
1676923137.930386,-757.32421875,8.7890625,-364.74609375,279.78515625,0.0
1676923137.935374,-216.796875,9.27734375,-294.921875,-1.46484375,0.0
1676923137.9403617,620.60546875,10.25390625,-255.859375,-333.0078125,0.0
1676923137.944118,262.20703125,-7.8125,-403.80859375,-107.421875,0.0
1676923137.9478743,-615.234375,-20.5078125,-557.12890625,255.859375,0.0
1676923137.9516306,-454.1015625,15.625,-327.63671875,106.93359375,0.0
1676923137.9553869,437.5,14.16015625,-294.43359375,-275.87890625,0.0
1676923137.9591432,480.95703125,-2.44140625,-621.58203125,-229.00390625,0.0
1676923137.9628992,-401.3671875,6.8359375,-668.9453125,177.734375,0.0
1676923137.9666555,-650.390625,17.08984375,-333.984375,202.1484375,0.0
1676923137.9704118,215.8203125,19.04296875,-158.203125,-177.24609375,0.0
1676923137.974168,652.34375,-18.5546875,-578.125,-294.43359375,0.0
1676923137.9779243,-153.80859375,-12.6953125,-761.71875,90.33203125,0.0
1676923137.9816806,-728.515625,39.55078125,-221.19140625,268.5546875,0.0
1676923137.985437,-22.4609375,14.6484375,-130.859375,-78.125,0.0
1676923137.9891903,662.109375,-8.7890625,-446.77734375,-333.0078125,0.0
1676923137.9929438,92.7734375,3.41796875,-407.71484375,-12.6953125,0.0
1676923137.9966972,-686.03515625,3.41796875,-140.13671875,277.83203125,0.0
1676923138.0004506,-229.4921875,3.90625,-176.7578125,13.671875,0.0
1676923138.004204,623.046875,0.48828125,-419.921875,-320.80078125,0.0
1676923138.0079575,365.234375,-3.41796875,-543.45703125,-134.27734375,0.0
1676923138.011711,-530.76171875,6.34765625,-378.90625,237.3046875,0.0
1676923138.0154643,-478.02734375,2.44140625,-205.56640625,138.671875,0.0
1676923138.0192177,402.34375,-29.296875,-666.50390625,-225.5859375,0.0
1676923138.0229712,551.7578125,0.48828125,-948.2421875,-226.5625,0.0
1676923138.0267246,-307.12890625,40.52734375,-371.58203125,142.578125,0.0
1676923138.030478,-686.5234375,3.90625,-158.69140625,239.2578125,0.0
1676923138.034222,139.6484375,1.953125,-265.625,-124.0234375,0.0
1676923138.0379658,667.96875,20.01953125,-229.00390625,-304.19921875,0.0
1676923138.0417094,-90.8203125,12.6953125,-131.34765625,56.15234375,0.0
1676923138.0454533,-763.671875,-6.34765625,-178.7109375,279.296875,0.0
1676923138.0491972,-114.74609375,-7.32421875,-325.1953125,-43.45703125,0.0
1676923138.0529408,632.8125,-2.9296875,-444.82421875,-330.56640625,0.0
1676923138.0566847,123.53515625,3.41796875,-436.03515625,-51.26953125,0.0
1676923138.0604286,-702.63671875,-16.11328125,-428.22265625,266.6015625,0.0
1676923138.0641725,-342.28515625,-16.11328125,-532.71484375,47.8515625,0.0
1676923138.0679164,543.9453125,14.6484375,-330.078125,-313.96484375,0.0
1676923138.07166,392.578125,-12.20703125,-355.95703125,-172.36328125,0.0
1676923138.075404,-532.2265625,-25.87890625,-516.6015625,211.42578125,0.0
1676923138.0791655,-619.140625,10.7421875,-365.72265625,145.5078125,0.0
1676923138.082927,264.16015625,30.2734375,-162.109375,-249.0234375,0.0
1676923138.0866885,522.4609375,9.765625,-314.94140625,-307.12890625,0.0
1676923138.09045,-333.984375,11.23046875,-374.51171875,73.2421875,0.0
1676923138.0942116,-805.6640625,8.30078125,-214.35546875,201.66015625,0.0
1676923138.0979729,-34.1796875,-10.25390625,-312.5,-155.76171875,0.0
1676923138.1017344,554.19921875,-2.9296875,-471.19140625,-370.1171875,0.0
1676923138.105496,-147.4609375,-9.27734375,-687.01171875,-7.8125,0.0
1676923138.1092575,-879.8828125,11.23046875,-505.37109375,234.86328125,0.0
1676923138.113019,-295.8984375,32.71484375,-45.41015625,-74.70703125,0.0
1676923138.1167805,472.65625,8.7890625,-270.01953125,-357.91015625,0.0
1676923138.120542,28.3203125,-7.8125,-392.578125,-106.4453125,0.0
1676923138.124388,-813.96484375,-9.27734375,-200.68359375,222.65625,0.0
1676923138.128234,-560.05859375,-13.18359375,-197.75390625,48.828125,0.0
1676923138.1320796,301.7578125,-45.41015625,-498.53515625,-309.5703125,0.0
1676923138.1359255,250.0,-44.921875,-646.97265625,-231.93359375,0.0
1676923138.1397715,-647.4609375,4.39453125,-303.7109375,127.9296875,0.0
1676923138.1436174,-830.078125,-2.44140625,-237.79296875,130.37109375,0.0
1676923138.1474633,61.5234375,-25.390625,-573.2421875,-239.74609375,0.0
1676923138.1513093,453.125,-8.30078125,-599.609375,-360.3515625,0.0
1676923138.1551552,-348.6328125,17.578125,-233.88671875,19.04296875,0.0
1676923138.1590009,-871.58203125,4.8828125,-22.94921875,188.96484375,0.0
1676923138.1628468,-124.51171875,-22.94921875,-450.68359375,-150.87890625,0.0
1676923138.1666927,526.85546875,0.48828125,-786.1328125,-392.08984375,0.0
1676923138.1703393,-103.02734375,20.99609375,-302.734375,-67.87109375,0.0
1676923138.173986,-864.74609375,-11.71875,-127.9296875,214.35546875,0.0
1676923138.1776326,-345.21484375,-0.9765625,-281.73828125,-80.56640625,0.0
1676923138.1812792,491.69921875,19.04296875,-346.19140625,-402.83203125,0.0
1676923138.1849258,115.72265625,15.625,-382.8125,-155.2734375,0.0
1676923138.1885724,-780.76171875,17.578125,-295.41015625,189.453125,0.0
1676923138.1922188,-622.55859375,-5.37109375,-603.515625,50.78125,0.0
1676923138.1958654,269.04296875,15.625,-857.91015625,-304.6875,0.0
1676923138.199512,362.3046875,59.08203125,-393.5546875,-291.50390625,0.0
1676923138.2031586,-543.45703125,12.20703125,-271.484375,101.5625,0.0
1676923138.2068052,-846.19140625,-12.20703125,-273.4375,163.0859375,0.0
1676923138.2104518,24.4140625,-2.44140625,-220.703125,-212.40234375,0.0
1676923138.2142606,485.3515625,-5.37109375,-263.18359375,-343.75,0.0
1676923138.2180696,-292.96875,-7.32421875,-321.77734375,45.8984375,0.0
1676923138.2218783,-865.72265625,0.9765625,-285.64453125,245.60546875,0.0
1676923138.225687,-144.53125,17.08984375,-162.109375,-95.703125,0.0
1676923138.2294958,571.2890625,12.6953125,-305.17578125,-356.93359375,0.0
1676923138.2333045,-22.94921875,-19.04296875,-595.703125,-25.87890625,0.0
1676923138.2371135,-788.57421875,-29.78515625,-667.48046875,259.765625,0.0
1676923138.2409222,-316.89453125,-0.9765625,-352.05078125,-23.92578125,0.0
1676923138.244731,493.65234375,-13.671875,-374.51171875,-340.8203125,0.0
1676923138.24854,250.0,-8.30078125,-620.1171875,-146.97265625,0.0
1676923138.2523487,-634.27734375,14.16015625,-453.125,218.26171875,0.0
1676923138.2561574,-591.30859375,19.53125,-133.7890625,115.72265625,0.0
1676923138.2611008,314.453125,0.9765625,-173.33984375,-249.51171875,0.0
1676923138.266044,478.515625,-10.7421875,-540.0390625,-244.140625,0.0
1676923138.2709873,-394.53125,-8.30078125,-501.46484375,141.6015625,0.0
1676923138.2759306,-744.140625,-11.23046875,-85.44921875,227.5390625,0.0
1676923138.2808738,66.40625,-5.37109375,-205.56640625,-113.76953125,0.0
1676923138.2858171,570.80078125,-10.25390625,-623.046875,-290.0390625,0.0
1676923138.2907605,-153.3203125,-0.48828125,-549.31640625,54.19921875,0.0
1676923138.2957036,-799.8046875,14.6484375,-157.71484375,281.25,0.0
1676923138.300647,-142.578125,3.41796875,-178.7109375,-50.29296875,0.0
1676923138.3055904,606.93359375,-5.37109375,-646.484375,-329.1015625,0.0
1676923138.3105335,89.35546875,3.90625,-643.5546875,-44.43359375,0.0
1676923138.315477,-743.65234375,-2.9296875,-298.33984375,267.08984375,0.0
1676923138.3192239,-395.99609375,-7.32421875,-328.125,54.6875,0.0
1676923138.322971,460.9375,-14.6484375,-654.296875,-296.875,0.0
1676923138.326718,324.70703125,-5.37109375,-542.48046875,-175.29296875,0.0
1676923138.3304653,-571.77734375,-7.32421875,-154.296875,205.56640625,0.0
1676923138.3342123,-646.97265625,-30.2734375,-226.5625,166.50390625,0.0
1676923138.3379593,240.72265625,-38.57421875,-531.25,-203.61328125,0.0
1676923138.3417065,522.94921875,-20.01953125,-525.87890625,-277.34375,0.0
1676923138.3454535,-308.59375,-6.34765625,-187.98828125,95.21484375,0.0
1676923138.3492007,-771.484375,-41.9921875,-333.0078125,235.3515625,0.0
1676923138.3529477,27.34375,-50.29296875,-682.6171875,-120.1171875,0.0
1676923138.356695,653.3203125,-12.6953125,-422.36328125,-333.0078125,0.0
1676923138.360442,-43.9453125,-21.484375,-268.06640625,21.484375,0.0
1676923138.3641944,-755.37109375,-25.390625,-287.59765625,282.2265625,0.0
1676923138.3679469,-139.6484375,-18.5546875,-291.9921875,-15.625,0.0
1676923138.3716993,674.31640625,-24.4140625,-418.9453125,-332.03125,0.0
1676923138.3754516,229.98046875,-20.99609375,-383.30078125,-92.7734375,0.0
1676923138.379204,-647.4609375,-24.90234375,-377.9296875,221.6796875,0.0
1676923138.3829565,-379.8828125,-17.578125,-463.37890625,29.78515625,0.0
1676923138.386709,543.45703125,-3.41796875,-375.48828125,-311.5234375,0.0
1676923138.3904614,541.015625,-14.16015625,-289.55078125,-205.078125,0.0
1676923138.3942137,-374.51171875,-45.41015625,-566.40625,186.03515625,0.0
1676923138.3979661,-598.6328125,-11.23046875,-499.51171875,161.62109375,0.0
1676923138.4017186,234.86328125,17.578125,-130.859375,-225.09765625,0.0
1676923138.405471,536.62109375,-5.37109375,-355.95703125,-294.921875,0.0
1676923138.4092588,-327.63671875,-3.41796875,-386.23046875,88.8671875,0.0
1676923138.4130464,-855.95703125,12.20703125,-105.46875,247.55859375,0.0
1676923138.416834,-81.0546875,12.6953125,-95.21484375,-96.19140625,0.0
1676923138.4206219,582.51953125,0.48828125,-355.46875,-327.63671875,0.0
1676923138.4244094,-56.640625,0.48828125,-471.6796875,-10.7421875,0.0
1676923138.4281971,-810.546875,-10.25390625,-343.75,245.60546875,0.0
1676923138.431985,-284.1796875,-36.1328125,-303.7109375,-45.8984375,0.0
1676923138.4357724,555.6640625,-37.109375,-566.40625,-375.48828125,0.0
1676923138.4395602,234.375,-9.765625,-913.0859375,-153.3203125,0.0
1676923138.443348,-589.84375,30.76171875,-412.59765625,169.43359375,0.0
1676923138.4471354,-395.99609375,11.23046875,-73.73046875,24.90234375,0.0
1676923138.4509232,491.2109375,-4.8828125,-376.46484375,-313.4765625,0.0
1676923138.4546359,546.38671875,7.8125,-374.0234375,-257.8125,0.0
1676923138.4583485,-356.93359375,25.87890625,-125.48828125,121.09375,0.0
1676923138.4620612,-666.015625,7.32421875,-76.66015625,145.01953125,0.0
1676923138.4657738,171.38671875,-15.13671875,-311.5234375,-226.5625,0.0
1676923138.4694865,591.30859375,-10.7421875,-400.87890625,-356.4453125,0.0
1676923138.4731994,-236.328125,-13.18359375,-382.8125,33.203125,0.0
1676923138.476912,-823.73046875,-17.08984375,-268.5546875,236.328125,0.0
1676923138.4806247,-127.44140625,-42.96875,-600.09765625,-79.58984375,0.0
1676923138.4843373,540.0390625,-17.578125,-889.16015625,-326.171875,0.0
1676923138.48805,-53.22265625,5.859375,-396.484375,-33.69140625,0.0
1676923138.4917626,-850.09765625,-35.64453125,-188.4765625,251.46484375,0.0
1676923138.4954753,-402.34375,-40.0390625,-358.88671875,10.7421875,0.0
1676923138.5017247,470.703125,-19.53125,-359.375,-322.75390625,0.0
1676923138.5079741,228.515625,-21.97265625,-236.328125,-145.5078125,0.0
1676923138.5142238,-668.9453125,-35.64453125,-219.23828125,226.5625,0.0
1676923138.5204732,-598.14453125,-33.203125,-217.28515625,125.48828125,0.0
1676923138.5267227,331.54296875,-24.90234375,-210.44921875,-253.41796875,0.0
1676923138.5329723,495.1171875,-51.7578125,-426.26953125,-264.16015625,0.0
1676923138.5392218,-405.2734375,-74.21875,-577.63671875,125.9765625,0.0
1676923138.5454712,-795.41015625,-60.546875,-597.65625,208.49609375,0.0
1676923138.5517206,56.15234375,-25.390625,-314.94140625,-171.38671875,0.0
1676923138.55797,601.07421875,-35.64453125,-256.8359375,-347.16796875,0.0
1676923138.5642197,-155.2734375,-40.0390625,-325.1953125,15.625,0.0
1676923138.5704691,-820.3125,-36.1328125,-260.7421875,238.28125,0.0
1676923138.5718205,-164.0625,-42.96875,-228.515625,-75.68359375,0.0
1676923138.5731719,595.703125,-45.41015625,-250.9765625,-345.703125,0.0
1676923138.5745234,73.73046875,-56.640625,-512.20703125,-62.5,0.0
1676923138.5758748,-759.765625,-41.015625,-409.66796875,240.234375,0.0
1676923138.5772262,-393.06640625,-39.0625,-90.8203125,27.83203125,0.0
1676923138.5785775,485.3515625,-66.40625,-353.02734375,-312.98828125,0.0
1676923138.5799289,354.4921875,-59.5703125,-573.2421875,-184.5703125,0.0
1676923138.5812802,-531.73828125,-46.875,-323.73046875,179.6875,0.0
1676923138.5826316,-595.703125,-48.33984375,-69.3359375,131.34765625,0.0
1676923138.5839832,311.03515625,-62.01171875,-270.5078125,-227.05078125,0.0
1676923138.5853345,576.66015625,-68.359375,-567.3828125,-277.34375,0.0
1676923138.586686,-274.90234375,-39.0625,-366.69921875,85.9375,0.0
1676923138.5903254,-712.890625,-30.2734375,-88.37890625,212.40234375,0.0
1676923138.593965,91.796875,-58.10546875,-263.671875,-118.65234375,0.0
1676923138.5976045,709.9609375,-81.54296875,-807.12890625,-327.1484375,0.0
1676923138.601244,32.2265625,-45.8984375,-682.6171875,-2.44140625,0.0
1676923138.6048837,-636.71875,-32.2265625,-186.03515625,215.33203125,0.0
1676923138.6085231,-62.98828125,-69.82421875,-401.85546875,-75.68359375,0.0
1676923138.6121626,668.45703125,-73.2421875,-903.80859375,-338.37890625,0.0
1676923138.6158023,277.83203125,-37.109375,-582.03125,-110.3515625,0.0
1676923138.6194417,-575.68359375,-48.33984375,-83.984375,205.078125,0.0
1676923138.6230812,-354.4921875,-66.89453125,-240.72265625,47.36328125,0.0
1676923138.626721,536.1328125,-36.1328125,-403.3203125,-302.24609375,0.0
1676923138.6303604,537.109375,-24.4140625,-283.203125,-221.6796875,0.0
1676923138.6353493,-367.1875,-59.5703125,-185.546875,161.1328125,0.0
1676923138.6403382,-583.984375,-61.03515625,-254.8828125,158.69140625,0.0
1676923138.645327,288.0859375,-35.15625,-328.61328125,-214.84375,0.0
1676923138.6503162,671.875,-23.4375,-286.62109375,-322.75390625,0.0
1676923138.6553051,-139.6484375,-38.0859375,-277.34375,53.22265625,0.0
1676923138.660294,-696.77734375,-56.640625,-456.0546875,230.95703125,0.0
1676923138.665283,36.62109375,-55.17578125,-535.15625,-105.95703125,0.0
1676923138.6702719,690.91796875,-51.7578125,-438.4765625,-345.703125,0.0
1676923138.675261,62.98828125,-38.57421875,-239.74609375,-27.83203125,0.0
1676923138.68025,-721.19140625,-66.89453125,-561.5234375,263.18359375,0.0
1676923138.6852388,-227.05078125,-61.03515625,-779.78515625,-3.90625,0.0
1676923138.6902277,629.39453125,-20.99609375,-301.7578125,-342.28515625,0.0
1676923138.6939986,303.7109375,-46.38671875,-300.78125,-131.8359375,0.0
1676923138.6977694,-593.75,-49.8046875,-395.5078125,214.84375,0.0
1676923138.7015402,-458.984375,-41.015625,-155.76171875,77.63671875,0.0
1676923138.705311,440.4296875,-56.640625,-143.06640625,-287.59765625,0.0
1676923138.709082,502.44140625,-64.94140625,-402.34375,-264.6484375,0.0
1676923138.7128525,-403.80859375,-60.05859375,-483.3984375,125.9765625,0.0
1676923138.7166233,-687.5,-41.50390625,-268.06640625,180.17578125,0.0
1676923138.7203941,187.98828125,-37.59765625,-68.84765625,-196.77734375,0.0
1676923138.724165,635.7421875,-68.359375,-475.5859375,-329.1015625,0.0
1676923138.7279358,-166.9921875,-64.94140625,-747.0703125,31.73828125,0.0
1676923138.7317066,-761.71875,-39.0625,-264.16015625,196.77734375,0.0
1676923138.7354774,-38.57421875,-44.921875,-50.29296875,-129.8828125,0.0
1676923138.7404776,661.1328125,-80.56640625,-571.77734375,-356.93359375,0.0
1676923138.745478,69.3359375,-86.42578125,-849.609375,-43.9453125,0.0
1676923138.750478,-710.9375,-35.64453125,-252.44140625,223.14453125,0.0
1676923138.7554784,-269.53125,-33.69140625,-66.40625,-25.87890625,0.0
1676923138.7604785,580.56640625,-44.43359375,-370.1171875,-346.6796875,0.0
1676923138.7654786,336.9140625,-61.5234375,-511.23046875,-172.36328125,0.0
1676923138.770479,-560.546875,-63.96484375,-296.875,182.12890625,0.0
1676923138.775479,-520.5078125,-59.08203125,-100.5859375,94.23828125,0.0
1676923138.7804794,376.46484375,-76.171875,-583.984375,-246.58203125,0.0
1676923138.7854795,548.828125,-47.36328125,-675.78125,-268.06640625,0.0
1676923138.79048,-338.8671875,-22.4609375,-137.20703125,93.26171875,0.0
1676923138.79548,-738.28125,-44.921875,-102.05078125,196.77734375,0.0
1676923138.7980804,73.73046875,-59.5703125,-388.671875,-159.66796875,0.0
1676923138.800681,603.02734375,-31.25,-470.703125,-344.23828125,0.0
1676923138.8032815,-143.5546875,-21.97265625,-199.21875,2.44140625,0.0
1676923138.8058822,-817.3828125,-56.15234375,-204.1015625,228.515625,0.0
1676923138.8084826,-163.0859375,-56.15234375,-486.328125,-77.1484375,0.0
1676923138.8110833,608.88671875,-45.8984375,-553.7109375,-348.14453125,0.0
1676923138.8136837,115.234375,-43.9453125,-406.25,-69.3359375,0.0
1676923138.8162842,-726.07421875,-51.7578125,-331.54296875,233.88671875,0.0
1676923138.8188848,-372.0703125,-58.59375,-351.07421875,27.83203125,0.0
1676923138.8214853,525.390625,-58.10546875,-271.97265625,-306.640625,0.0
1676923138.824086,394.53125,-69.82421875,-262.6953125,-182.12890625,0.0
1676923138.8266864,-535.15625,-93.75,-508.30078125,206.0546875,0.0
1676923138.8303323,-627.9296875,-65.4296875,-663.0859375,159.1796875,0.0
1676923138.8339782,314.453125,-14.16015625,-306.640625,-251.46484375,0.0
1676923138.837624,551.26953125,-50.29296875,-311.03515625,-294.921875,0.0
1676923138.8412702,-334.9609375,-59.5703125,-437.98828125,97.65625,0.0
1676923138.844916,-766.11328125,-36.62109375,-362.79296875,205.078125,0.0
1676923138.848562,25.390625,-33.69140625,-395.5078125,-143.06640625,0.0
1676923138.852208,635.25390625,-20.01953125,-444.3359375,-351.07421875,0.0
1676923138.8558538,-81.54296875,-40.52734375,-713.8671875,5.859375,0.0
1676923138.8595,-792.48046875,-31.73828125,-755.859375,249.0234375,0.0
1676923138.8631458,-158.203125,14.16015625,-166.50390625,-79.58984375,0.0
1676923138.8667917,652.83203125,3.90625,-299.31640625,-362.3046875,0.0
1676923138.8704376,222.65625,5.859375,-442.3828125,-94.7265625,0.0
1676923138.8741908,-640.625,-2.44140625,-123.53515625,221.19140625,0.0
1676923138.877944,-391.11328125,-21.97265625,-53.7109375,39.0625,0.0
1676923138.8816972,500.48828125,-19.53125,-343.26171875,-304.19921875,0.0
1676923138.8854504,460.9375,-5.37109375,-491.2109375,-217.28515625,0.0
1676923138.8892035,-432.6171875,8.30078125,-198.2421875,155.2734375,0.0
1676923138.8929567,-603.02734375,-6.34765625,-146.97265625,155.76171875,0.0
1676923138.8967102,286.62109375,-36.1328125,-508.30078125,-191.40625,0.0
1676923138.9004633,651.85546875,-31.73828125,-956.0546875,-272.94921875,0.0
1676923138.9042165,-160.15625,33.203125,-541.9921875,75.68359375,0.0
1676923138.9079697,-682.6171875,45.8984375,-3.41796875,223.6328125,0.0
1676923138.911723,61.5234375,19.04296875,-237.3046875,-116.69921875,0.0
1676923138.915476,719.23828125,22.4609375,-399.4140625,-347.16796875,0.0
1676923138.919223,62.01171875,27.83203125,-226.07421875,-20.99609375,0.0
1676923138.92297,-703.61328125,21.97265625,-131.34765625,255.859375,0.0
1676923138.9267173,-171.38671875,16.6015625,-253.90625,-11.71875,0.0
1676923138.9304643,656.73828125,20.5078125,-347.65625,-325.68359375,0.0
1676923138.9342113,296.38671875,23.92578125,-330.56640625,-89.84375,0.0
1676923138.9379582,-596.6796875,2.44140625,-276.3671875,260.25390625,0.0
1676923138.9417052,-464.35546875,-20.01953125,-587.40234375,119.62890625,0.0
1676923138.9454522,438.4765625,15.13671875,-694.82421875,-243.65234375,0.0
1676923138.9491992,504.39453125,37.109375,-305.6640625,-218.75,0.0
1676923138.9529464,-413.57421875,7.8125,-250.9765625,155.76171875,0.0
1676923138.9566934,-687.01171875,1.46484375,-372.55859375,199.70703125,0.0
1676923138.9604404,189.453125,23.4375,-332.51953125,-166.9921875,0.0
1676923138.9643025,658.69140625,20.99609375,-255.37109375,-316.89453125,0.0
1676923138.9681647,-143.06640625,-0.9765625,-357.91015625,51.7578125,0.0
1676923138.9720268,-777.83203125,-2.9296875,-490.234375,239.74609375,0.0
1676923138.9758887,-44.43359375,27.34375,-339.35546875,-110.83984375,0.0
1676923138.9797509,648.4375,30.2734375,-299.8046875,-351.07421875,0.0
1676923138.983613,33.69140625,2.44140625,-591.796875,-8.7890625,0.0
1676923138.9874752,-727.5390625,2.44140625,-671.875,258.7890625,0.0
1676923138.9913373,-264.16015625,35.64453125,-323.73046875,-16.11328125,0.0
1676923138.9951992,614.74609375,11.23046875,-259.27734375,-336.9140625,0.0
1676923138.9990613,345.21484375,-12.20703125,-459.47265625,-143.06640625,0.0
1676923139.0029235,-566.89453125,14.6484375,-375.9765625,203.61328125,0.0
1676923139.0067856,-491.2109375,20.01953125,-136.23046875,99.609375,0.0
1676923139.0117645,435.05859375,-3.90625,-252.9296875,-265.625,0.0
1676923139.0167437,586.9140625,-17.578125,-555.6640625,-271.97265625,0.0
1676923139.0217226,-307.12890625,-0.48828125,-470.21484375,122.55859375,0.0
1676923139.0267017,-646.484375,12.20703125,-161.1328125,195.3125,0.0
1676923139.0316806,202.1484375,0.0,-179.6875,-172.8515625,0.0
1676923139.0366597,712.40234375,-39.0625,-701.66015625,-322.265625,0.0
1676923139.0416386,-59.5703125,-7.8125,-925.29296875,47.8515625,0.0
1676923139.0466175,-687.5,52.734375,-307.6171875,239.74609375,0.0
1676923139.0515966,-25.87890625,23.4375,-180.6640625,-73.2421875,0.0
1676923139.0565755,708.49609375,8.7890625,-469.23828125,-330.56640625,0.0
1676923139.0615547,167.48046875,24.4140625,-366.2109375,-43.45703125,0.0
1676923139.0665336,-669.921875,45.8984375,-143.06640625,249.51171875,0.0
1676923139.0701923,-287.59765625,42.96875,-223.6328125,30.2734375,0.0
1676923139.0738513,600.5859375,19.04296875,-453.125,-302.24609375,0.0
1676923139.07751,427.24609375,49.8046875,-367.67578125,-172.8515625,0.0
1676923139.0811691,-423.33984375,70.3125,-196.77734375,161.62109375,0.0
