timestamps,TP9,Fp1,Fp2,TP10,stim
1676923592.5777872,-25.390625,-28.3203125,-8.7890625,-248.046875,0.0
1676923592.5815341,-13.18359375,-31.25,-11.71875,-35.64453125,0.0
1676923592.585281,-25.87890625,-33.203125,-29.296875,162.59765625,0.0
1676923592.589028,-42.96875,-27.34375,-33.203125,9.765625,0.0
1676923592.5929189,-52.734375,-21.97265625,-23.4375,-237.3046875,0.0
1676923592.5968099,-47.36328125,-32.71484375,-33.203125,-132.8125,0.0
1676923592.6007009,-37.109375,-36.1328125,-41.9921875,114.74609375,0.0
1676923592.6045918,-43.9453125,-26.85546875,-32.2265625,63.4765625,0.0
1676923592.6084828,-73.2421875,-31.25,-29.296875,-218.75,0.0
1676923592.6123738,-66.89453125,-35.15625,-38.0859375,-204.58984375,0.0
1676923592.6162646,-38.0859375,-37.59765625,-40.0390625,88.8671875,0.0
1676923592.6201556,-22.4609375,-32.2265625,-20.01953125,141.6015625,0.0
1676923592.6240466,-40.52734375,-23.92578125,-9.765625,-124.0234375,0.0
1676923592.6279376,-51.7578125,-26.3671875,-20.01953125,-232.421875,0.0
1676923592.6318285,-27.83203125,-24.4140625,-25.390625,22.4609375,0.0
1676923592.6357195,-26.85546875,-24.90234375,-23.4375,170.8984375,0.0
1676923592.640609,-42.96875,-32.2265625,-24.90234375,-43.9453125,0.0
1676923592.6454983,-42.48046875,-33.203125,-26.85546875,-241.69921875,0.0
1676923592.6503878,-17.578125,-30.76171875,-22.4609375,-38.57421875,0.0
1676923592.6552773,-13.671875,-30.76171875,-17.578125,184.5703125,0.0
1676923592.6601665,-34.66796875,-26.3671875,-22.94921875,33.69140625,0.0
1676923592.665056,-58.59375,-32.71484375,-43.9453125,-227.5390625,0.0
1676923592.6699455,-55.6640625,-42.48046875,-46.38671875,-115.72265625,0.0
1676923592.6748347,-16.11328125,-30.2734375,-20.01953125,105.46875,0.0
1676923592.6797242,-13.18359375,-26.85546875,-19.04296875,60.05859375,0.0
1676923592.6846137,-56.15234375,-37.59765625,-35.64453125,-207.03125,0.0
1676923592.689503,-56.15234375,-33.203125,-32.2265625,-224.12109375,0.0
1676923592.6943924,-25.390625,-27.34375,-21.484375,55.17578125,0.0
1676923592.6981199,-22.4609375,-23.4375,-27.34375,134.27734375,0.0
1676923592.7018476,-43.9453125,-24.90234375,-29.78515625,-107.421875,0.0
1676923592.705575,-47.8515625,-30.2734375,-18.5546875,-221.19140625,0.0
1676923592.7093024,-17.08984375,-27.83203125,-14.16015625,26.3671875,0.0
1676923592.7130299,-14.16015625,-27.34375,-16.6015625,192.87109375,0.0
1676923592.7167573,-47.8515625,-31.73828125,-19.04296875,21.97265625,0.0
1676923592.720485,-61.5234375,-35.15625,-19.53125,-175.29296875,0.0
1676923592.7242124,-52.734375,-41.015625,-16.11328125,3.90625,0.0
1676923592.7279398,-25.87890625,-43.45703125,-24.4140625,247.55859375,0.0
1676923592.7316675,-34.1796875,-37.109375,-35.15625,172.36328125,0.0
1676923592.735395,-51.26953125,-23.92578125,-13.671875,-122.0703125,0.0
1676923592.7391224,-22.94921875,-24.4140625,-8.30078125,-91.30859375,0.0
1676923592.742868,-3.90625,-37.109375,-23.92578125,184.08203125,0.0
1676923592.7466135,2.44140625,-28.80859375,-20.99609375,181.15234375,0.0
1676923592.7503588,-21.484375,-19.53125,-13.671875,-99.12109375,0.0
1676923592.7541044,-41.015625,-28.80859375,-14.6484375,-184.5703125,0.0
1676923592.75785,-32.2265625,-22.4609375,-25.390625,73.73046875,0.0
1676923592.7615952,-43.45703125,-22.4609375,-32.2265625,168.9453125,0.0
1676923592.7653408,-71.2890625,-31.25,-23.4375,-117.1875,0.0
1676923592.7690864,-66.89453125,-30.76171875,-19.53125,-279.296875,0.0
1676923592.772832,-35.64453125,-29.296875,-30.76171875,-47.36328125,0.0
1676923592.7765775,-27.83203125,-19.04296875,-24.4140625,132.8125,0.0
1676923592.7803228,-59.5703125,-20.5078125,-22.4609375,-46.38671875,0.0
1676923592.7840683,-78.125,-34.66796875,-31.73828125,-278.3203125,0.0
1676923592.7878165,-62.5,-40.0390625,-50.29296875,-83.0078125,0.0
1676923592.791565,-38.57421875,-26.85546875,-42.48046875,204.58984375,0.0
1676923592.7953134,-48.828125,-17.578125,-18.06640625,117.67578125,0.0
1676923592.7990615,-83.49609375,-26.85546875,-32.71484375,-171.38671875,0.0
1676923592.8028097,-59.5703125,-33.203125,-42.96875,-142.08984375,0.0
1676923592.8065581,-20.99609375,-30.2734375,-38.57421875,154.296875,0.0
1676923592.8103065,-17.578125,-29.296875,-27.83203125,201.171875,0.0
1676923592.8140547,-45.41015625,-34.1796875,-34.1796875,-77.63671875,0.0
1676923592.817803,-53.7109375,-36.1328125,-45.41015625,-162.109375,0.0
1676923592.8215513,-16.6015625,-29.78515625,-26.3671875,94.23828125,0.0
1676923592.8252997,-4.39453125,-23.4375,-27.34375,187.98828125,0.0
1676923592.829048,-32.2265625,-31.25,-41.50390625,-25.390625,0.0
1676923592.8327978,-34.66796875,-33.203125,-32.71484375,-189.453125,0.0
1676923592.8365479,-3.41796875,-21.97265625,-21.97265625,22.4609375,0.0
1676923592.8402977,10.7421875,-20.01953125,-24.4140625,240.72265625,0.0
1676923592.8440478,-7.8125,-26.85546875,-28.80859375,89.35546875,0.0
1676923592.8477976,-31.73828125,-23.92578125,-25.390625,-173.33984375,0.0
1676923592.8515477,-17.08984375,-23.4375,-26.3671875,-62.01171875,0.0
1676923592.8552976,3.41796875,-22.94921875,-27.83203125,188.96484375,0.0
1676923592.8590474,-16.6015625,-22.94921875,-34.66796875,141.11328125,0.0
1676923592.8627975,-51.26953125,-30.2734375,-34.66796875,-137.20703125,0.0
1676923592.8665473,-47.8515625,-24.90234375,-11.23046875,-157.2265625,0.0
1676923592.8702974,-23.4375,-20.99609375,-12.6953125,139.6484375,0.0
1676923592.8740473,-22.4609375,-20.01953125,-18.5546875,185.05859375,0.0
1676923592.8777869,-42.48046875,-12.6953125,-14.16015625,-111.328125,0.0
1676923592.8815267,-30.2734375,-12.6953125,-23.4375,-214.35546875,0.0
1676923592.8852663,-8.30078125,-30.2734375,-42.48046875,37.109375,0.0
1676923592.8890061,-35.15625,-38.0859375,-38.57421875,156.73828125,0.0
1676923592.8927457,-66.40625,-33.69140625,-26.3671875,-66.89453125,0.0
1676923592.8964853,-67.3828125,-38.57421875,-29.78515625,-268.06640625,0.0
1676923592.9002252,-42.48046875,-41.9921875,-31.25,-78.125,0.0
1676923592.9039648,-43.45703125,-40.0390625,-32.2265625,132.32421875,0.0
1676923592.9077046,-51.7578125,-38.57421875,-15.625,6.34765625,0.0
1676923592.9114442,-57.12890625,-32.71484375,-6.8359375,-251.46484375,0.0
1676923592.915184,-41.50390625,-30.2734375,-28.3203125,-177.24609375,0.0
1676923592.9189236,-12.20703125,-33.69140625,-31.25,76.171875,0.0
1676923592.922684,-8.7890625,-36.62109375,-17.08984375,55.6640625,0.0
1676923592.9264443,-30.2734375,-36.1328125,-21.97265625,-210.44921875,0.0
1676923592.9302046,-36.62109375,-33.69140625,-29.78515625,-224.12109375,0.0
1676923592.933965,-16.6015625,-30.2734375,-19.53125,71.2890625,0.0
1676923592.9377253,-18.06640625,-30.2734375,-16.11328125,140.625,0.0
1676923592.941486,-47.8515625,-34.1796875,-26.3671875,-122.55859375,0.0
1676923592.9452462,-60.05859375,-43.45703125,-40.52734375,-223.14453125,0.0
1676923592.9490066,-46.38671875,-42.96875,-46.875,0.9765625,0.0
1676923592.952767,-26.85546875,-31.25,-16.6015625,116.2109375,0.0
1676923592.9565272,-29.78515625,-31.73828125,-14.6484375,-64.94140625,0.0
1676923592.9602876,-46.38671875,-30.2734375,-23.92578125,-271.97265625,0.0
1676923592.964048,-24.90234375,-27.83203125,-18.06640625,-115.72265625,0.0
1676923592.9677863,-13.671875,-25.87890625,-20.5078125,121.58203125,0.0
1676923592.9715247,-46.38671875,-33.203125,-23.92578125,24.4140625,0.0
1676923592.975263,-73.73046875,-36.62109375,-23.92578125,-242.1875,0.0
1676923592.9790018,-49.8046875,-29.78515625,-25.390625,-155.2734375,0.0
1676923592.9827402,-18.5546875,-26.3671875,-31.25,119.62890625,0.0
1676923592.9864786,-37.109375,-26.85546875,-30.76171875,127.44140625,0.0
1676923592.990217,-60.05859375,-28.3203125,-35.15625,-143.5546875,0.0
1676923592.9939554,-52.734375,-21.484375,-23.92578125,-204.1015625,0.0
1676923592.997694,-33.203125,-20.99609375,-14.6484375,67.3828125,0.0
1676923593.0014324,-26.3671875,-24.4140625,-25.390625,162.109375,0.0
1676923593.0051708,-50.29296875,-24.4140625,-26.85546875,-74.21875,0.0
1676923593.0089092,-73.2421875,-20.99609375,-15.13671875,-233.3984375,0.0
1676923593.0126758,-46.875,-17.578125,-14.6484375,2.9296875,0.0
1676923593.0164423,-29.296875,-22.94921875,-29.296875,188.96484375,0.0
1676923593.0202088,-42.48046875,-21.97265625,-32.71484375,6.8359375,0.0
1676923593.0239754,-70.3125,-14.6484375,-20.5078125,-238.28125,0.0
1676923593.027742,-57.12890625,-18.06640625,-24.4140625,-117.67578125,0.0
1676923593.0315084,-44.921875,-25.87890625,-45.41015625,131.8359375,0.0
1676923593.0352752,-65.4296875,-25.390625,-43.45703125,61.5234375,0.0
1676923593.0390418,-72.265625,-18.5546875,-17.578125,-234.86328125,0.0
1676923593.0428083,-54.19921875,-22.4609375,-18.06640625,-205.56640625,0.0
1676923593.0465748,-28.80859375,-27.83203125,-22.94921875,48.828125,0.0
1676923593.0503414,-29.78515625,-29.78515625,-19.04296875,64.94140625,0.0
1676923593.054108,-56.640625,-29.296875,-20.5078125,-187.98828125,0.0
1676923593.0591028,-56.640625,-29.296875,-18.5546875,-280.2734375,0.0
1676923593.064098,-28.3203125,-30.76171875,-19.04296875,-32.2265625,0.0
1676923593.0690928,-27.83203125,-23.4375,-16.11328125,93.75,0.0
1676923593.0740876,-63.96484375,-23.92578125,-20.5078125,-123.046875,0.0
1676923593.0790827,-72.75390625,-29.296875,-31.73828125,-277.83203125,0.0
1676923593.0840776,-34.66796875,-24.4140625,-32.71484375,-53.7109375,0.0
1676923593.0890725,-27.83203125,-25.87890625,-21.97265625,124.0234375,0.0
1676923593.0940676,-48.828125,-25.390625,-18.06640625,-35.64453125,0.0
1676923593.0990624,-79.58984375,-28.3203125,-32.2265625,-273.4375,0.0
1676923593.1040573,-67.3828125,-36.62109375,-44.921875,-141.11328125,0.0
1676923593.1090524,-33.69140625,-33.203125,-29.296875,120.1171875,0.0
1676923593.1140473,-33.203125,-28.3203125,-19.53125,57.6171875,0.0
1676923593.120297,-49.8046875,-31.73828125,-36.1328125,-224.12109375,0.0
1676923593.1265466,-32.71484375,-32.2265625,-39.0625,-204.58984375,0.0
1676923593.1327963,-10.7421875,-34.1796875,-29.78515625,101.5625,0.0
1676923593.1390457,-8.30078125,-34.1796875,-24.90234375,153.80859375,0.0
1676923593.1452954,-31.73828125,-39.0625,-41.50390625,-104.4921875,0.0
1676923593.151545,-50.78125,-38.57421875,-47.8515625,-191.40625,0.0
1676923593.1577947,-22.94921875,-31.73828125,-21.97265625,69.3359375,0.0
1676923593.1640444,-0.9765625,-30.76171875,-10.7421875,213.8671875,0.0
1676923593.1702938,-28.80859375,-34.66796875,-34.66796875,20.99609375,0.0
1676923593.1765435,-57.12890625,-37.109375,-39.55078125,-166.50390625,0.0
1676923593.1827931,-11.71875,-30.2734375,-15.13671875,23.4375,0.0
1676923593.1890428,10.7421875,-30.76171875,-22.94921875,256.34765625,0.0
1676923593.1902902,-3.41796875,-33.203125,-30.2734375,137.20703125,0.0
1676923593.1915379,-13.18359375,-31.73828125,-26.3671875,-147.4609375,0.0
1676923593.1927853,-14.16015625,-35.15625,-20.01953125,-67.3828125,0.0
1676923593.194033,-0.48828125,-34.1796875,-24.4140625,207.03125,0.0
1676923593.1952803,-5.859375,-32.2265625,-31.73828125,180.17578125,0.0
1676923593.196528,-42.96875,-30.2734375,-30.2734375,-101.07421875,0.0
1676923593.1977754,-37.59765625,-31.73828125,-29.78515625,-130.37109375,0.0
1676923593.1990228,-7.32421875,-37.59765625,-37.109375,125.0,0.0
1676923593.2002704,-6.8359375,-40.52734375,-39.55078125,198.2421875,0.0
1676923593.2015178,-12.6953125,-37.109375,-22.94921875,-40.0390625,0.0
1676923593.2027655,-20.99609375,-38.0859375,-20.01953125,-182.6171875,0.0
1676923593.2040129,4.39453125,-31.73828125,-32.71484375,41.50390625,0.0
1676923593.2078028,33.69140625,-34.1796875,-38.0859375,209.9609375,0.0
1676923593.2115927,1.46484375,-38.0859375,-24.4140625,15.625,0.0
1676923593.2153826,-24.4140625,-31.25,-20.5078125,-202.63671875,0.0
1676923593.2191725,-3.90625,-34.1796875,-29.78515625,-6.34765625,0.0
1676923593.2229624,-1.953125,-39.55078125,-35.64453125,244.62890625,0.0
1676923593.2267523,-21.484375,-30.76171875,-18.06640625,127.9296875,0.0
1676923593.2305422,-37.109375,-24.90234375,-10.25390625,-154.296875,0.0
1676923593.234332,-10.7421875,-32.2265625,-29.78515625,-88.37890625,0.0
1676923593.238122,4.39453125,-37.109375,-37.109375,180.17578125,0.0
1676923593.241912,-14.6484375,-27.83203125,-5.859375,148.92578125,0.0
1676923593.2457018,-36.62109375,-22.4609375,-10.7421875,-138.671875,0.0
1676923593.2494917,-26.85546875,-30.2734375,-29.296875,-171.38671875,0.0
1676923593.2532055,-16.11328125,-37.59765625,-22.94921875,81.0546875,0.0
1676923593.2569194,-31.25,-37.59765625,-12.6953125,166.50390625,0.0
1676923593.260633,-60.05859375,-33.203125,-11.23046875,-43.9453125,0.0
1676923593.2643468,-75.68359375,-34.1796875,-15.13671875,-200.68359375,0.0
1676923593.2680607,-43.9453125,-37.109375,-13.671875,13.18359375,0.0
1676923593.2717745,-28.80859375,-42.96875,-19.53125,213.8671875,0.0
1676923593.2754884,-57.6171875,-42.96875,-18.5546875,58.59375,0.0
1676923593.2792022,-74.70703125,-44.43359375,-20.01953125,-171.875,0.0
1676923593.282916,-39.0625,-36.62109375,-5.37109375,-31.25,0.0
1676923593.2866297,-4.8828125,-27.83203125,8.7890625,202.1484375,0.0
1676923593.2903435,-16.11328125,-34.1796875,-7.32421875,115.72265625,0.0
1676923593.2940574,-55.6640625,-36.1328125,-16.11328125,-155.76171875,0.0
1676923593.2979078,-40.52734375,-35.15625,-14.16015625,-121.09375,0.0
1676923593.301758,5.37109375,-35.64453125,-10.25390625,143.06640625,0.0
1676923593.3056083,-7.8125,-36.62109375,-18.06640625,173.33984375,0.0
1676923593.3094587,-41.50390625,-36.62109375,-20.5078125,-107.91015625,0.0
1676923593.3133092,-34.1796875,-30.2734375,-10.25390625,-216.796875,0.0
1676923593.3171594,-4.39453125,-29.78515625,-17.08984375,25.87890625,0.0
1676923593.3210096,-5.37109375,-33.69140625,-29.296875,144.04296875,0.0
1676923593.32486,-31.25,-33.69140625,-26.85546875,-68.84765625,0.0
1676923593.3287106,-40.52734375,-25.390625,-4.39453125,-249.51171875,0.0
1676923593.3325608,-8.30078125,-26.3671875,-7.8125,-26.85546875,0.0
1676923593.336411,3.90625,-32.2265625,-19.53125,201.66015625,0.0
1676923593.3402615,-8.30078125,-29.296875,-15.625,91.30859375,0.0
1676923593.3439102,-21.97265625,-25.87890625,-14.6484375,-118.1640625,0.0
1676923593.3475592,-10.25390625,-34.66796875,-22.4609375,9.27734375,0.0
1676923593.3512082,14.16015625,-36.1328125,-27.83203125,280.76171875,0.0
1676923593.354857,-2.44140625,-27.34375,-20.01953125,240.72265625,0.0
1676923593.3585057,-34.66796875,-29.78515625,-20.5078125,-40.0390625,0.0
1676923593.3621547,-24.4140625,-33.203125,-29.78515625,-59.08203125,0.0
1676923593.3658037,-4.8828125,-35.15625,-44.43359375,203.61328125,0.0
1676923593.3694525,5.37109375,-33.203125,-41.015625,233.88671875,0.0
1676923593.3731012,-5.859375,-29.296875,-23.4375,-68.359375,0.0
1676923593.3767502,-19.04296875,-34.1796875,-31.25,-177.24609375,0.0
1676923593.3803992,12.20703125,-34.1796875,-27.83203125,82.03125,0.0
1676923593.384048,17.578125,-28.3203125,-17.08984375,209.9609375,0.0
1676923593.3878033,-11.23046875,-30.2734375,-18.5546875,-3.41796875,0.0
1676923593.3915586,-29.78515625,-35.64453125,-32.71484375,-200.68359375,0.0
1676923593.3953137,-23.4375,-38.57421875,-33.69140625,-17.578125,0.0
1676923593.399069,-9.27734375,-38.57421875,-25.87890625,197.75390625,0.0
1676923593.4028244,-24.90234375,-38.57421875,-30.2734375,56.640625,0.0
1676923593.4065795,-50.78125,-35.15625,-47.36328125,-203.125,0.0
1676923593.4103348,-45.41015625,-33.69140625,-47.8515625,-106.4453125,0.0
1676923593.4140902,-26.3671875,-32.71484375,-32.71484375,130.859375,0.0
1676923593.4178455,-20.5078125,-30.2734375,-27.34375,97.16796875,0.0
1676923593.4216008,-51.26953125,-34.66796875,-45.41015625,-166.015625,0.0
1676923593.425356,-56.15234375,-26.85546875,-42.48046875,-205.56640625,0.0
1676923593.4291112,-29.296875,-27.34375,-18.5546875,50.78125,0.0
1676923593.4341059,-31.25,-33.69140625,-25.87890625,132.32421875,0.0
1676923593.4391003,-57.6171875,-29.78515625,-31.73828125,-114.74609375,0.0
1676923593.444095,-56.640625,-31.25,-33.203125,-241.69921875,0.0
1676923593.4490893,-19.04296875,-21.97265625,-25.390625,-16.11328125,0.0
1676923593.454084,-17.578125,-19.53125,-26.85546875,143.06640625,0.0
1676923593.4590783,-40.0390625,-32.71484375,-38.0859375,-20.01953125,0.0
1676923593.464073,-49.31640625,-38.57421875,-31.73828125,-232.91015625,0.0
1676923593.4690676,-29.296875,-40.52734375,-25.390625,-90.33203125,0.0
1676923593.474062,-10.7421875,-38.57421875,-37.59765625,140.13671875,0.0
1676923593.4790566,-32.2265625,-43.45703125,-51.7578125,39.55078125,0.0
1676923593.484051,-62.01171875,-40.52734375,-36.1328125,-246.58203125,0.0
1676923593.4890456,-35.64453125,-33.203125,-20.5078125,-179.6875,0.0
1676923593.4927962,-15.625,-38.57421875,-24.90234375,100.09765625,0.0
1676923593.4965467,-28.80859375,-35.15625,-22.4609375,94.7265625,0.0
1676923593.5002975,-47.36328125,-28.3203125,-18.06640625,-186.03515625,0.0
1676923593.504048,-45.41015625,-23.4375,-22.4609375,-217.28515625,0.0
1676923593.5077987,-30.76171875,-27.83203125,-28.80859375,70.3125,0.0
1676923593.5115492,-31.73828125,-34.1796875,-29.78515625,174.8046875,0.0
1676923593.5152998,-51.26953125,-31.25,-26.3671875,-41.9921875,0.0
1676923593.5190504,-51.26953125,-31.25,-24.90234375,-187.98828125,0.0
1676923593.522801,-38.0859375,-39.0625,-40.52734375,38.0859375,0.0
1676923593.5265517,-20.5078125,-34.66796875,-38.0859375,223.6328125,0.0
1676923593.5303023,-30.2734375,-29.296875,-16.11328125,42.48046875,0.0
1676923593.5340528,-69.82421875,-34.1796875,-24.4140625,-195.80078125,0.0
1676923593.5378032,-44.43359375,-35.15625,-27.83203125,-46.38671875,0.0
1676923593.5415537,-12.20703125,-27.83203125,-23.4375,187.5,0.0
1676923593.545304,-26.3671875,-21.484375,-20.01953125,90.8203125,0.0
1676923593.5490544,-51.7578125,-21.484375,-31.73828125,-187.98828125,0.0
1676923593.552805,-41.50390625,-26.85546875,-38.57421875,-159.1796875,0.0
1676923593.5565553,-15.13671875,-32.2265625,-36.62109375,140.13671875,0.0
1676923593.5603056,-11.23046875,-30.2734375,-29.78515625,169.43359375,0.0
1676923593.5640562,-46.38671875,-33.203125,-22.94921875,-148.92578125,0.0
1676923593.5678065,-69.3359375,-42.48046875,-37.109375,-233.88671875,0.0
1676923593.5715568,-43.9453125,-43.9453125,-27.83203125,24.90234375,0.0
1676923593.5753074,-30.2734375,-44.43359375,-20.5078125,127.44140625,0.0
1676923593.5790577,-35.64453125,-41.015625,-32.2265625,-94.7265625,0.0
1676923593.5828133,-28.80859375,-35.64453125,-36.62109375,-258.7890625,0.0
1676923593.5865686,-9.765625,-36.1328125,-30.2734375,-32.2265625,0.0
1676923593.590324,-7.32421875,-35.15625,-32.2265625,196.77734375,0.0
1676923593.5940795,-26.3671875,-32.71484375,-46.38671875,75.1953125,0.0
1676923593.597835,-55.6640625,-34.66796875,-44.43359375,-160.64453125,0.0
1676923593.6015904,-47.36328125,-36.62109375,-26.3671875,-13.18359375,0.0
1676923593.6053457,-9.765625,-39.55078125,-19.04296875,246.58203125,0.0
1676923593.6091013,-16.11328125,-40.52734375,-34.66796875,170.41015625,0.0
1676923593.6128569,-41.9921875,-33.69140625,-40.0390625,-118.1640625,0.0
1676923593.6166122,-26.85546875,-26.3671875,-16.11328125,-143.06640625,0.0
1676923593.6203675,0.9765625,-31.73828125,-16.11328125,125.48828125,0.0
1676923593.624123,-2.44140625,-31.73828125,-26.85546875,164.55078125,0.0
1676923593.6278684,-24.4140625,-24.90234375,-20.5078125,-98.14453125,0.0
1676923593.6316135,-23.4375,-23.4375,-12.6953125,-181.15234375,0.0
1676923593.6353588,-4.39453125,-34.66796875,-21.484375,73.73046875,0.0
1676923593.639104,-3.41796875,-32.71484375,-24.90234375,200.68359375,0.0
1676923593.6428492,-17.578125,-25.87890625,-21.484375,11.23046875,0.0
1676923593.6465945,-28.3203125,-35.64453125,-24.90234375,-169.43359375,0.0
1676923593.6503396,-22.4609375,-37.109375,-22.94921875,0.9765625,0.0
1676923593.654085,-23.92578125,-34.66796875,-40.52734375,214.35546875,0.0
1676923593.65783,-38.57421875,-29.78515625,-34.1796875,97.65625,0.0
1676923593.6615753,-45.41015625,-20.99609375,-8.30078125,-195.80078125,0.0
1676923593.6653204,-28.80859375,-23.4375,-19.04296875,-126.46484375,0.0
1676923593.6690657,-18.06640625,-25.87890625,-23.92578125,153.3203125,0.0
1676923593.6728144,-25.87890625,-26.85546875,-15.625,119.62890625,0.0
1676923593.6765628,-54.6875,-29.296875,-14.6484375,-166.50390625,0.0
1676923593.6803114,-57.6171875,-28.3203125,-28.3203125,-165.52734375,0.0
1676923593.68406,-33.69140625,-24.4140625,-23.4375,120.60546875,0.0
1676923593.6878088,-26.3671875,-28.80859375,-20.5078125,162.109375,0.0
1676923593.6915574,-41.50390625,-30.2734375,-33.69140625,-72.265625,0.0
1676923593.6953058,-50.78125,-28.3203125,-42.96875,-165.0390625,0.0
1676923593.6990545,-13.671875,-23.92578125,-33.203125,53.22265625,0.0
1676923593.7028031,10.25390625,-19.04296875,-15.625,198.73046875,0.0
1676923593.7065516,-20.5078125,-24.4140625,-21.484375,7.32421875,0.0
1676923593.7103002,-48.828125,-38.0859375,-34.1796875,-212.890625,0.0
1676923593.7140489,-23.92578125,-39.0625,-29.78515625,-65.4296875,0.0
1676923593.717799,9.27734375,-23.4375,-17.578125,149.90234375,0.0
1676923593.721549,-18.06640625,-28.80859375,-22.94921875,58.10546875,0.0
1676923593.725299,-48.828125,-35.15625,-24.4140625,-213.8671875,0.0
1676923593.729049,-20.99609375,-33.69140625,-21.484375,-155.2734375,0.0
1676923593.732799,1.46484375,-32.71484375,-20.99609375,115.72265625,0.0
1676923593.736549,-23.4375,-34.66796875,-28.3203125,123.53515625,0.0
1676923593.740299,-50.78125,-32.2265625,-31.73828125,-125.0,0.0
1676923593.744049,-31.25,-23.4375,-15.625,-187.01171875,0.0
1676923593.7477992,-9.765625,-24.4140625,-2.9296875,75.68359375,0.0
1676923593.7515492,-19.04296875,-27.34375,-13.18359375,178.7109375,0.0
1676923593.755299,-37.59765625,-27.83203125,-22.4609375,-45.8984375,0.0
1676923593.7590492,-44.43359375,-28.80859375,-26.3671875,-196.2890625,0.0
1676923593.7629,-23.92578125,-29.78515625,-17.08984375,3.41796875,0.0
1676923593.7667508,-17.08984375,-27.34375,-25.390625,190.91796875,0.0
1676923593.7706017,-37.109375,-30.2734375,-34.66796875,6.8359375,0.0
1676923593.7744524,-43.45703125,-33.203125,-16.6015625,-247.0703125,0.0
1676923593.7783034,-20.5078125,-37.59765625,-15.13671875,-103.02734375,0.0
1676923593.782154,-9.765625,-44.921875,-26.3671875,178.22265625,0.0
1676923593.786005,-14.6484375,-42.96875,-25.390625,115.72265625,0.0
1676923593.789856,-38.57421875,-31.25,-9.765625,-181.15234375,0.0
1676923593.7937067,-36.62109375,-29.78515625,-16.11328125,-136.71875,0.0
1676923593.7975576,-11.71875,-30.76171875,-20.5078125,125.48828125,0.0
1676923593.8014083,-19.04296875,-29.296875,-16.11328125,146.97265625,0.0
1676923593.8052592,-33.203125,-25.390625,-18.5546875,-104.98046875,0.0
1676923593.8114088,-24.4140625,-22.4609375,-20.5078125,-173.828125,0.0
1676923593.817558,12.6953125,-24.90234375,-22.94921875,75.68359375,0.0
1676923593.8237076,21.97265625,-22.4609375,-26.3671875,189.94140625,0.0
1676923593.8298569,-6.8359375,-20.99609375,-19.53125,-15.625,0.0
1676923593.8360064,-33.203125,-26.3671875,-16.11328125,-180.6640625,0.0
1676923593.842156,-25.390625,-31.73828125,-42.48046875,31.25,0.0
1676923593.8483052,1.953125,-30.2734375,-32.71484375,214.84375,0.0
1676923593.8544548,-6.8359375,-22.94921875,-6.34765625,46.875,0.0
1676923593.860604,-37.59765625,-29.78515625,-24.4140625,-204.1015625,0.0
1676923593.8667536,-26.3671875,-29.78515625,-26.85546875,-87.890625,0.0
1676923593.8729029,-5.37109375,-20.99609375,-7.32421875,143.06640625,0.0
1676923593.8790524,-31.25,-28.80859375,-11.71875,87.890625,0.0
1676923593.8815486,-57.12890625,-36.1328125,-24.90234375,-167.96875,0.0
1676923593.8840451,-40.0390625,-31.25,-25.390625,-155.76171875,0.0
1676923593.8865414,-5.859375,-24.90234375,-18.06640625,115.72265625,0.0
1676923593.8890376,-11.23046875,-28.3203125,-19.53125,166.015625,0.0
1676923593.8915339,-58.10546875,-37.59765625,-33.69140625,-83.984375,0.0
1676923593.89403,-66.89453125,-38.0859375,-34.1796875,-169.921875,0.0
1676923593.8965266,-30.76171875,-35.15625,-30.2734375,66.89453125,0.0
1676923593.8990228,-19.04296875,-33.203125,-28.80859375,183.59375,0.0
1676923593.901519,-46.38671875,-34.66796875,-30.76171875,-27.34375,0.0
1676923593.9040155,-61.5234375,-35.15625,-23.92578125,-232.91015625,0.0
1676923593.9065118,-35.15625,-35.15625,-13.671875,-35.64453125,0.0
1676923593.909008,-14.16015625,-34.1796875,-14.16015625,175.29296875,0.0
1676923593.912753,-32.71484375,-34.66796875,-35.15625,56.640625,0.0
1676923593.9164982,-57.12890625,-26.85546875,-33.69140625,-181.640625,0.0
1676923593.9202433,-37.59765625,-19.04296875,-6.8359375,-120.1171875,0.0
1676923593.9239883,-5.859375,-22.4609375,-18.06640625,128.41796875,0.0
1676923593.9277334,-3.41796875,-19.04296875,-30.2734375,112.79296875,0.0
1676923593.9314785,-40.52734375,-20.99609375,-30.76171875,-167.96875,0.0
1676923593.9352238,-47.36328125,-26.3671875,-22.4609375,-190.91796875,0.0
1676923593.938969,-19.53125,-26.85546875,-20.99609375,71.77734375,0.0
1676923593.942714,-23.4375,-31.25,-38.0859375,135.25390625,0.0
1676923593.946459,-45.8984375,-26.85546875,-24.90234375,-104.4921875,0.0
1676923593.9502041,-45.41015625,-29.78515625,-11.71875,-253.41796875,0.0
1676923593.9539492,-24.4140625,-39.55078125,-26.3671875,-21.484375,0.0
1676923593.957708,-24.90234375,-36.1328125,-26.85546875,139.16015625,0.0
1676923593.9614666,-42.96875,-24.90234375,-12.6953125,-88.8671875,0.0
1676923593.9652252,-55.6640625,-20.5078125,-14.6484375,-295.41015625,0.0
1676923593.9689837,-34.66796875,-23.92578125,-24.4140625,-94.7265625,0.0
1676923593.9727423,-6.34765625,-28.3203125,-25.87890625,137.6953125,0.0
1676923593.976501,-28.80859375,-26.85546875,-23.92578125,46.38671875,0.0
1676923593.9802597,-55.6640625,-26.3671875,-21.484375,-188.4765625,0.0
1676923593.9840183,-46.38671875,-31.73828125,-32.71484375,-98.6328125,0.0
1676923593.9877768,-20.5078125,-25.390625,-30.2734375,192.3828125,0.0
1676923593.9915354,-14.6484375,-12.20703125,-2.44140625,183.59375,0.0
1676923593.995294,-42.48046875,-23.4375,-8.30078125,-113.28125,0.0
1676923593.9990528,-49.31640625,-37.109375,-21.484375,-161.1328125,0.0
1676923594.002832,-20.99609375,-31.73828125,-14.6484375,94.7265625,0.0
1676923594.006611,-4.8828125,-26.3671875,-13.671875,83.49609375,0.0
1676923594.0103903,-38.0859375,-28.3203125,-22.94921875,-200.68359375,0.0
1676923594.0141697,-55.17578125,-34.1796875,-29.296875,-312.5,0.0
1676923594.0179489,-17.578125,-30.2734375,-20.99609375,-84.9609375,0.0
1676923594.021728,3.41796875,-22.94921875,-14.16015625,113.28125,0.0
1676923594.0255072,-21.484375,-32.2265625,-22.94921875,-41.015625,0.0
1676923594.0292864,-57.6171875,-36.62109375,-36.62109375,-263.671875,0.0
1676923594.0330658,-39.55078125,-23.92578125,-21.484375,-113.76953125,0.0
1676923594.036845,-15.13671875,-22.94921875,-12.6953125,127.9296875,0.0
1676923594.0406241,-41.015625,-34.66796875,-27.34375,67.87109375,0.0
1676923594.0444033,-57.12890625,-30.2734375,-24.4140625,-213.37890625,0.0
1676923594.048122,-39.0625,-29.296875,-15.13671875,-199.70703125,0.0
1676923594.0518405,-16.11328125,-31.25,-18.06640625,62.5,0.0
1676923594.0555592,-15.13671875,-27.83203125,-27.34375,101.07421875,0.0
1676923594.059278,-48.33984375,-36.1328125,-27.34375,-158.69140625,0.0
1676923594.0629966,-63.96484375,-37.109375,-20.5078125,-234.86328125,0.0
1676923594.0667152,-43.45703125,-37.59765625,-20.5078125,61.03515625,0.0
1676923594.0704339,-49.8046875,-40.52734375,-33.203125,219.7265625,0.0
1676923594.0741525,-72.265625,-36.62109375,-36.1328125,15.13671875,0.0
1676923594.0778713,-80.078125,-30.76171875,-17.578125,-184.08203125,0.0
1676923594.08159,-58.10546875,-29.78515625,-22.94921875,0.9765625,0.0
1676923594.0853086,-30.76171875,-25.390625,-29.296875,174.8046875,0.0
1676923594.0890272,-40.0390625,-27.83203125,-21.97265625,22.94921875,0.0
1676923594.0927773,-49.8046875,-31.25,-21.97265625,-218.75,0.0
1676923594.0965276,-39.55078125,-31.25,-32.2265625,-92.28515625,0.0
1676923594.100278,-22.94921875,-32.71484375,-34.1796875,165.0390625,0.0
1676923594.104028,-26.85546875,-33.203125,-25.87890625,107.421875,0.0
1676923594.107778,-60.05859375,-33.69140625,-32.2265625,-173.828125,0.0
1676923594.1115284,-41.50390625,-31.73828125,-34.66796875,-166.015625,0.0
1676923594.1152787,-13.671875,-33.69140625,-38.57421875,108.88671875,0.0
1676923594.1190288,-15.13671875,-29.78515625,-25.87890625,95.703125,0.0
1676923594.122779,-18.06640625,-24.4140625,-11.23046875,-244.140625,0.0
1676923594.1265292,-23.92578125,-35.64453125,-26.85546875,-378.41796875,0.0
1676923594.1302795,-4.8828125,-31.73828125,-26.85546875,-120.60546875,0.0
1676923594.1340296,-7.8125,-29.78515625,-16.6015625,37.109375,0.0
1676923594.1390288,-42.48046875,-36.62109375,-20.99609375,-157.71484375,0.0
1676923594.144028,-38.0859375,-29.78515625,-25.87890625,-330.078125,0.0
1676923594.1490269,-19.53125,-26.85546875,-32.2265625,-117.1875,0.0
1676923594.154026,-26.85546875,-25.87890625,-27.83203125,104.98046875,0.0
1676923594.1590252,-29.296875,-16.6015625,-16.6015625,-9.27734375,0.0
1676923594.1640244,-53.22265625,-15.13671875,-30.2734375,-229.98046875,0.0
1676923594.1690235,-43.45703125,-24.90234375,-35.15625,-83.984375,0.0
1676923594.1740227,2.44140625,-22.94921875,-22.94921875,201.171875,0.0
1676923594.1790218,1.46484375,-18.5546875,-26.3671875,195.3125,0.0
1676923594.1840208,-38.0859375,-27.83203125,-41.9921875,-52.24609375,0.0
1676923594.18902,-24.90234375,-24.90234375,-36.62109375,-66.40625,0.0
1676923594.194019,14.16015625,-16.6015625,-16.6015625,177.734375,0.0
1676923594.1977715,6.8359375,-14.6484375,-34.66796875,233.3984375,0.0
1676923594.2015238,-19.04296875,-22.4609375,-39.0625,-25.87890625,0.0
1676923594.2052763,-26.85546875,-25.87890625,-23.92578125,-181.640625,0.0
1676923594.2090287,20.5078125,-17.578125,-22.94921875,57.6171875,0.0
1676923594.2127812,35.15625,-23.4375,-31.25,233.88671875,0.0
1676923594.2165337,-4.8828125,-32.71484375,-49.8046875,50.78125,0.0
1676923594.220286,-16.11328125,-25.390625,-38.57421875,-154.78515625,0.0
1676923594.2240384,-3.90625,-18.06640625,-16.11328125,12.20703125,0.0
1676923594.2277908,0.9765625,-25.390625,-25.390625,230.46875,0.0
1676923594.231543,-20.5078125,-27.83203125,-41.50390625,133.7890625,0.0
1676923594.2352955,-24.90234375,-19.04296875,-22.94921875,-156.73828125,0.0
1676923594.239048,2.44140625,-18.5546875,-17.578125,-135.7421875,0.0
1676923594.2428274,5.37109375,-21.484375,-34.66796875,133.7890625,0.0
1676923594.246607,-2.44140625,-15.625,-28.3203125,140.625,0.0
1676923594.2503865,-26.85546875,-18.06640625,-14.16015625,-155.2734375,0.0
1676923594.254166,-27.34375,-25.390625,-20.01953125,-216.30859375,0.0
1676923594.2579455,-10.25390625,-24.90234375,-34.66796875,51.7578125,0.0
1676923594.261725,-14.6484375,-26.3671875,-41.50390625,146.97265625,0.0
1676923594.2655044,-33.203125,-22.4609375,-33.203125,-99.12109375,0.0
1676923594.269284,-33.69140625,-24.90234375,-25.87890625,-275.87890625,0.0
1676923594.2730634,-20.99609375,-39.55078125,-44.43359375,-37.109375,0.0
1676923594.2768428,-5.37109375,-33.69140625,-41.015625,150.390625,0.0
1676923594.2806225,-18.06640625,-24.90234375,-22.4609375,-49.31640625,0.0
1676923594.284402,-33.203125,-27.34375,-33.69140625,-303.22265625,0.0
1676923594.290623,-10.7421875,-30.2734375,-32.71484375,-158.203125,0.0
1676923594.2968438,-6.34765625,-34.1796875,-25.87890625,85.44921875,0.0
1676923594.3030648,-20.99609375,-30.2734375,-30.2734375,12.20703125,0.0
1676923594.3092859,-41.9921875,-27.34375,-32.2265625,-236.328125,0.0
1676923594.3155067,-43.45703125,-34.66796875,-36.62109375,-187.5,0.0
1676923594.3217278,-15.625,-29.296875,-33.203125,87.890625,0.0
1676923594.3279488,-12.20703125,-22.4609375,-23.92578125,110.3515625,0.0
1676923594.3341696,-53.22265625,-28.80859375,-29.296875,-150.87890625,0.0
1676923594.3403907,-70.80078125,-27.83203125,-43.45703125,-186.03515625,0.0
1676923594.3466117,-28.80859375,-20.5078125,-33.203125,78.125,0.0
1676923594.3528326,-13.671875,-22.4609375,-21.97265625,155.2734375,0.0
1676923594.3590536,-59.5703125,-25.390625,-27.34375,-59.5703125,0.0
1676923594.3615522,-74.21875,-20.99609375,-20.5078125,-225.09765625,0.0
1676923594.3640509,-35.64453125,-20.99609375,-17.578125,-18.5546875,0.0
1676923594.3665495,-28.3203125,-27.34375,-25.87890625,180.6640625,0.0
1676923594.3690484,-65.91796875,-33.69140625,-32.2265625,0.9765625,0.0
1676923594.371547,-90.8203125,-35.64453125,-30.76171875,-273.4375,0.0
1676923594.3740456,-68.359375,-41.50390625,-27.34375,-142.578125,0.0
1676923594.3765442,-54.19921875,-37.59765625,-30.76171875,115.234375,0.0
1676923594.3790429,-63.96484375,-32.2265625,-31.73828125,66.89453125,0.0
1676923594.3815417,-80.078125,-33.203125,-22.4609375,-188.4765625,0.0
1676923594.3840404,-65.91796875,-30.2734375,-21.97265625,-171.38671875,0.0
1676923594.386539,-28.3203125,-32.2265625,-30.2734375,99.609375,0.0
1676923594.3890376,-34.66796875,-34.1796875,-24.90234375,148.92578125,0.0
1676923594.3927886,-63.96484375,-31.73828125,-24.4140625,-107.421875,0.0
1676923594.3965397,-65.4296875,-29.296875,-24.4140625,-242.1875,0.0
1676923594.400291,-33.203125,-36.1328125,-26.85546875,-24.4140625,0.0
1676923594.404042,-30.76171875,-47.36328125,-53.22265625,147.4609375,0.0
1676923594.407793,-54.19921875,-38.0859375,-51.26953125,-57.12890625,0.0
1676923594.4115443,-54.19921875,-29.78515625,-30.2734375,-258.30078125,0.0
1676923594.4152954,-34.1796875,-33.203125,-27.34375,-49.31640625,0.0
1676923594.4190464,-18.06640625,-28.80859375,-22.94921875,165.0390625,0.0
1676923594.4227974,-38.0859375,-22.94921875,-25.390625,76.171875,0.0
1676923594.4265485,-60.05859375,-24.90234375,-24.90234375,-142.08984375,0.0
1676923594.4302998,-31.73828125,-31.73828125,-24.4140625,-44.43359375,0.0
1676923594.4340508,-16.11328125,-39.55078125,-42.48046875,221.19140625,0.0
1676923594.4365718,-22.4609375,-34.1796875,-36.1328125,171.875,0.0
1676923594.4390929,-45.8984375,-32.2265625,-21.484375,-136.23046875,0.0
1676923594.4416137,-38.57421875,-40.0390625,-33.69140625,-135.25390625,0.0
1676923594.4441347,12.6953125,-32.2265625,-31.73828125,138.18359375,0.0
1676923594.4466558,21.97265625,-25.390625,-21.484375,185.05859375,0.0
1676923594.4491768,-14.6484375,-30.2734375,-37.109375,-55.17578125,0.0
1676923594.4516978,-12.6953125,-26.3671875,-41.9921875,-171.38671875,0.0
1676923594.4542189,14.16015625,-24.4140625,-26.85546875,39.55078125,0.0
1676923594.45674,17.578125,-29.296875,-12.20703125,182.12890625,0.0
1676923594.4592607,-12.6953125,-26.85546875,-17.08984375,11.71875,0.0
1676923594.4617817,-52.734375,-35.15625,-36.62109375,-178.22265625,0.0
1676923594.4643028,-37.59765625,-39.0625,-34.1796875,-20.5078125,0.0
1676923594.4693074,-12.20703125,-27.83203125,-16.6015625,171.38671875,0.0
1676923594.474312,-29.78515625,-28.3203125,-18.5546875,72.75390625,0.0
1676923594.4793167,-57.6171875,-35.64453125,-29.296875,-169.921875,0.0
1676923594.484321,-41.50390625,-28.80859375,-19.04296875,-92.7734375,0.0
1676923594.4893258,-26.85546875,-26.3671875,-12.20703125,175.29296875,0.0
1676923594.4943304,-43.45703125,-36.1328125,-23.4375,188.4765625,0.0
1676923594.499335,-60.546875,-41.9921875,-31.25,-78.61328125,0.0
1676923594.5043397,-46.875,-31.25,-22.4609375,-167.96875,0.0
1676923594.509344,-15.625,-23.4375,-14.16015625,74.21875,0.0
1676923594.5143487,-29.78515625,-34.66796875,-20.99609375,165.52734375,0.0
1676923594.5193534,-58.10546875,-35.64453125,-29.296875,-62.01171875,0.0
1676923594.524358,-57.6171875,-30.2734375,-27.83203125,-201.66015625,0.0
1676923594.5268295,-33.69140625,-39.0625,-26.3671875,14.16015625,0.0
1676923594.5293007,-32.71484375,-40.0390625,-32.2265625,191.40625,0.0
1676923594.5317721,-60.05859375,-40.0390625,-38.57421875,11.71875,0.0
1676923594.5342436,-62.98828125,-44.921875,-32.2265625,-235.83984375,0.0
1676923594.536715,-28.80859375,-43.45703125,-26.3671875,-82.51953125,0.0
1676923594.5391865,-6.8359375,-39.0625,-39.0625,170.41015625,0.0
1676923594.5416577,-12.20703125,-29.296875,-35.15625,79.58984375,0.0
1676923594.5441291,-44.921875,-28.80859375,-23.4375,-195.80078125,0.0
1676923594.5466006,-39.55078125,-23.4375,-20.99609375,-159.66796875,0.0
1676923594.5490718,-21.484375,-22.94921875,-34.66796875,124.51171875,0.0
1676923594.5515432,-24.90234375,-25.87890625,-34.1796875,166.015625,0.0
1676923594.5540147,-45.41015625,-20.01953125,-9.765625,-110.83984375,0.0
1676923594.5590184,-53.7109375,-35.15625,-18.06640625,-179.6875,0.0
1676923594.5640218,-23.92578125,-36.62109375,-25.390625,70.80078125,0.0
1676923594.5690255,-14.16015625,-25.87890625,-23.92578125,182.12890625,0.0
1676923594.574029,-37.109375,-23.4375,-20.99609375,-20.01953125,0.0
1676923594.5790327,-54.6875,-23.92578125,-25.87890625,-182.12890625,0.0
1676923594.5840364,-33.203125,-27.83203125,-32.2265625,43.45703125,0.0
1676923594.5890398,-18.06640625,-28.80859375,-23.92578125,211.42578125,0.0
1676923594.5940435,-30.2734375,-34.66796875,-15.625,13.671875,0.0
1676923594.599047,-42.96875,-31.25,-12.6953125,-223.6328125,0.0
1676923594.6040506,-40.0390625,-33.203125,-29.296875,-80.078125,0.0
1676923594.609054,-14.16015625,-33.69140625,-19.04296875,180.6640625,0.0
1676923594.6140578,-21.484375,-28.3203125,-4.39453125,122.0703125,0.0
1676923594.6178079,-51.26953125,-34.1796875,-16.6015625,-165.52734375,0.0
1676923594.6215577,-35.15625,-33.203125,-14.16015625,-149.90234375,0.0
1676923594.6253078,-13.18359375,-28.80859375,-9.765625,117.1875,0.0
1676923594.629058,-28.3203125,-32.71484375,-11.71875,152.83203125,0.0
1676923594.6328077,-53.22265625,-34.66796875,-15.13671875,-97.65625,0.0
1676923594.6365578,-59.5703125,-34.66796875,-27.83203125,-196.2890625,0.0
1676923594.640308,-38.0859375,-37.59765625,-31.73828125,49.31640625,0.0
1676923594.6440578,-20.01953125,-34.1796875,-20.99609375,153.80859375,0.0
1676923594.6478078,-41.50390625,-37.59765625,-36.62109375,-10.7421875,0.0
1676923594.651558,-69.82421875,-37.59765625,-41.9921875,-164.55078125,0.0
1676923594.6553078,-29.296875,-20.5078125,-10.25390625,-5.37109375,0.0
1676923594.6590579,-2.44140625,-20.99609375,-9.765625,212.890625,0.0
1676923594.6627848,-42.48046875,-30.2734375,-22.4609375,67.3828125,0.0
1676923594.666512,-68.359375,-28.80859375,-20.01953125,-204.1015625,0.0
1676923594.670239,-50.29296875,-25.87890625,-14.6484375,-110.3515625,0.0
1676923594.673966,-29.296875,-33.203125,-16.6015625,139.6484375,0.0
1676923594.6776931,-33.69140625,-35.64453125,-22.4609375,114.2578125,0.0
1676923594.68142,-64.94140625,-34.1796875,-25.390625,-163.0859375,0.0
1676923594.685147,-57.6171875,-29.296875,-17.08984375,-181.15234375,0.0
1676923594.6888742,-15.13671875,-26.85546875,-15.625,90.8203125,0.0
1676923594.6926012,-26.3671875,-35.64453125,-30.76171875,183.59375,0.0
1676923594.6963282,-60.546875,-34.1796875,-27.83203125,-54.6875,0.0
1676923594.7000554,-55.6640625,-25.390625,-20.99609375,-207.03125,0.0
1676923594.7037823,-23.92578125,-21.97265625,-27.83203125,43.45703125,0.0
1676923594.707656,-20.01953125,-25.87890625,-22.4609375,198.2421875,0.0
1676923594.7115295,-56.640625,-25.87890625,-12.6953125,-46.875,0.0
1676923594.715403,-73.73046875,-21.97265625,-14.16015625,-283.203125,0.0
1676923594.7192767,-47.8515625,-31.73828125,-16.6015625,-117.67578125,0.0
1676923594.7231503,-29.78515625,-32.2265625,-16.6015625,92.28515625,0.0
1676923594.727024,-23.4375,-28.80859375,-17.578125,-21.484375,0.0
1676923594.7308977,-40.52734375,-26.3671875,-13.18359375,-303.7109375,0.0
1676923594.7347713,-42.96875,-29.78515625,-29.78515625,-261.23046875,0.0
1676923594.7386448,-35.15625,-29.296875,-31.25,0.9765625,0.0
1676923594.7425184,-46.875,-28.3203125,-12.20703125,-57.12890625,0.0
1676923594.746392,-72.75390625,-35.64453125,-22.4609375,-379.8828125,0.0
1676923594.7502656,-64.453125,-30.76171875,-26.85546875,-433.59375,0.0
1676923594.7539115,-29.78515625,-25.87890625,-20.99609375,-167.48046875,0.0
1676923594.7575576,-18.06640625,-29.296875,-19.53125,-89.35546875,0.0
1676923594.7612038,-52.24609375,-36.1328125,-27.83203125,-339.35546875,0.0
1676923594.7648497,-68.84765625,-36.1328125,-38.0859375,-493.1640625,0.0
1676923594.7684956,-34.66796875,-36.62109375,-32.2265625,-272.4609375,0.0
1676923594.7721417,-32.2265625,-36.62109375,-24.4140625,-105.95703125,0.0
1676923594.7757878,-53.7109375,-37.109375,-24.4140625,-268.06640625,0.0
1676923594.7794337,-80.078125,-41.015625,-40.0390625,-465.33203125,0.0
1676923594.7830796,-53.7109375,-38.0859375,-35.64453125,-322.265625,0.0
1676923594.7867258,-16.6015625,-33.203125,-23.4375,-92.28515625,0.0
1676923594.790372,-32.71484375,-39.55078125,-45.8984375,-173.828125,0.0
1676923594.7940178,-54.19921875,-35.64453125,-45.41015625,-429.19921875,0.0
1676923594.7977679,-43.9453125,-30.76171875,-23.4375,-344.23828125,0.0
1676923594.801518,-22.4609375,-36.1328125,-21.97265625,-51.7578125,0.0
1676923594.8052683,-40.0390625,-46.875,-32.71484375,-28.3203125,0.0
1676923594.8090184,-57.6171875,-49.31640625,-25.87890625,-269.04296875,0.0
1676923594.8127685,-51.26953125,-45.8984375,-20.99609375,-337.40234375,0.0
1676923594.8165188,-37.59765625,-46.38671875,-29.78515625,-69.82421875,0.0
1676923594.8202689,-43.45703125,-49.8046875,-38.0859375,73.73046875,0.0
1676923594.824019,-75.68359375,-57.6171875,-47.8515625,-152.34375,0.0
1676923594.827769,-69.3359375,-46.38671875,-22.4609375,-333.49609375,0.0
1676923594.8315191,-43.9453125,-43.45703125,-22.94921875,-105.46875,0.0
1676923594.8352695,-36.1328125,-47.36328125,-34.1796875,115.234375,0.0
1676923594.8390195,-39.0625,-45.8984375,-23.4375,0.9765625,0.0
1676923594.8452723,-43.45703125,-43.45703125,-28.3203125,-224.609375,0.0
1676923594.851525,-38.57421875,-38.0859375,-32.71484375,-114.74609375,0.0
1676923594.8577778,-33.69140625,-35.15625,-38.57421875,141.6015625,0.0
1676923594.8640306,-42.96875,-30.2734375,-34.1796875,84.47265625,0.0
1676923594.8702834,-78.61328125,-33.69140625,-29.78515625,-182.6171875,0.0
1676923594.876536,-82.03125,-40.52734375,-32.71484375,-149.4140625,0.0
1676923594.8827887,-50.78125,-35.64453125,-34.66796875,132.8125,0.0
1676923594.8890414,-29.78515625,-38.0859375,-22.94921875,172.36328125,0.0
1676923594.8952942,-43.9453125,-43.45703125,-19.53125,-100.5859375,0.0
1676923594.901547,-59.5703125,-42.48046875,-37.109375,-192.87109375,0.0
1676923594.9077997,-39.55078125,-43.9453125,-31.25,76.171875,0.0
1676923594.9140525,-21.97265625,-37.109375,-13.671875,224.12109375,0.0
1676923594.9165525,-29.296875,-32.2265625,-15.625,39.55078125,0.0
1676923594.9190528,-47.8515625,-38.0859375,-23.92578125,-138.18359375,0.0
1676923594.921553,-22.94921875,-37.59765625,-19.04296875,73.2421875,0.0
1676923594.9240532,-8.7890625,-34.1796875,-19.53125,296.38671875,0.0
1676923594.9265532,-36.62109375,-33.69140625,-31.25,147.4609375,0.0
1676923594.9290533,-52.734375,-33.203125,-46.875,-101.5625,0.0
1676923594.9315536,-34.66796875,-25.87890625,-43.45703125,5.859375,0.0
1676923594.9340537,-17.578125,-19.53125,-33.203125,239.74609375,0.0
1676923594.936554,-16.6015625,-18.06640625,-31.73828125,186.03515625,0.0
1676923594.939054,-44.43359375,-20.5078125,-33.203125,-90.8203125,0.0
1676923594.9415543,-44.921875,-21.97265625,-34.1796875,-109.375,0.0
1676923594.9440544,-16.6015625,-22.94921875,-30.76171875,167.48046875,0.0
1676923594.9477935,-2.44140625,-13.671875,-33.203125,268.06640625,0.0
1676923594.9515326,-14.16015625,-18.5546875,-44.43359375,30.76171875,0.0
1676923594.9552717,-37.109375,-31.73828125,-44.43359375,-119.140625,0.0
1676923594.9590108,-19.04296875,-20.5078125,-26.3671875,105.46875,0.0
1676923594.96275,-4.39453125,-21.484375,-27.83203125,266.6015625,0.0
1676923594.9664888,-24.4140625,-24.90234375,-30.76171875,83.984375,0.0
1676923594.970228,-43.45703125,-21.484375,-22.94921875,-137.20703125,0.0
1676923594.973967,-16.11328125,-20.5078125,-13.18359375,1.46484375,0.0
1676923594.9777062,7.32421875,-25.87890625,-20.5078125,201.66015625,0.0
1676923594.9814453,-30.2734375,-24.4140625,-38.0859375,118.1640625,0.0
1676923594.9851844,-63.4765625,-14.6484375,-22.4609375,-101.07421875,0.0
1676923594.9889235,-32.71484375,-16.11328125,-8.7890625,-19.53125,0.0
1676923594.9926846,-20.01953125,-24.90234375,-25.390625,277.83203125,0.0
1676923594.996446,-31.25,-27.83203125,-25.390625,318.84765625,0.0
1676923595.000207,-47.36328125,-28.80859375,-20.99609375,83.984375,0.0
1676923595.003968,-38.57421875,-28.80859375,-20.5078125,53.22265625,0.0
1676923595.0077293,-9.765625,-28.3203125,-26.85546875,317.3828125,0.0
1676923595.0114903,-12.6953125,-27.34375,-33.203125,414.0625,0.0
1676923595.0152514,-38.0859375,-15.625,-18.5546875,157.71484375,0.0
1676923595.0190127,-34.66796875,-15.625,-16.11328125,-17.578125,0.0
1676923595.0227737,-5.859375,-28.80859375,-35.64453125,210.44921875,0.0
1676923595.0265348,2.44140625,-34.66796875,-36.62109375,362.79296875,0.0
1676923595.030296,-18.5546875,-32.2265625,-15.625,142.08984375,0.0
1676923595.0340571,-44.921875,-32.2265625,-21.484375,-75.68359375,0.0
1676923595.0390542,-26.85546875,-31.73828125,-23.92578125,88.8671875,0.0
1676923595.0440512,-4.39453125,-34.66796875,-15.13671875,299.8046875,0.0
1676923595.0490484,-15.13671875,-33.69140625,-19.53125,220.703125,0.0
1676923595.0540454,-41.9921875,-29.78515625,-30.76171875,-49.8046875,0.0
1676923595.0590425,-39.0625,-34.66796875,-33.69140625,-15.625,0.0
1676923595.0640397,-0.48828125,-40.0390625,-33.203125,243.1640625,0.0
1676923595.0690367,4.8828125,-35.15625,-32.2265625,212.890625,0.0
1676923595.0740337,-28.3203125,-28.80859375,-28.80859375,-62.01171875,0.0
1676923595.0790308,-35.15625,-30.76171875,-44.43359375,-110.83984375,0.0
1676923595.0840278,-11.23046875,-28.3203125,-31.25,162.109375,0.0
1676923595.089025,-6.34765625,-20.99609375,-8.7890625,258.30078125,0.0
1676923595.094022,-31.25,-25.390625,-24.90234375,12.20703125,0.0
1676923595.0965245,-52.734375,-37.59765625,-31.73828125,-193.84765625,0.0
1676923595.0990272,-30.76171875,-36.1328125,-23.4375,5.37109375,0.0
1676923595.1015296,-10.25390625,-30.76171875,-21.97265625,195.80078125,0.0
1676923595.104032,-28.80859375,-31.25,-32.71484375,44.921875,0.0
1676923595.1065345,-46.875,-31.73828125,-34.1796875,-187.98828125,0.0
1676923595.109037,-41.015625,-29.78515625,-28.3203125,-57.12890625,0.0
1676923595.1115396,-25.390625,-37.59765625,-31.25,198.2421875,0.0
1676923595.114042,-24.4140625,-45.41015625,-41.9921875,150.390625,0.0
1676923595.1165445,-41.015625,-43.45703125,-40.52734375,-134.765625,0.0
1676923595.1190472,-29.78515625,-36.62109375,-21.97265625,-131.8359375,0.0
1676923595.1215496,-0.9765625,-31.73828125,-16.11328125,162.59765625,0.0
1676923595.124052,-26.85546875,-35.64453125,-39.0625,210.9375,0.0
1676923595.1278112,-78.61328125,-33.203125,-46.875,-64.453125,0.0
1676923595.1315703,-72.265625,-33.69140625,-37.59765625,-178.22265625,0.0
1676923595.1353295,-41.9921875,-36.62109375,-33.69140625,69.3359375,0.0
1676923595.1390886,-46.38671875,-37.59765625,-44.921875,208.49609375,0.0
1676923595.1428478,-80.56640625,-39.0625,-37.109375,-2.9296875,0.0
1676923595.146607,-85.44921875,-39.0625,-25.390625,-182.12890625,0.0
1676923595.150366,-59.5703125,-36.1328125,-38.0859375,41.9921875,0.0
1676923595.1541252,-59.08203125,-41.015625,-39.55078125,258.30078125,0.0
1676923595.1578844,-65.91796875,-43.45703125,-25.390625,118.1640625,0.0
1676923595.1616435,-65.91796875,-32.2265625,-17.08984375,-152.83203125,0.0
1676923595.1654027,-60.05859375,-33.69140625,-29.296875,-80.078125,0.0
1676923595.1691618,-57.12890625,-42.96875,-26.3671875,185.546875,0.0
1676923595.1730042,-61.03515625,-42.48046875,-17.08984375,175.29296875,0.0
1676923595.1768465,-75.68359375,-41.015625,-20.99609375,-110.3515625,0.0
1676923595.1806889,-82.03125,-40.52734375,-34.66796875,-125.48828125,0.0
1676923595.1845315,-51.7578125,-39.55078125,-38.0859375,160.15625,0.0
1676923595.1883738,-23.4375,-32.71484375,-25.390625,204.1015625,0.0
1676923595.1922162,-41.015625,-35.15625,-25.390625,-57.12890625,0.0
1676923595.1960585,-52.734375,-45.8984375,-40.0390625,-167.96875,0.0
1676923595.1999009,-28.3203125,-42.48046875,-36.62109375,52.734375,0.0
1676923595.2037435,-20.99609375,-38.0859375,-7.8125,179.6875,0.0
1676923595.2075858,-52.24609375,-42.96875,-18.06640625,-30.2734375,0.0
1676923595.2114282,-85.44921875,-41.9921875,-27.34375,-250.9765625,0.0
1676923595.2152705,-51.26953125,-34.1796875,-15.625,-68.84765625,0.0
1676923595.218928,-23.92578125,-35.64453125,-17.578125,170.41015625,0.0
1676923595.2225857,-35.64453125,-35.15625,-21.484375,67.3828125,0.0
1676923595.226243,-54.19921875,-30.76171875,-28.3203125,-176.26953125,0.0
1676923595.2299006,-48.828125,-28.80859375,-20.99609375,-67.87109375,0.0
1676923595.2335582,-29.296875,-31.25,-12.6953125,214.35546875,0.0
1676923595.2372155,-36.62109375,-32.71484375,-16.6015625,230.46875,0.0
1676923595.240873,-78.61328125,-33.69140625,-32.2265625,-9.765625,0.0
1676923595.2445307,-76.171875,-38.57421875,-25.390625,-69.3359375,0.0
1676923595.2481883,-19.53125,-32.2265625,-3.90625,157.2265625,0.0
1676923595.2518458,-16.6015625,-36.1328125,-20.01953125,238.28125,0.0
1676923595.2555032,-36.1328125,-36.1328125,-21.97265625,6.8359375,0.0
1676923595.2591608,-25.390625,-26.3671875,-13.671875,-162.109375,0.0
1676923595.264262,2.44140625,-29.78515625,-11.23046875,41.015625,0.0
1676923595.2693632,10.7421875,-34.1796875,-15.625,222.16796875,0.0
1676923595.2744644,-14.6484375,-33.203125,-18.06640625,65.91796875,0.0
1676923595.2795656,-33.69140625,-27.83203125,-11.71875,-162.59765625,0.0
1676923595.2846668,-7.8125,-30.76171875,-12.20703125,-33.69140625,0.0
1676923595.2897682,9.27734375,-40.52734375,-24.90234375,208.984375,0.0
1676923595.2948694,-15.625,-38.0859375,-25.390625,132.8125,0.0
1676923595.2999706,-32.2265625,-25.390625,-8.30078125,-164.0625,0.0
1676923595.3050718,-24.90234375,-22.94921875,-6.8359375,-144.53125,0.0
1676923595.310173,-26.85546875,-24.4140625,-21.484375,141.11328125,0.0
1676923595.3152742,-35.15625,-21.97265625,-11.23046875,162.109375,0.0
1676923595.3203754,-39.55078125,-22.94921875,0.48828125,-118.65234375,0.0
1676923595.3240159,-42.48046875,-28.80859375,-18.06640625,-191.40625,0.0
1676923595.3276563,-16.11328125,-28.80859375,-18.5546875,79.58984375,0.0
1676923595.3312967,-10.25390625,-23.92578125,-4.8828125,187.5,0.0
1676923595.334937,-33.69140625,-20.99609375,-2.44140625,-56.15234375,0.0
1676923595.3385775,-52.734375,-17.08984375,-8.7890625,-222.65625,0.0
1676923595.342218,-57.12890625,-29.296875,-23.92578125,2.9296875,0.0
1676923595.3458583,-29.78515625,-32.71484375,-15.13671875,194.82421875,0.0
1676923595.3494987,-39.0625,-25.87890625,-5.37109375,21.97265625,0.0
1676923595.3531392,-63.96484375,-33.203125,-16.6015625,-223.6328125,0.0
1676923595.3567796,-47.36328125,-37.109375,-32.2265625,-65.91796875,0.0
1676923595.36042,-32.2265625,-28.80859375,-28.80859375,166.9921875,0.0
1676923595.3640604,-22.94921875,-20.5078125,1.46484375,58.10546875,0.0
1676923595.3678098,-36.1328125,-20.5078125,1.953125,-207.51953125,0.0
1676923595.3715591,-27.83203125,-25.390625,-3.41796875,-159.66796875,0.0
1676923595.3753088,-3.41796875,-26.3671875,-4.39453125,118.1640625,0.0
1676923595.3790581,-14.6484375,-23.92578125,-9.765625,152.34375,0.0
1676923595.3828075,-35.64453125,-20.5078125,-14.6484375,-91.30859375,0.0
1676923595.386557,-41.9921875,-20.01953125,-15.625,-156.25,0.0
1676923595.3903065,-20.99609375,-23.92578125,-7.32421875,75.1953125,0.0
1676923595.3940558,3.41796875,-20.5078125,2.44140625,188.96484375,0.0
1676923595.3978052,-29.78515625,-23.92578125,-19.04296875,-5.37109375,0.0
1676923595.4015546,-58.59375,-36.1328125,-27.83203125,-193.84765625,0.0
1676923595.4053042,-14.6484375,-25.390625,-3.41796875,-17.578125,0.0
1676923595.4090536,3.90625,-21.484375,-7.32421875,225.09765625,0.0
1676923595.4141278,-24.4140625,-28.80859375,-21.484375,137.20703125,0.0
1676923595.4192023,-51.7578125,-27.34375,-19.53125,-166.015625,0.0
1676923595.4242768,-40.0390625,-26.3671875,-13.18359375,-93.75,0.0
1676923595.429351,-9.765625,-31.25,-15.13671875,179.19921875,0.0
1676923595.4344254,0.0,-29.78515625,-17.08984375,151.3671875,0.0
1676923595.4394999,-25.390625,-25.390625,-19.04296875,-106.93359375,0.0
1676923595.4445744,-43.9453125,-29.296875,-17.578125,-117.67578125,0.0
1676923595.4496486,-28.3203125,-33.203125,-13.671875,148.4375,0.0
1676923595.454723,-28.80859375,-36.1328125,-30.76171875,211.42578125,0.0
1676923595.4597974,-53.7109375,-26.85546875,-23.92578125,-45.8984375,0.0
1676923595.464872,-54.19921875,-15.625,-4.8828125,-170.8984375,0.0
1676923595.4699461,-24.4140625,-25.390625,-8.30078125,71.77734375,0.0
1676923595.472372,-10.25390625,-37.59765625,-9.27734375,221.6796875,0.0
1676923595.4747982,-38.0859375,-31.25,-3.90625,41.50390625,0.0
1676923595.4772243,-53.22265625,-25.390625,-7.32421875,-166.015625,0.0
1676923595.4796503,-32.71484375,-25.390625,-10.7421875,1.953125,0.0
1676923595.4820762,-13.671875,-27.83203125,-6.34765625,214.84375,0.0
1676923595.4845023,-22.4609375,-21.484375,-5.859375,101.5625,0.0
1676923595.4869285,-54.6875,-24.4140625,-6.8359375,-150.390625,0.0
1676923595.4893544,-44.43359375,-37.109375,-10.25390625,-87.890625,0.0
1676923595.4917803,-18.06640625,-36.1328125,-2.9296875,177.24609375,0.0
1676923595.4942064,-19.04296875,-25.390625,5.859375,182.12890625,0.0
1676923595.4966326,-41.9921875,-22.4609375,3.90625,-75.1953125,0.0
1676923595.4990585,-38.0859375,-35.64453125,-19.04296875,-117.67578125,0.0
1676923595.5028083,-17.08984375,-38.57421875,-20.5078125,139.16015625,0.0
1676923595.506558,-15.625,-27.34375,10.7421875,193.84765625,0.0
1676923595.5103078,-27.34375,-27.83203125,1.953125,-47.8515625,0.0
1676923595.5140576,-34.66796875,-28.3203125,-12.6953125,-170.41015625,0.0
1676923595.5178075,-11.23046875,-23.4375,-14.16015625,55.17578125,0.0
1676923595.5215573,-3.90625,-22.4609375,-14.6484375,218.75,0.0
1676923595.525307,-30.76171875,-22.94921875,-7.8125,43.9453125,0.0
1676923595.5290568,-57.6171875,-25.390625,-22.94921875,-175.29296875,0.0
1676923595.5328066,-40.52734375,-20.99609375,-18.06640625,-36.62109375,0.0
1676923595.5365562,-15.13671875,-14.16015625,1.953125,192.3828125,0.0
1676923595.540306,-27.34375,-18.5546875,-13.18359375,113.28125,0.0
1676923595.544056,-50.29296875,-17.578125,-12.6953125,-158.203125,0.0
1676923595.5477974,-49.31640625,-12.20703125,-0.9765625,-108.88671875,0.0
1676923595.551539,-29.78515625,-22.94921875,0.0,177.734375,0.0
1676923595.5552807,-30.2734375,-31.73828125,-12.20703125,218.26171875,0.0
1676923595.5590222,-52.24609375,-31.25,-11.71875,-66.40625,0.0
1676923595.5627637,-53.7109375,-32.2265625,-2.44140625,-141.11328125,0.0
1676923595.5665054,-26.85546875,-25.390625,-4.8828125,132.32421875,0.0
1676923595.570247,-23.92578125,-27.34375,-17.08984375,232.91015625,0.0
1676923595.5739884,-46.875,-32.71484375,-11.71875,3.90625,0.0
1676923595.57773,-52.24609375,-21.97265625,1.953125,-179.6875,0.0
1676923595.5814714,-38.57421875,-22.4609375,-9.27734375,38.0859375,0.0
1676923595.5852132,-32.71484375,-31.73828125,-8.7890625,242.67578125,0.0
1676923595.5889547,-38.57421875,-30.2734375,6.34765625,87.40234375,0.0
1676923595.5927098,-57.12890625,-20.01953125,7.32421875,-165.52734375,0.0
1676923595.596465,-44.43359375,-19.04296875,1.953125,-46.875,0.0
1676923595.6002202,-3.90625,-24.90234375,4.39453125,186.5234375,0.0
1676923595.6039753,-15.13671875,-25.87890625,3.90625,113.28125,0.0
1676923595.6077304,-45.41015625,-27.83203125,2.9296875,-165.0390625,0.0
1676923595.6114855,-40.0390625,-29.296875,-1.46484375,-154.78515625,0.0
1676923595.6152408,-17.578125,-28.80859375,-15.13671875,125.0,0.0
1676923595.618996,-7.32421875,-24.4140625,2.9296875,155.2734375,0.0
1676923595.622751,-22.4609375,-19.53125,21.484375,-110.83984375,0.0
1676923595.6265063,-26.3671875,-25.390625,11.71875,-192.3828125,0.0
1676923595.6302614,-17.578125,-31.25,10.25390625,52.734375,0.0
1676923595.6340165,-19.04296875,-33.203125,6.34765625,170.8984375,0.0
1676923595.6378622,-42.96875,-30.2734375,5.37109375,-28.80859375,0.0
1676923595.641708,-64.94140625,-29.296875,-1.953125,-194.3359375,0.0
1676923595.6455536,-38.0859375,-29.78515625,-6.8359375,-14.6484375,0.0
1676923595.6493993,-17.578125,-32.71484375,8.30078125,166.015625,0.0
1676923595.653245,-34.66796875,-33.69140625,5.859375,32.2265625,0.0
1676923595.6570907,-61.03515625,-34.66796875,-12.6953125,-226.5625,0.0
1676923595.660936,-40.52734375,-36.62109375,-13.671875,-138.18359375,0.0
1676923595.6647818,-20.5078125,-31.73828125,0.9765625,87.890625,0.0
1676923595.6686275,-39.0625,-27.83203125,5.859375,49.31640625,0.0
1676923595.6724732,-67.3828125,-24.4140625,-3.41796875,-188.96484375,0.0
1676923595.676319,-66.40625,-26.85546875,-1.46484375,-190.91796875,0.0
1676923595.6801646,-32.2265625,-27.83203125,17.08984375,70.3125,0.0
1676923595.6850631,-15.13671875,-30.2734375,19.04296875,141.11328125,0.0
1676923595.6899617,-41.50390625,-29.78515625,6.8359375,-109.86328125,0.0
1676923595.6948602,-58.59375,-31.25,-4.39453125,-234.375,0.0
1676923595.6997588,-31.25,-35.64453125,-0.9765625,-15.13671875,0.0
1676923595.7046573,-11.23046875,-27.83203125,3.41796875,124.51171875,0.0
1676923595.7095559,-35.64453125,-31.25,-14.16015625,-16.11328125,0.0
1676923595.7144544,-48.33984375,-34.66796875,-3.41796875,-213.37890625,0.0
1676923595.719353,-22.94921875,-23.92578125,14.6484375,-90.33203125,0.0
1676923595.7242515,-13.18359375,-25.390625,2.44140625,119.140625,0.0
1676923595.72915,-36.62109375,-31.73828125,-9.27734375,15.625,0.0
1676923595.7340486,-55.17578125,-30.76171875,5.37109375,-248.046875,0.0
1676923595.7389472,-28.3203125,-26.3671875,7.8125,-169.43359375,0.0
1676923595.7427034,-15.13671875,-33.69140625,-3.90625,129.39453125,0.0
1676923595.7464597,-18.5546875,-30.2734375,5.37109375,146.484375,0.0
1676923595.750216,-38.0859375,-23.4375,8.7890625,-138.18359375,0.0
1676923595.753972,-36.1328125,-29.78515625,4.8828125,-214.84375,0.0
1676923595.7577283,-7.8125,-30.2734375,1.46484375,40.0390625,0.0
1676923595.7614846,4.8828125,-25.87890625,0.9765625,139.16015625,0.0
1676923595.765241,-20.01953125,-21.97265625,2.9296875,-105.95703125,0.0
1676923595.7689972,-53.7109375,-25.87890625,4.39453125,-247.55859375,0.0
1676923595.7727532,-35.15625,-35.15625,-1.953125,22.94921875,0.0
1676923595.7765095,-14.16015625,-40.0390625,-10.25390625,251.46484375,0.0
1676923595.7802658,-11.71875,-28.3203125,10.7421875,84.9609375,0.0
1676923595.784022,-15.13671875,-27.34375,13.18359375,-132.32421875,0.0
1676923595.7890222,-10.7421875,-34.1796875,-2.44140625,48.33984375,0.0
1676923595.7940226,4.39453125,-32.2265625,-0.48828125,290.0390625,0.0
1676923595.7990227,1.46484375,-27.34375,-3.41796875,197.75390625,0.0
1676923595.8040228,-22.94921875,-27.83203125,-5.859375,-62.01171875,0.0
1676923595.8090231,3.90625,-28.80859375,-5.37109375,-33.69140625,0.0
1676923595.8140233,29.78515625,-26.3671875,-6.34765625,219.23828125,0.0
1676923595.8190234,21.97265625,-22.4609375,1.46484375,224.609375,0.0
1676923595.8240237,3.41796875,-24.4140625,8.7890625,-56.15234375,0.0
1676923595.8290238,-5.37109375,-34.1796875,-10.25390625,-122.0703125,0.0
1676923595.834024,25.390625,-29.296875,-4.39453125,149.4140625,0.0
1676923595.8390243,27.34375,-19.53125,13.671875,254.8828125,0.0
1676923595.8440244,-13.18359375,-24.4140625,0.9765625,5.37109375,0.0
1676923595.8465562,-37.109375,-29.78515625,-9.765625,-164.0625,0.0
1676923595.8490882,-12.6953125,-30.2734375,3.90625,26.85546875,0.0
1676923595.85162,7.32421875,-26.3671875,9.27734375,189.453125,0.0
1676923595.854152,-26.3671875,-28.3203125,-1.953125,36.1328125,0.0
1676923595.8566837,-43.9453125,-33.203125,-4.8828125,-218.26171875,0.0
1676923595.8592157,-28.80859375,-35.15625,-9.765625,-115.234375,0.0
1676923595.8617475,-25.87890625,-41.50390625,-10.25390625,118.1640625,0.0
1676923595.8642793,-51.7578125,-38.57421875,-10.25390625,63.4765625,0.0
1676923595.8668113,-79.58984375,-31.25,-10.25390625,-206.54296875,0.0
1676923595.869343,-66.40625,-28.3203125,0.0,-203.125,0.0
1676923595.871875,-42.48046875,-28.3203125,6.34765625,71.77734375,0.0
1676923595.8744068,-47.36328125,-32.2265625,-7.8125,134.765625,0.0
1676923595.8781574,-64.453125,-32.2265625,-30.2734375,-101.07421875,0.0
1676923595.881908,-54.19921875,-20.5078125,-0.9765625,-229.98046875,0.0
1676923595.8856585,-35.64453125,-19.53125,8.30078125,-23.4375,0.0
1676923595.889409,-27.83203125,-28.3203125,-7.32421875,92.28515625,0.0
1676923595.8931596,-47.8515625,-26.3671875,-0.9765625,-114.2578125,0.0
1676923595.8969102,-69.82421875,-24.4140625,-4.39453125,-293.45703125,0.0
1676923595.9006605,-41.50390625,-28.3203125,-6.8359375,-95.703125,0.0
1676923595.904411,-12.6953125,-31.25,-12.20703125,139.6484375,0.0
1676923595.9081616,-38.57421875,-32.2265625,0.48828125,6.34765625,0.0
1676923595.9119122,-70.3125,-31.73828125,11.23046875,-293.45703125,0.0
1676923595.9156628,-51.7578125,-36.1328125,1.46484375,-210.9375,0.0
1676923595.9194133,-20.99609375,-34.66796875,0.9765625,39.0625,0.0
1676923595.9231339,-19.53125,-31.25,6.34765625,10.25390625,0.0
1676923595.9268546,-48.33984375,-39.0625,7.32421875,-245.60546875,0.0
1676923595.9305751,-47.36328125,-39.55078125,-1.953125,-250.9765625,0.0
1676923595.9342957,-26.3671875,-41.015625,-2.9296875,23.4375,0.0
1676923595.9380162,-26.85546875,-38.57421875,0.0,72.75390625,0.0
1676923595.9417367,-54.19921875,-36.62109375,-9.27734375,-172.36328125,0.0
1676923595.9454575,-71.2890625,-45.41015625,-20.01953125,-263.18359375,0.0
1676923595.949178,-51.26953125,-50.29296875,-25.390625,-29.78515625,0.0
1676923595.9528985,-23.4375,-37.59765625,-2.44140625,110.3515625,0.0
1676923595.9566193,-43.9453125,-33.203125,-1.46484375,-74.70703125,0.0
1676923595.9603398,-66.40625,-33.203125,-11.23046875,-275.87890625,0.0
1676923595.9640603,-43.45703125,-36.62109375,-9.765625,-100.5859375,0.0
1676923595.969059,-21.97265625,-31.25,-5.37109375,134.27734375,0.0
1676923595.9740577,-25.87890625,-27.83203125,-7.32421875,36.1328125,0.0
1676923595.9790564,-43.9453125,-30.76171875,-13.671875,-221.19140625,0.0
1676923595.984055,-28.3203125,-26.3671875,-7.32421875,-143.5546875,0.0
1676923595.9890537,-11.71875,-30.2734375,-6.34765625,114.2578125,0.0
1676923595.9940524,-24.90234375,-36.62109375,-18.06640625,108.3984375,0.0
1676923595.9990513,-58.59375,-35.15625,-35.15625,-109.375,0.0
1676923596.00405,-53.22265625,-25.390625,-24.4140625,-162.109375,0.0
1676923596.0090487,-28.3203125,-23.92578125,1.953125,25.87890625,0.0
1676923596.0140474,-44.43359375,-32.71484375,-9.27734375,100.09765625,0.0
1676923596.019046,-59.5703125,-29.296875,-22.4609375,-123.53515625,0.0
1676923596.0240448,-59.5703125,-28.80859375,-15.13671875,-278.80859375,0.0
1676923596.0265324,-51.26953125,-33.69140625,-12.20703125,-40.52734375,0.0
1676923596.02902,-45.41015625,-30.76171875,-16.6015625,170.8984375,0.0
1676923596.0315077,-64.453125,-35.15625,-21.484375,29.78515625,0.0
1676923596.0339954,-75.1953125,-35.64453125,-18.06640625,-171.38671875,0.0
1676923596.036483,-50.29296875,-33.203125,-19.53125,20.5078125,0.0
1676923596.038971,-33.203125,-48.828125,-38.0859375,282.71484375,0.0
1676923596.0414586,-43.45703125,-45.41015625,-34.66796875,180.6640625,0.0
1676923596.0439463,-69.82421875,-35.64453125,-17.08984375,-130.37109375,0.0
1676923596.046434,-58.10546875,-38.0859375,-16.6015625,-112.3046875,0.0
1676923596.0489216,-34.1796875,-38.0859375,-32.71484375,155.76171875,0.0
1676923596.0514092,-38.57421875,-35.15625,-32.2265625,161.1328125,0.0
1676923596.053897,-54.6875,-27.34375,-11.71875,-122.0703125,0.0
1676923596.0589676,-59.08203125,-33.69140625,-15.625,-191.40625,0.0
1676923596.064038,-32.71484375,-34.66796875,-21.97265625,64.453125,0.0
1676923596.0691085,-26.85546875,-39.55078125,-11.71875,169.921875,0.0
1676923596.0741792,-60.546875,-47.36328125,-4.8828125,-29.296875,0.0
1676923596.0792499,-62.01171875,-43.9453125,-16.6015625,-178.7109375,0.0
1676923596.0843203,-22.94921875,-42.48046875,-20.99609375,13.671875,0.0
1676923596.0893908,-10.7421875,-35.64453125,-17.08984375,213.8671875,0.0
1676923596.0944614,-27.34375,-30.76171875,-13.671875,66.40625,0.0
1676923596.0995321,-41.015625,-30.76171875,-18.5546875,-176.7578125,0.0
1676923596.1046026,-34.66796875,-31.25,-26.85546875,-32.71484375,0.0
1676923596.109673,-22.4609375,-34.66796875,-20.99609375,201.171875,0.0
1676923596.1147437,-39.55078125,-42.48046875,-19.04296875,116.69921875,0.0
1676923596.1184337,-74.70703125,-49.31640625,-28.3203125,-154.296875,0.0
1676923596.1221237,-79.1015625,-43.9453125,-35.15625,-137.20703125,0.0
1676923596.1258137,-47.8515625,-28.80859375,-21.484375,113.76953125,0.0
1676923596.1295037,-32.71484375,-27.34375,-15.625,146.97265625,0.0
1676923596.1331937,-64.453125,-38.0859375,-21.97265625,-103.02734375,0.0
1676923596.1368837,-75.1953125,-38.57421875,-23.4375,-184.08203125,0.0
1676923596.1405735,-45.41015625,-36.1328125,-16.11328125,66.89453125,0.0
1676923596.1442635,-28.3203125,-36.62109375,-11.23046875,192.3828125,0.0
1676923596.1479535,-52.24609375,-32.2265625,-30.76171875,-4.8828125,0.0
1676923596.1516435,-69.3359375,-29.296875,-25.390625,-206.54296875,0.0
1676923596.1553335,-29.296875,-28.3203125,4.39453125,-28.3203125,0.0
1676923596.1590235,-15.625,-26.85546875,-2.9296875,182.12890625,0.0
1676923596.162775,-40.0390625,-32.2265625,-26.3671875,64.453125,0.0
1676923596.1665266,-43.45703125,-30.2734375,-20.99609375,-189.453125,0.0
1676923596.170278,-17.08984375,-19.53125,-8.30078125,-104.00390625,0.0
1676923596.1740296,-6.8359375,-23.4375,-20.5078125,151.85546875,0.0
1676923596.177781,-12.6953125,-26.3671875,-20.99609375,129.8828125,0.0
1676923596.1815326,-25.390625,-24.90234375,-21.484375,-130.37109375,0.0
1676923596.1852841,-31.73828125,-22.94921875,-16.11328125,-161.62109375,0.0
1676923596.1890357,-12.6953125,-21.484375,-8.7890625,88.8671875,0.0
1676923596.1927872,-9.27734375,-20.99609375,-26.85546875,168.9453125,0.0
1676923596.1965387,-29.78515625,-14.6484375,-27.83203125,-67.87109375,0.0
1676923596.2002902,-21.484375,-10.25390625,-10.25390625,-193.359375,0.0
1676923596.2040417,-1.46484375,-20.99609375,-16.6015625,33.69140625,0.0
1676923596.2077928,-1.953125,-18.5546875,-13.671875,165.52734375,0.0
1676923596.2115436,-32.2265625,-12.20703125,0.0,-26.3671875,0.0
1676923596.2152944,-50.29296875,-16.6015625,-5.37109375,-246.58203125,0.0
1676923596.2190454,-29.296875,-16.6015625,-18.5546875,-71.2890625,0.0
1676923596.2227964,-18.06640625,-22.94921875,-20.5078125,135.25390625,0.0
1676923596.2265472,-29.296875,-29.78515625,-22.94921875,26.85546875,0.0
1676923596.230298,-46.875,-26.85546875,-26.3671875,-211.9140625,0.0
1676923596.234049,-44.43359375,-30.76171875,-35.15625,-165.0390625,0.0
1676923596.2378001,-32.71484375,-26.85546875,-36.1328125,120.60546875,0.0
1676923596.241551,-31.25,-19.04296875,-18.06640625,80.56640625,0.0
1676923596.2453017,-43.9453125,-20.99609375,-20.5078125,-279.296875,0.0
1676923596.2490528,-42.48046875,-24.90234375,-21.484375,-362.79296875,0.0
1676923596.2540534,-21.484375,-27.34375,-15.13671875,-109.375,0.0
1676923596.2590537,-17.08984375,-30.2734375,-18.5546875,-41.015625,0.0
1676923596.2640543,-49.31640625,-30.2734375,-20.5078125,-280.76171875,0.0
1676923596.269055,-67.3828125,-32.2265625,-22.4609375,-400.87890625,0.0
1676923596.2740552,-38.0859375,-32.2265625,-18.5546875,-127.9296875,0.0
1676923596.2790558,-28.3203125,-26.85546875,-16.11328125,107.91015625,0.0
1676923596.2840564,-47.8515625,-24.4140625,-21.97265625,-14.6484375,0.0
1676923596.2890568,-69.3359375,-31.73828125,-28.80859375,-209.9609375,0.0
1676923596.2940574,-53.22265625,-32.2265625,-20.01953125,-40.0390625,0.0
1676923596.299058,-21.97265625,-28.80859375,-12.20703125,201.171875,0.0
1676923596.3040583,-33.203125,-31.73828125,-16.11328125,104.00390625,0.0
1676923596.309059,-46.38671875,-28.80859375,-24.4140625,-188.4765625,0.0
1676923596.3128076,-46.875,-23.92578125,-16.6015625,-157.2265625,0.0
1676923596.3165565,-46.38671875,-30.2734375,-14.6484375,106.93359375,0.0
1676923596.320305,-42.48046875,-37.109375,-25.390625,154.296875,0.0
1676923596.3240538,-55.17578125,-35.64453125,-32.2265625,-92.7734375,0.0
1676923596.3278024,-48.33984375,-31.25,-24.90234375,-156.25,0.0
1676923596.331551,-20.99609375,-23.4375,-24.90234375,130.859375,0.0
1676923596.3353,-14.6484375,-22.94921875,-39.0625,245.60546875,0.0
1676923596.3390486,-34.66796875,-19.04296875,-28.3203125,6.34765625,0.0
1676923596.3427973,-51.26953125,-21.97265625,-12.20703125,-192.87109375,0.0
1676923596.3465462,-41.9921875,-35.15625,-14.16015625,-23.92578125,0.0
1676923596.3502948,-36.62109375,-42.48046875,-34.66796875,158.203125,0.0
1676923596.3540435,-51.7578125,-40.52734375,-37.109375,21.484375,0.0
1676923596.3567138,-72.265625,-40.0390625,-11.71875,-216.796875,0.0
1676923596.3593838,-47.36328125,-40.0390625,-12.6953125,-109.86328125,0.0
1676923596.3620539,-28.3203125,-35.64453125,-22.94921875,131.34765625,0.0
1676923596.3647242,-50.78125,-36.1328125,-16.6015625,71.2890625,0.0
1676923596.3673944,-68.84765625,-37.109375,-15.13671875,-181.15234375,0.0
1676923596.3700645,-62.01171875,-37.59765625,-27.34375,-145.01953125,0.0
1676923596.3727345,-28.3203125,-38.0859375,-20.99609375,130.859375,0.0
1676923596.3754048,-23.4375,-35.64453125,-11.23046875,187.98828125,0.0
1676923596.3780751,-45.8984375,-32.71484375,-16.11328125,-66.40625,0.0
1676923596.3807452,-51.7578125,-36.62109375,-26.3671875,-183.59375,0.0
1676923596.3834152,-36.62109375,-43.45703125,-27.83203125,64.453125,0.0
1676923596.3860855,-30.2734375,-40.0390625,-16.6015625,204.1015625,0.0
1676923596.3896732,-47.36328125,-36.62109375,-18.5546875,-15.13671875,0.0
1676923596.393261,-62.98828125,-37.109375,-27.83203125,-200.1953125,0.0
1676923596.3968484,-40.0390625,-37.109375,-22.4609375,-13.671875,0.0
1676923596.4004362,-20.01953125,-34.1796875,-14.6484375,174.31640625,0.0
1676923596.404024,-36.62109375,-35.64453125,-9.765625,42.48046875,0.0
1676923596.4076114,-61.03515625,-41.50390625,-20.99609375,-204.1015625,0.0
1676923596.411199,-63.96484375,-45.8984375,-42.48046875,-97.65625,0.0
1676923596.4147868,-37.59765625,-36.62109375,-20.01953125,124.51171875,0.0
1676923596.4183745,-36.62109375,-37.109375,-3.90625,92.28515625,0.0
1676923596.4219623,-61.5234375,-45.8984375,-21.484375,-144.53125,0.0
1676923596.4255497,-32.71484375,-40.52734375,-21.484375,-153.80859375,0.0
1676923596.4291375,1.46484375,-36.1328125,-19.04296875,102.05078125,0.0
1676923596.4341145,-16.6015625,-38.0859375,-31.73828125,158.69140625,0.0
1676923596.4390912,-47.36328125,-34.66796875,-36.62109375,-69.82421875,0.0
1676923596.4440682,-46.875,-28.3203125,-27.83203125,-171.38671875,0.0
1676923596.4490452,-17.08984375,-31.25,-20.99609375,54.19921875,0.0
1676923596.4540222,-2.9296875,-30.2734375,-21.97265625,207.03125,0.0
1676923596.4589992,-30.76171875,-30.76171875,-27.34375,52.734375,0.0
1676923596.463976,-59.5703125,-31.25,-27.34375,-184.08203125,0.0
1676923596.468953,-41.015625,-31.73828125,-14.6484375,-54.19921875,0.0
1676923596.47393,-14.6484375,-34.1796875,-13.18359375,178.7109375,0.0
1676923596.4789066,-31.25,-35.64453125,-36.62109375,95.703125,0.0
1676923596.4838836,-64.453125,-33.69140625,-25.87890625,-160.64453125,0.0
1676923596.4888606,-53.7109375,-23.92578125,-14.16015625,-119.62890625,0.0
1676923596.4926276,-23.4375,-25.390625,-32.71484375,131.34765625,0.0
1676923596.4963946,-22.94921875,-29.296875,-29.296875,117.67578125,0.0
1676923596.5001616,-62.01171875,-30.76171875,-14.6484375,-140.625,0.0
1676923596.5039284,-72.75390625,-32.71484375,-14.6484375,-166.015625,0.0
1676923596.5076954,-43.9453125,-29.296875,-18.5546875,97.65625,0.0
1676923596.5114625,-36.62109375,-34.1796875,-25.87890625,206.0546875,0.0
1676923596.5152295,-64.94140625,-38.57421875,-23.4375,-42.48046875,0.0
1676923596.5189965,-62.5,-34.66796875,-8.7890625,-213.8671875,0.0
1676923596.5227633,-42.48046875,-35.64453125,-25.390625,41.9921875,0.0
1676923596.5265303,-34.1796875,-27.34375,-28.80859375,225.5859375,0.0
1676923596.5302973,-26.85546875,-20.5078125,5.37109375,30.76171875,0.0
1676923596.5340643,-45.41015625,-26.85546875,-8.30078125,-213.8671875,0.0
1676923596.537916,-41.50390625,-31.25,-31.25,-75.1953125,0.0
1676923596.5417676,-20.99609375,-34.1796875,-18.5546875,176.26953125,0.0
1676923596.5456192,-27.83203125,-28.3203125,-2.9296875,95.703125,0.0
1676923596.549471,-56.640625,-24.4140625,-9.27734375,-178.22265625,0.0
1676923596.5533226,-48.33984375,-27.34375,-11.71875,-139.16015625,0.0
1676923596.5571742,-29.296875,-29.78515625,-15.13671875,135.25390625,0.0
1676923596.561026,-37.109375,-29.78515625,-17.578125,141.11328125,0.0
1676923596.5648777,-61.5234375,-30.76171875,-17.578125,-143.5546875,0.0
1676923596.5687294,-69.82421875,-36.1328125,-22.94921875,-207.03125,0.0
1676923596.572581,-40.52734375,-32.2265625,-15.13671875,58.59375,0.0
1676923596.5764327,-25.390625,-32.2265625,-5.859375,150.87890625,0.0
1676923596.5802844,-56.640625,-35.64453125,-15.13671875,-71.2890625,0.0
1676923596.5839639,-66.89453125,-35.15625,-22.94921875,-245.60546875,0.0
1676923596.5876431,-40.0390625,-38.0859375,-8.30078125,-56.640625,0.0
1676923596.5913227,-31.25,-40.0390625,-6.34765625,152.34375,0.0
1676923596.595002,-51.7578125,-46.875,-19.53125,34.66796875,0.0
1676923596.5986814,-69.3359375,-48.33984375,-23.92578125,-185.05859375,0.0
1676923596.6023607,-55.17578125,-43.9453125,-26.3671875,-35.15625,0.0
1676923596.6060402,-32.2265625,-40.52734375,-22.4609375,283.203125,0.0
1676923596.6097198,-37.109375,-45.41015625,-24.4140625,279.78515625,0.0
1676923596.613399,-69.3359375,-41.015625,-26.85546875,15.13671875,0.0
1676923596.6170785,-48.828125,-33.69140625,0.0,1.46484375,0.0
1676923596.6207578,-23.92578125,-41.9921875,-1.46484375,238.28125,0.0
1676923596.6244373,-26.85546875,-44.43359375,-11.71875,262.20703125,0.0
1676923596.6281562,-25.390625,-36.62109375,-5.37109375,-1.953125,0.0
1676923596.6318748,-27.34375,-22.94921875,-7.8125,-127.9296875,0.0
1676923596.6355937,-14.16015625,-23.4375,-10.7421875,91.796875,0.0
1676923596.6393123,1.953125,-31.73828125,-17.08984375,210.44921875,0.0
1676923596.6430311,-33.203125,-29.78515625,-23.92578125,-14.16015625,0.0
1676923596.64675,-55.6640625,-27.34375,-26.3671875,-208.49609375,0.0
1676923596.6504686,-26.85546875,-28.80859375,-20.01953125,-20.99609375,0.0
1676923596.6541874,-22.94921875,-31.73828125,-26.85546875,203.61328125,0.0
1676923596.657906,-41.015625,-25.87890625,-12.6953125,94.7265625,0.0
1676923596.661625,-51.26953125,-23.4375,3.90625,-179.6875,0.0
1676923596.6653435,-43.9453125,-29.296875,-12.20703125,-81.0546875,0.0
1676923596.6690624,-27.83203125,-30.76171875,-13.671875,188.4765625,0.0
1676923596.6728096,-26.85546875,-28.80859375,-1.953125,159.66796875,0.0
1676923596.6765566,-47.36328125,-26.85546875,-4.39453125,-102.05078125,0.0
1676923596.6803036,-56.640625,-28.3203125,-14.16015625,-116.69921875,0.0
1676923596.6840508,-30.76171875,-29.78515625,-11.23046875,153.80859375,0.0
1676923596.687798,-30.76171875,-24.90234375,-13.18359375,215.8203125,0.0
1676923596.691545,-60.05859375,-20.99609375,-21.484375,-20.5078125,0.0
1676923596.695292,-64.94140625,-26.3671875,-26.85546875,-125.9765625,0.0
1676923596.6990392,-41.015625,-31.73828125,-30.2734375,99.12109375,0.0
1676923596.7027864,-17.08984375,-21.97265625,-5.37109375,226.07421875,0.0
1676923596.7065334,-29.296875,-16.11328125,-6.34765625,24.4140625,0.0
1676923596.7102804,-53.7109375,-23.4375,-18.06640625,-204.58984375,0.0
1676923596.7140276,-38.57421875,-35.15625,-12.6953125,-52.734375,0.0
1676923596.7177806,-23.4375,-36.62109375,-15.625,170.8984375,0.0
1676923596.7215335,-34.66796875,-32.2265625,-22.94921875,71.77734375,0.0
1676923596.7252865,-53.22265625,-32.2265625,-27.83203125,-192.87109375,0.0
1676923596.7290394,-42.48046875,-28.80859375,-26.85546875,-129.39453125,0.0
1676923596.7327924,-25.87890625,-26.3671875,-28.3203125,122.0703125,0.0
1676923596.736545,-41.015625,-24.4140625,-32.2265625,123.046875,0.0
1676923596.740298,-67.87109375,-28.80859375,-42.48046875,-99.12109375,0.0
1676923596.744051,-65.91796875,-31.25,-33.69140625,-137.20703125,0.0
1676923596.747804,-34.1796875,-25.87890625,-22.4609375,111.328125,0.0
1676923596.7515569,-32.71484375,-29.296875,-37.59765625,202.1484375,0.0
1676923596.7553098,-64.94140625,-30.76171875,-41.50390625,-40.52734375,0.0
1676923596.7590628,-66.89453125,-19.53125,-29.78515625,-210.9375,0.0
1676923596.7628121,-42.48046875,-17.08984375,-21.484375,17.08984375,0.0
1676923596.7665615,-40.0390625,-28.3203125,-31.25,198.2421875,0.0
1676923596.7703109,-59.5703125,-36.62109375,-34.66796875,25.87890625,0.0
1676923596.77406,-68.359375,-31.73828125,-24.90234375,-202.1484375,0.0
1676923596.7778094,-46.875,-29.296875,-21.97265625,-54.6875,0.0
1676923596.7815588,-36.62109375,-39.55078125,-40.52734375,204.1015625,0.0
1676923596.7853081,-57.6171875,-36.62109375,-40.0390625,129.8828125,0.0
1676923596.7890575,-77.1484375,-23.92578125,-16.6015625,-162.109375,0.0
1676923596.7928066,-68.84765625,-29.78515625,-23.4375,-125.48828125,0.0
1676923596.796556,-49.8046875,-40.52734375,-35.15625,151.85546875,0.0
1676923596.8003054,-45.8984375,-37.109375,-32.71484375,186.5234375,0.0
1676923596.8040547,-69.3359375,-32.2265625,-31.73828125,-68.84765625,0.0
1676923596.8090847,-72.75390625,-29.296875,-40.0390625,-142.578125,0.0
1676923596.8141143,-46.875,-30.2734375,-45.8984375,105.95703125,0.0
1676923596.8191442,-37.59765625,-34.1796875,-38.0859375,195.3125,0.0
1676923596.8241742,-49.31640625,-35.64453125,-28.80859375,-42.48046875,0.0
1676923596.8292038,-62.01171875,-39.55078125,-37.59765625,-253.41796875,0.0
1676923596.8342338,-54.19921875,-40.0390625,-41.9921875,-55.17578125,0.0
1676923596.8392637,-49.8046875,-39.55078125,-35.64453125,110.3515625,0.0
1676923596.8442934,-48.33984375,-48.33984375,-19.53125,-39.55078125,0.0
1676923596.8493233,-41.015625,-37.59765625,-24.90234375,-226.5625,0.0
1676923596.8543532,-46.875,-26.3671875,-40.0390625,-88.8671875,0.0
1676923596.8593829,-51.7578125,-23.4375,-28.3203125,146.484375,0.0
1676923596.8644128,-58.59375,-22.4609375,-26.85546875,96.19140625,0.0
1676923596.868134,-77.63671875,-26.3671875,-39.0625,-170.8984375,0.0
1676923596.8718553,-69.3359375,-28.3203125,-42.48046875,-188.96484375,0.0
1676923596.8755763,-38.57421875,-24.4140625,-38.57421875,85.44921875,0.0
1676923596.8792975,-17.578125,-23.4375,-39.55078125,137.20703125,0.0
1676923596.8830187,-37.59765625,-27.83203125,-48.828125,-104.00390625,0.0
1676923596.8867397,-51.26953125,-28.3203125,-46.875,-163.0859375,0.0
1676923596.890461,-19.04296875,-24.4140625,-32.2265625,57.6171875,0.0
1676923596.8941822,1.46484375,-26.3671875,-32.2265625,173.828125,0.0
1676923596.8979034,-20.99609375,-33.203125,-51.26953125,0.9765625,0.0
1676923596.9016247,-41.50390625,-32.71484375,-52.734375,-189.94140625,0.0
1676923596.9053457,-18.06640625,-25.87890625,-22.4609375,-14.16015625,0.0
1676923596.909067,-2.9296875,-32.71484375,-26.85546875,188.96484375,0.0
1676923596.9128156,-23.4375,-31.73828125,-35.64453125,64.453125,0.0
1676923596.916564,-46.875,-21.484375,-29.78515625,-190.91796875,0.0
1676923596.9203126,-33.69140625,-27.83203125,-32.2265625,-105.46875,0.0
1676923596.924061,-10.25390625,-36.62109375,-38.0859375,152.34375,0.0
1676923596.9278097,-24.90234375,-34.1796875,-37.109375,138.18359375,0.0
1676923596.9315581,-60.546875,-29.296875,-29.296875,-80.078125,0.0
1676923596.9353068,-59.5703125,-25.390625,-31.25,-88.37890625,0.0
1676923596.9390554,-38.57421875,-27.34375,-32.2265625,144.04296875,0.0
1676923596.9428039,-44.921875,-36.1328125,-47.36328125,222.16796875,0.0
1676923596.9465525,-69.3359375,-32.2265625,-40.0390625,-12.6953125,0.0
1676923596.950301,-74.21875,-24.90234375,-16.11328125,-152.34375,0.0
1676923596.9540496,-52.24609375,-27.83203125,-25.390625,83.49609375,0.0
1676923596.957781,-40.0390625,-24.4140625,-29.296875,246.58203125,0.0
1676923596.9615126,-68.359375,-20.5078125,-24.4140625,78.61328125,0.0
1676923596.9652443,-83.49609375,-22.4609375,-19.53125,-108.88671875,0.0
1676923596.9689758,-62.01171875,-26.3671875,-26.85546875,56.15234375,0.0
1676923596.9727073,-49.8046875,-35.15625,-31.25,256.34765625,0.0
1676923596.9764388,-67.87109375,-36.62109375,-34.1796875,151.3671875,0.0
1676923596.9801702,-84.9609375,-28.80859375,-34.1796875,-119.62890625,0.0
1676923596.9839017,-76.66015625,-32.71484375,-43.45703125,-68.84765625,0.0
1676923596.9876332,-65.91796875,-40.52734375,-48.828125,193.84765625,0.0
1676923596.991365,-64.94140625,-32.2265625,-25.87890625,179.19921875,0.0
1676923596.9950964,-79.58984375,-23.4375,-15.13671875,-94.7265625,0.0
1676923596.998828,-83.0078125,-23.4375,-26.85546875,-139.16015625,0.0
1676923597.0025976,-42.48046875,-25.390625,-20.99609375,123.53515625,0.0
1676923597.0063672,-51.26953125,-17.08984375,-9.765625,218.26171875,0.0
1676923597.010137,-131.34765625,-15.625,-20.01953125,0.9765625,0.0
1676923597.0139067,-123.53515625,-23.4375,-21.484375,-165.0390625,0.0
1676923597.0176764,-76.66015625,-21.484375,-17.08984375,39.0625,0.0
1676923597.0214462,-51.26953125,-26.85546875,-23.4375,218.26171875,0.0
1676923597.0252159,-43.45703125,-28.3203125,-28.80859375,76.171875,0.0
1676923597.0289855,-64.453125,-28.3203125,-36.1328125,-117.67578125,0.0
1676923597.0327551,-51.26953125,-26.3671875,-23.4375,30.76171875,0.0
1676923597.0365248,-14.6484375,-23.4375,-5.37109375,259.765625,0.0
1676923597.0402946,-31.73828125,-35.15625,-15.13671875,194.82421875,0.0
1676923597.0440643,-69.3359375,-31.73828125,-16.11328125,-62.5,0.0
1676923597.0479019,-46.38671875,-23.92578125,-21.484375,-53.7109375,0.0
1676923597.0517392,-100.09765625,-22.4609375,-24.4140625,188.96484375,0.0
1676923597.0555768,-196.77734375,-23.4375,-29.78515625,214.84375,0.0
1676923597.0594141,-181.15234375,-29.296875,-37.59765625,-55.6640625,0.0
1676923597.0632517,-131.34765625,-29.296875,-29.78515625,-148.92578125,0.0
1676923597.067089,-76.171875,-20.5078125,-25.390625,130.859375,0.0
1676923597.0709267,-52.24609375,-19.04296875,-31.73828125,266.6015625,0.0
1676923597.0747643,-85.9375,-22.94921875,-32.71484375,34.1796875,0.0
1676923597.0786016,-82.03125,-19.04296875,-8.7890625,-165.0390625,0.0
1676923597.0824392,-42.96875,-21.484375,-9.765625,34.1796875,0.0
1676923597.0862765,-48.828125,-17.578125,-16.11328125,241.2109375,0.0
1676923597.090114,-53.7109375,-11.71875,-12.6953125,101.07421875,0.0
1676923597.093777,-47.36328125,-18.06640625,-10.7421875,-126.953125,0.0
1676923597.0974395,-32.2265625,-19.53125,-13.671875,-4.8828125,0.0
1676923597.1011024,-19.53125,-27.83203125,-24.90234375,234.375,0.0
1676923597.104765,-30.2734375,-35.15625,-33.203125,171.38671875,0.0
1676923597.1084278,-59.5703125,-31.73828125,-28.80859375,-100.5859375,0.0
1676923597.1120906,-45.41015625,-33.203125,-25.87890625,-102.05078125,0.0
1676923597.1157532,-19.53125,-34.66796875,-39.0625,161.1328125,0.0
1676923597.119416,-19.53125,-31.25,-29.78515625,209.9609375,0.0
1676923597.1230786,-36.1328125,-28.3203125,-4.39453125,-62.98828125,0.0
1676923597.1267414,-49.8046875,-28.3203125,-19.53125,-181.15234375,0.0
1676923597.130404,-36.1328125,-27.83203125,-28.80859375,53.22265625,0.0
1676923597.1340668,-28.80859375,-30.2734375,-24.4140625,187.01171875,0.0
1676923597.137824,-44.43359375,-28.80859375,-23.92578125,-17.08984375,0.0
1676923597.1415813,-60.05859375,-34.1796875,-25.390625,-209.9609375,0.0
1676923597.1453385,-35.64453125,-32.2265625,-20.99609375,-30.2734375,0.0
1676923597.1490958,-2.44140625,-28.80859375,-9.27734375,186.03515625,0.0
1676923597.152853,-15.625,-35.64453125,-12.20703125,68.359375,0.0
1676923597.1566105,-49.8046875,-42.48046875,-32.2265625,-159.1796875,0.0
1676923597.1603677,-26.85546875,-40.52734375,-31.25,-67.3828125,0.0
1676923597.164125,12.6953125,-27.34375,-6.34765625,158.69140625,0.0
1676923597.1678822,4.39453125,-22.4609375,1.46484375,130.859375,0.0
1676923597.1716394,-34.1796875,-26.85546875,-20.01953125,-131.34765625,0.0
1676923597.1753967,-35.15625,-30.76171875,-25.87890625,-164.55078125,0.0
1676923597.179154,-6.8359375,-26.3671875,-6.8359375,76.171875,0.0
1676923597.1841607,-5.37109375,-31.25,-12.20703125,136.71875,0.0
1676923597.1891675,-21.484375,-30.76171875,-13.671875,-115.72265625,0.0
1676923597.1941743,-11.23046875,-28.80859375,-9.765625,-232.421875,0.0
1676923597.1991808,4.39453125,-34.66796875,-15.13671875,-0.48828125,0.0
1676923597.2041876,14.16015625,-35.64453125,-22.4609375,138.671875,0.0
1676923597.2091944,-5.37109375,-39.0625,-24.90234375,-43.9453125,0.0
1676923597.2142012,-28.80859375,-37.59765625,-20.5078125,-260.25390625,0.0
1676923597.219208,1.953125,-34.1796875,-15.625,-94.23828125,0.0
1676923597.2242146,14.16015625,-30.2734375,-18.5546875,158.69140625,0.0
1676923597.2292213,-17.08984375,-31.25,-31.25,90.8203125,0.0
1676923597.2342281,-45.41015625,-29.296875,-16.11328125,-190.91796875,0.0
1676923597.239235,-30.2734375,-27.83203125,-0.48828125,-154.296875,0.0
1676923597.2429926,-14.6484375,-35.15625,-16.6015625,115.72265625,0.0
1676923597.2467506,-22.94921875,-32.71484375,-19.53125,125.48828125,0.0
1676923597.2505083,-32.2265625,-26.3671875,-9.765625,-127.9296875,0.0
1676923597.2542663,-22.4609375,-19.53125,-10.25390625,-185.05859375,0.0
1676923597.258024,-4.8828125,-23.92578125,-23.4375,75.68359375,0.0
1676923597.2617817,-12.20703125,-31.25,-25.87890625,171.38671875,0.0
1676923597.2655396,-38.57421875,-23.92578125,-14.16015625,-58.59375,0.0
1676923597.2692974,-48.33984375,-23.92578125,-3.41796875,-211.9140625,0.0
1676923597.2730553,-35.15625,-35.64453125,-23.92578125,9.27734375,0.0
1676923597.276813,-21.97265625,-31.73828125,-31.73828125,193.84765625,0.0
1676923597.280571,-24.4140625,-23.4375,-4.8828125,15.13671875,0.0
1676923597.2843287,-32.2265625,-26.85546875,-9.27734375,-208.49609375,0.0
1676923597.2880633,-1.953125,-22.4609375,-20.99609375,-61.5234375,0.0
1676923597.2917979,-0.48828125,-25.87890625,-18.5546875,162.59765625,0.0
1676923597.2955325,-37.109375,-36.62109375,-22.4609375,92.7734375,0.0
1676923597.299267,-49.8046875,-25.87890625,-28.80859375,-188.96484375,0.0
1676923597.3030016,-30.76171875,-20.01953125,-26.3671875,-146.484375,0.0
1676923597.3067365,-9.27734375,-33.69140625,-22.4609375,146.97265625,0.0
1676923597.310471,-0.48828125,-30.2734375,-19.53125,147.4609375,0.0
1676923597.3142056,-0.9765625,-19.53125,-18.06640625,-129.39453125,0.0
1676923597.3179402,-16.6015625,-27.83203125,-39.55078125,-197.265625,0.0
1676923597.3216748,1.953125,-29.78515625,-26.3671875,48.33984375,0.0
1676923597.3254094,27.83203125,-19.53125,-0.9765625,145.5078125,0.0
1676923597.329144,-7.8125,-26.85546875,-14.16015625,-51.26953125,0.0
1676923597.332878,-21.484375,-33.203125,-13.671875,-222.16796875,0.0
1676923597.3366125,15.625,-30.76171875,-4.8828125,-26.3671875,0.0
1676923597.3403468,20.99609375,-24.4140625,-4.39453125,154.78515625,0.0
1676923597.344081,-3.41796875,-22.94921875,-15.13671875,5.37109375,0.0
1676923597.347815,-26.3671875,-26.3671875,-19.04296875,-240.72265625,0.0
1676923597.3515494,-14.16015625,-24.90234375,-13.18359375,-133.7890625,0.0
1676923597.3552837,20.01953125,-18.5546875,-5.859375,128.90625,0.0
1676923597.3590178,-0.48828125,-25.87890625,-17.08984375,90.33203125,0.0
1676923597.362752,-46.38671875,-31.73828125,-29.78515625,-194.82421875,0.0
1676923597.3664863,-26.3671875,-23.4375,-8.30078125,-201.171875,0.0
1676923597.3702207,-0.48828125,-27.34375,-6.8359375,87.40234375,0.0
1676923597.3739548,-26.3671875,-27.83203125,-16.6015625,133.7890625,0.0
1676923597.3777146,-57.6171875,-34.1796875,-16.11328125,-129.39453125,0.0
1676923597.3814745,-50.78125,-35.64453125,-13.18359375,-234.86328125,0.0
1676923597.385234,-14.6484375,-35.64453125,-16.11328125,0.9765625,0.0
1676923597.388994,6.34765625,-35.64453125,-14.16015625,136.23046875,0.0
1676923597.3927538,-25.390625,-35.15625,-14.16015625,-68.359375,0.0
1676923597.3965135,-47.8515625,-34.66796875,-20.5078125,-244.62890625,0.0
1676923597.4002733,-13.671875,-25.390625,-17.08984375,-60.546875,0.0
1676923597.4040332,7.8125,-27.83203125,-35.64453125,154.296875,0.0
1676923597.407793,-18.5546875,-32.2265625,-33.203125,41.9921875,0.0
1676923597.411553,-31.25,-19.04296875,-12.6953125,-228.02734375,0.0
1676923597.4153125,-8.7890625,-16.6015625,-24.90234375,-157.2265625,0.0
1676923597.4190724,6.34765625,-19.53125,-18.06640625,97.65625,0.0
1676923597.422822,18.06640625,-14.6484375,-8.30078125,72.265625,0.0
1676923597.4265716,-22.94921875,-18.5546875,-17.08984375,-214.84375,0.0
1676923597.4303212,-42.96875,-26.3671875,-28.80859375,-251.953125,0.0
1676923597.4340708,-10.25390625,-28.3203125,-23.92578125,7.32421875,0.0
1676923597.4378204,-1.953125,-27.83203125,-17.578125,91.30859375,0.0
1676923597.44157,-13.671875,-21.97265625,-22.94921875,-128.90625,0.0
1676923597.4453197,-21.484375,-20.5078125,-27.83203125,-229.4921875,0.0
1676923597.4490693,-10.25390625,-27.83203125,-36.1328125,4.8828125,0.0
1676923597.4528189,1.953125,-20.01953125,-23.4375,158.69140625,0.0
1676923597.4565685,-24.4140625,-15.13671875,-20.5078125,-6.8359375,0.0
1676923597.460318,-52.734375,-22.94921875,-31.25,-182.6171875,0.0
1676923597.4640677,-28.3203125,-24.90234375,-27.83203125,-7.8125,0.0
1676923597.4678128,-2.44140625,-20.99609375,-15.13671875,219.7265625,0.0
1676923597.4715579,-26.3671875,-27.83203125,-17.578125,135.7421875,0.0
1676923597.475303,-46.875,-31.73828125,-15.625,-147.4609375,0.0
1676923597.479048,-27.83203125,-21.97265625,-10.7421875,-128.41796875,0.0
1676923597.482793,-17.578125,-20.5078125,-18.5546875,75.68359375,0.0
1676923597.4865384,-37.59765625,-24.90234375,-23.92578125,23.4375,0.0
1676923597.4902835,-79.58984375,-30.2734375,-38.57421875,-271.97265625,0.0
1676923597.4940286,-84.9609375,-27.34375,-23.4375,-380.37109375,0.0
1676923597.4977736,-63.96484375,-22.94921875,-6.8359375,-176.26953125,0.0
1676923597.5015187,-87.890625,-29.78515625,-27.83203125,-124.0234375,0.0
1676923597.5052638,-119.140625,-23.4375,-31.73828125,-351.07421875,0.0
1676923597.509009,-131.34765625,-17.08984375,-23.4375,-493.1640625,0.0
1676923597.5128646,-118.65234375,-25.87890625,-30.2734375,-273.4375,0.0
1676923597.5167203,-111.328125,-23.92578125,-34.1796875,-100.5859375,0.0
1676923597.520576,-142.08984375,-21.97265625,-28.3203125,-290.52734375,0.0
1676923597.524432,-169.43359375,-17.08984375,-15.13671875,-511.23046875,0.0
1676923597.5282876,-142.578125,-16.11328125,-12.6953125,-351.5625,0.0
1676923597.5321434,-125.9765625,-23.92578125,-33.69140625,-74.70703125,0.0
1676923597.535999,-139.6484375,-20.01953125,-40.52734375,-91.30859375,0.0
1676923597.5398548,-139.16015625,-10.25390625,-26.3671875,-364.74609375,0.0
1676923597.5437107,-111.81640625,-20.5078125,-22.4609375,-333.984375,0.0
1676923597.5475664,-89.84375,-26.85546875,-32.2265625,-24.4140625,0.0
1676923597.551422,-82.51953125,-22.4609375,-27.34375,30.2734375,0.0
1676923597.5552778,-90.33203125,-26.3671875,-19.04296875,-233.88671875,0.0
1676923597.5601845,-104.98046875,-31.73828125,-30.2734375,-310.546875,0.0
1676923597.5650914,-77.1484375,-32.2265625,-40.52734375,-28.3203125,0.0
1676923597.569998,-53.22265625,-28.80859375,-38.57421875,101.07421875,0.0
1676923597.574905,-69.3359375,-34.66796875,-30.76171875,-85.44921875,0.0
1676923597.5798116,-77.1484375,-40.52734375,-27.83203125,-234.375,0.0
1676923597.5847182,-58.10546875,-43.45703125,-51.7578125,-22.94921875,0.0
1676923597.5896251,-31.25,-37.59765625,-43.45703125,191.89453125,0.0
1676923597.5945318,-20.5078125,-38.57421875,-16.6015625,26.3671875,0.0
1676923597.5994387,-35.64453125,-49.31640625,-29.296875,-226.07421875,0.0
1676923597.6043453,-26.85546875,-46.38671875,-39.0625,-111.328125,0.0
1676923597.6092522,3.41796875,-49.31640625,-33.69140625,149.4140625,0.0
1676923597.6141589,0.48828125,-46.875,-23.92578125,126.46484375,0.0
1676923597.6179569,-35.64453125,-44.43359375,-37.59765625,-142.578125,0.0
1676923597.6217546,-15.625,-44.921875,-44.43359375,-128.90625,0.0
1676923597.6255527,15.13671875,-42.96875,-34.66796875,161.62109375,0.0
1676923597.6293507,18.06640625,-47.36328125,-34.1796875,204.1015625,0.0
1676923597.6331484,1.953125,-42.96875,-40.52734375,-52.734375,0.0
1676923597.6369464,-18.06640625,-47.36328125,-43.9453125,-125.9765625,0.0
1676923597.6407444,1.953125,-52.24609375,-35.15625,104.98046875,0.0
1676923597.6445422,19.04296875,-40.52734375,-28.3203125,203.61328125,0.0
1676923597.6483402,-9.27734375,-47.36328125,-40.0390625,2.9296875,0.0
1676923597.6521382,-31.25,-51.7578125,-44.921875,-185.05859375,0.0
1676923597.655936,6.34765625,-34.1796875,-26.3671875,-27.83203125,0.0
1676923597.659734,26.85546875,-37.59765625,-29.78515625,191.40625,0.0
1676923597.6634264,2.9296875,-43.9453125,-30.76171875,102.05078125,0.0
1676923597.6671185,-12.6953125,-32.71484375,-29.296875,-162.59765625,0.0
1676923597.670811,12.20703125,-32.71484375,-30.76171875,-95.703125,0.0
1676923597.6745033,37.59765625,-40.0390625,-28.3203125,166.9921875,0.0
1676923597.6781957,25.87890625,-38.57421875,-28.80859375,142.578125,0.0
1676923597.681888,-8.7890625,-39.0625,-33.203125,-125.48828125,0.0
1676923597.6855803,-12.6953125,-33.69140625,-24.4140625,-149.90234375,0.0
1676923597.6892726,-3.41796875,-27.83203125,-19.53125,73.73046875,0.0
1676923597.692965,-12.6953125,-38.0859375,-34.1796875,129.39453125,0.0
1676923597.6966572,-36.1328125,-42.48046875,-24.90234375,-96.6796875,0.0
1676923597.7003496,-24.4140625,-39.0625,-12.20703125,-217.28515625,0.0
1676923597.704042,7.8125,-39.55078125,-18.5546875,41.9921875,0.0
1676923597.7077973,15.625,-30.76171875,-20.99609375,217.28515625,0.0
1676923597.7115524,-5.37109375,-31.73828125,-12.6953125,26.85546875,0.0
1676923597.7153077,-22.94921875,-34.1796875,-10.7421875,-159.66796875,0.0
1676923597.719063,1.953125,-36.1328125,-22.94921875,22.4609375,0.0
1676923597.7228181,10.7421875,-44.43359375,-38.0859375,236.328125,0.0
1676923597.7265735,3.90625,-45.41015625,-33.203125,126.46484375,0.0
1676923597.7303288,-11.71875,-44.43359375,-23.4375,-151.85546875,0.0
1676923597.734084,5.37109375,-39.55078125,-28.80859375,-100.5859375,0.0
1676923597.7378392,30.76171875,-38.57421875,-30.2734375,159.1796875,0.0
1676923597.7415946,24.4140625,-35.64453125,-15.13671875,125.48828125,0.0
1676923597.7453496,0.48828125,-32.2265625,-20.99609375,-153.3203125,0.0
1676923597.749105,0.48828125,-27.83203125,-23.92578125,-180.17578125,0.0
1676923597.752953,30.2734375,-32.2265625,-23.4375,97.16796875,0.0
1676923597.7568011,35.64453125,-30.2734375,-18.5546875,194.3359375,0.0
1676923597.7606492,24.4140625,-20.5078125,-14.6484375,-38.57421875,0.0
1676923597.7644973,18.5546875,-18.5546875,-22.94921875,-195.3125,0.0
1676923597.7683454,24.4140625,-24.90234375,-21.484375,10.25390625,0.0
1676923597.7721934,30.2734375,-26.3671875,-26.85546875,201.171875,0.0
1676923597.7760413,2.9296875,-29.296875,-26.3671875,40.52734375,0.0
1676923597.7798893,-25.87890625,-34.66796875,-32.71484375,-189.453125,0.0
1676923597.7837374,-6.8359375,-27.34375,-22.4609375,-58.59375,0.0
1676923597.7875855,-0.48828125,-24.90234375,-11.71875,144.53125,0.0
1676923597.7914336,-36.1328125,-25.390625,-23.92578125,61.03515625,0.0
1676923597.7952816,-62.01171875,-26.3671875,-17.578125,-223.6328125,0.0
1676923597.7989335,-73.2421875,-30.2734375,-10.25390625,-232.91015625,0.0
1676923597.8025854,-63.96484375,-27.83203125,-13.18359375,16.6015625,0.0
1676923597.8062372,-73.73046875,-29.296875,-18.06640625,16.6015625,0.0
1676923597.809889,-118.1640625,-34.1796875,-25.390625,-266.6015625,0.0
1676923597.813541,-125.0,-32.2265625,-23.92578125,-388.18359375,0.0
1676923597.8171928,-124.0234375,-23.4375,-23.92578125,-191.89453125,0.0
1676923597.8208447,-137.20703125,-25.87890625,-30.76171875,-66.89453125,0.0
1676923597.8244965,-166.9921875,-31.25,-31.73828125,-259.765625,0.0
1676923597.8281484,-182.12890625,-21.484375,-10.7421875,-450.1953125,0.0
1676923597.8318002,-148.4375,-10.7421875,-11.23046875,-268.5546875,0.0
1676923597.835452,-135.7421875,-6.8359375,-22.94921875,-61.5234375,0.0
1676923597.839104,-156.25,-13.18359375,-16.6015625,-200.68359375,0.0
1676923597.842851,-160.15625,-14.6484375,-10.25390625,-425.29296875,0.0
1676923597.846598,-141.11328125,-18.06640625,-15.625,-284.66796875,0.0
1676923597.850345,-117.1875,-19.04296875,-20.99609375,1.953125,0.0
1676923597.854092,-123.53515625,-24.90234375,-17.08984375,-30.2734375,0.0
1676923597.8578389,-144.53125,-31.73828125,-20.99609375,-277.83203125,0.0
1676923597.8615859,-122.55859375,-27.34375,-28.80859375,-238.28125,0.0
1676923597.8653328,-79.58984375,-31.73828125,-34.66796875,80.56640625,0.0
1676923597.8690798,-74.21875,-31.73828125,-24.90234375,135.25390625,0.0
1676923597.8728268,-99.12109375,-29.296875,-12.6953125,-127.9296875,0.0
1676923597.8765738,-93.75,-34.1796875,-34.66796875,-204.58984375,0.0
1676923597.8803208,-43.9453125,-32.71484375,-36.1328125,45.41015625,0.0
1676923597.8840678,-15.625,-29.78515625,-15.625,207.51953125,0.0
1676923597.8878255,-41.015625,-28.3203125,-18.06640625,32.71484375,0.0
1676923597.8915834,-55.17578125,-29.78515625,-34.1796875,-157.71484375,0.0
1676923597.8953412,-18.5546875,-32.2265625,-32.71484375,32.71484375,0.0
1676923597.8990989,8.7890625,-25.87890625,-16.6015625,247.0703125,0.0
1676923597.9028568,-0.9765625,-29.296875,-21.484375,123.53515625,0.0
1676923597.9066145,-22.4609375,-38.0859375,-38.57421875,-110.3515625,0.0
1676923597.9103723,-7.32421875,-34.1796875,-36.62109375,-9.765625,0.0
1676923597.9141302,30.76171875,-31.25,-14.16015625,232.421875,0.0
1676923597.917888,27.34375,-34.1796875,-15.625,193.359375,0.0
1676923597.9216456,-0.9765625,-37.59765625,-26.3671875,-62.98828125,0.0
1676923597.9254036,17.08984375,-32.2265625,-13.671875,-79.58984375,0.0
1676923597.9291613,32.71484375,-29.78515625,-4.39453125,160.64453125,0.0
1676923597.9341497,32.2265625,-29.78515625,-10.7421875,230.46875,0.0
1676923597.9391382,12.6953125,-35.15625,-17.578125,9.765625,0.0
1676923597.9441266,-3.90625,-43.45703125,-17.578125,-125.48828125,0.0
1676923597.949115,37.59765625,-34.66796875,-10.25390625,92.28515625,0.0
1676923597.9541035,57.12890625,-33.203125,-11.71875,244.140625,0.0
1676923597.9590921,14.6484375,-37.59765625,-20.5078125,78.125,0.0
1676923597.9640806,-11.71875,-40.52734375,-18.06640625,-126.46484375,0.0
1676923597.969069,1.46484375,-42.48046875,-14.16015625,13.18359375,0.0
1676923597.9740574,18.06640625,-44.43359375,-22.94921875,233.3984375,0.0
1676923597.9790459,7.32421875,-42.96875,-30.76171875,164.0625,0.0
1676923597.9840343,-14.16015625,-35.15625,-14.6484375,-99.609375,0.0
1676923597.9890227,4.8828125,-35.15625,-7.8125,-66.40625,0.0
1676923597.9927769,15.13671875,-39.55078125,-30.2734375,209.47265625,0.0
1676923597.996531,6.8359375,-33.203125,-34.66796875,249.0234375,0.0
1676923598.0002854,-0.9765625,-25.87890625,-16.6015625,-9.765625,0.0
1676923598.0040395,12.6953125,-23.92578125,-15.13671875,-94.23828125,0.0
1676923598.0077937,41.50390625,-30.2734375,-25.87890625,141.11328125,0.0
1676923598.011548,43.9453125,-41.50390625,-32.71484375,231.4453125,0.0
1676923598.0153022,20.01953125,-36.62109375,-25.87890625,3.41796875,0.0
1676923598.0190563,-0.9765625,-31.73828125,-26.3671875,-154.296875,0.0
1676923598.0228105,10.25390625,-35.15625,-46.875,54.19921875,0.0
1676923598.0265646,15.625,-39.0625,-47.36328125,254.8828125,0.0
1676923598.030319,-9.765625,-29.78515625,-20.5078125,66.89453125,0.0
1676923598.034073,-33.203125,-24.4140625,-18.5546875,-209.47265625,0.0
1676923598.0378222,-11.23046875,-30.2734375,-18.5546875,-65.4296875,0.0
1676923598.0415716,5.859375,-32.2265625,-12.6953125,159.66796875,0.0
1676923598.0453207,-5.859375,-23.92578125,-15.13671875,78.61328125,0.0
1676923598.04907,-33.69140625,-18.5546875,-21.97265625,-169.43359375,0.0
1676923598.0528193,-36.1328125,-29.296875,-23.4375,-133.7890625,0.0
1676923598.0565684,-0.48828125,-33.69140625,-20.5078125,142.578125,0.0
1676923598.0603175,0.9765625,-30.76171875,-15.625,168.45703125,0.0
1676923598.064067,-36.1328125,-34.66796875,-13.18359375,-93.75,0.0
1676923598.067816,-43.9453125,-39.55078125,-24.4140625,-152.34375,0.0
1676923598.0715652,-8.7890625,-37.109375,-19.04296875,89.35546875,0.0
1676923598.0753145,15.13671875,-30.76171875,-7.8125,177.734375,0.0
1676923598.0790637,-9.765625,-28.80859375,-16.6015625,-21.97265625,0.0
1676923598.0827913,-31.25,-33.69140625,-20.01953125,-204.1015625,0.0
1676923598.0865192,-7.8125,-36.62109375,-10.7421875,-34.66796875,0.0
1676923598.090247,6.8359375,-34.1796875,-3.41796875,135.7421875,0.0
1676923598.0939746,-20.5078125,-34.66796875,-12.20703125,2.44140625,0.0
1676923598.0977025,-49.31640625,-32.71484375,-19.04296875,-224.12109375,0.0
1676923598.1014302,-27.34375,-27.83203125,-16.11328125,-116.69921875,0.0
1676923598.1051579,-1.46484375,-28.3203125,-16.11328125,139.6484375,0.0
1676923598.1088858,-15.625,-36.1328125,-28.80859375,104.00390625,0.0
1676923598.1126134,-41.015625,-39.0625,-37.59765625,-162.109375,0.0
1676923598.116341,-15.625,-30.2734375,-5.859375,-164.55078125,0.0
1676923598.120069,12.20703125,-32.71484375,-1.953125,119.62890625,0.0
1676923598.1237967,5.37109375,-34.1796875,-14.6484375,190.4296875,0.0
1676923598.1275725,-14.6484375,-33.203125,-12.6953125,-68.84765625,0.0
1676923598.1313484,-20.01953125,-35.15625,-18.5546875,-190.4296875,0.0
1676923598.1351242,-0.9765625,-28.80859375,-20.99609375,45.41015625,0.0
1676923598.1389003,6.8359375,-29.78515625,-20.99609375,187.98828125,0.0
1676923598.142676,-18.06640625,-32.71484375,-20.5078125,-12.6953125,0.0
1676923598.146452,-31.73828125,-37.59765625,-20.5078125,-191.89453125,0.0
1676923598.1502278,-15.13671875,-32.71484375,-16.11328125,-6.34765625,0.0
1676923598.1540036,-15.625,-33.203125,-24.4140625,180.6640625,0.0
1676923598.1577797,-25.87890625,-34.66796875,-16.11328125,58.10546875,0.0
1676923598.1615555,-37.59765625,-28.3203125,-5.37109375,-186.03515625,0.0
1676923598.1653314,-32.2265625,-34.66796875,-17.578125,-96.19140625,0.0
1676923598.1691072,-11.71875,-35.64453125,-14.6484375,129.39453125,0.0
1676923598.1753538,0.0,-26.85546875,-6.34765625,106.4453125,0.0
1676923598.1816003,-16.6015625,-21.97265625,-7.8125,-140.625,0.0
1676923598.187847,-25.390625,-26.3671875,-16.6015625,-162.109375,0.0
1676923598.1940935,-14.6484375,-31.73828125,-21.484375,101.5625,0.0
1676923598.20034,-13.18359375,-31.73828125,-18.5546875,180.17578125,0.0
1676923598.2065868,-34.1796875,-31.73828125,-19.04296875,-42.48046875,0.0
1676923598.2128334,-47.8515625,-28.3203125,-23.4375,-143.5546875,0.0
1676923598.21908,-20.99609375,-25.390625,-16.11328125,79.1015625,0.0
1676923598.2253265,-6.8359375,-25.390625,1.953125,223.6328125,0.0
1676923598.231573,-21.97265625,-25.87890625,-6.8359375,46.38671875,0.0
1676923598.2378197,-28.80859375,-24.4140625,-12.6953125,-165.0390625,0.0
1676923598.2440662,-18.06640625,-28.80859375,-11.23046875,-14.16015625,0.0
1676923598.2454176,-11.23046875,-34.66796875,-13.671875,216.30859375,0.0
1676923598.2467692,-23.4375,-38.57421875,-21.97265625,121.09375,0.0
1676923598.2481205,-46.875,-41.015625,-27.34375,-165.0390625,0.0
1676923598.249472,-29.78515625,-36.1328125,-14.6484375,-143.5546875,0.0
1676923598.2508235,9.765625,-29.296875,-6.8359375,102.05078125,0.0
1676923598.2521749,1.46484375,-33.69140625,-17.578125,141.6015625,0.0
1676923598.2535262,-34.1796875,-36.62109375,-22.94921875,-100.09765625,0.0
1676923598.2548778,-29.78515625,-35.15625,-14.16015625,-163.0859375,0.0
1676923598.2562292,-8.30078125,-38.57421875,-7.8125,71.2890625,0.0
1676923598.2575805,-8.7890625,-43.45703125,-19.53125,136.71875,0.0
1676923598.258932,-20.5078125,-40.52734375,-24.90234375,-83.49609375,0.0
1676923598.2602835,-38.0859375,-37.109375,-8.30078125,-237.79296875,0.0
1676923598.263914,-19.04296875,-36.62109375,-4.8828125,-24.90234375,0.0
1676923598.267545,-4.39453125,-40.52734375,-17.08984375,161.62109375,0.0
1676923598.2711756,-32.2265625,-42.96875,-26.3671875,22.4609375,0.0
1676923598.2748065,-46.38671875,-38.57421875,-19.53125,-184.08203125,0.0
1676923598.2784371,-32.2265625,-32.2265625,-18.5546875,-34.66796875,0.0
1676923598.2820678,-22.4609375,-34.66796875,-29.296875,256.8359375,0.0
1676923598.2856987,-41.015625,-45.41015625,-37.59765625,210.44921875,0.0
1676923598.2893293,-54.6875,-41.9921875,-20.01953125,-72.265625,0.0
1676923598.2929602,-38.0859375,-38.57421875,-17.08984375,-63.96484375,0.0
1676923598.2965908,-22.4609375,-48.828125,-23.4375,167.96875,0.0
1676923598.3002217,-12.6953125,-44.43359375,-21.484375,171.875,0.0
1676923598.3038523,-18.06640625,-32.71484375,-20.99609375,-99.12109375,0.0
1676923598.3088791,-15.13671875,-37.109375,-27.34375,-180.17578125,0.0
1676923598.313906,0.0,-40.52734375,-27.83203125,49.8046875,0.0
1676923598.3189328,9.27734375,-37.109375,-18.06640625,123.53515625,0.0
1676923598.3239596,-5.37109375,-38.57421875,-15.13671875,-99.609375,0.0
1676923598.3289864,-20.5078125,-40.0390625,-24.4140625,-264.6484375,0.0
1676923598.3340135,-19.04296875,-41.9921875,-29.296875,-62.01171875,0.0
1676923598.3390403,-22.94921875,-37.109375,-25.87890625,134.27734375,0.0
1676923598.344067,-21.97265625,-27.34375,-18.06640625,-20.5078125,0.0
1676923598.349094,-34.66796875,-26.3671875,-19.53125,-263.18359375,0.0
1676923598.3541207,-23.4375,-34.66796875,-22.4609375,-125.0,0.0
1676923598.3591475,-0.48828125,-33.69140625,-18.5546875,124.0234375,0.0
1676923598.3641744,-15.13671875,-26.3671875,-20.5078125,64.94140625,0.0
1676923598.367914,-48.828125,-33.69140625,-32.2265625,-217.7734375,0.0
1676923598.3716536,-51.26953125,-40.52734375,-38.57421875,-226.5625,0.0
1676923598.375393,-27.83203125,-31.73828125,-24.90234375,31.73828125,0.0
1676923598.3791325,-31.73828125,-33.203125,-28.3203125,50.29296875,0.0
1676923598.382872,-60.05859375,-38.0859375,-37.109375,-208.0078125,0.0
1676923598.3866117,-62.01171875,-40.52734375,-32.2265625,-288.57421875,0.0
1676923598.3903513,-43.45703125,-41.9921875,-28.80859375,-69.82421875,0.0
1676923598.394091,-25.87890625,-28.3203125,-26.85546875,54.6875,0.0
1676923598.3978305,-39.55078125,-30.2734375,-44.43359375,-110.3515625,0.0
1676923598.4015698,-62.5,-29.296875,-47.36328125,-268.5546875,0.0
1676923598.4053094,-40.0390625,-18.5546875,-16.11328125,-87.890625,0.0
1676923598.409049,-22.4609375,-25.87890625,-15.625,119.62890625,0.0
1676923598.412801,-42.96875,-33.69140625,-34.1796875,15.625,0.0
1676923598.4165528,-55.17578125,-27.34375,-29.296875,-236.81640625,0.0
1676923598.4203048,-20.01953125,-16.6015625,-19.53125,-172.36328125,0.0
1676923598.4240568,-4.8828125,-23.4375,-23.92578125,86.9140625,0.0
1676923598.4278085,-18.06640625,-29.78515625,-27.34375,103.515625,0.0
1676923598.4315605,-35.15625,-27.83203125,-24.90234375,-142.578125,0.0
1676923598.4353125,-52.734375,-28.3203125,-19.04296875,-183.10546875,0.0
1676923598.4390643,-39.0625,-31.25,-20.01953125,59.5703125,0.0
1676923598.4428163,-37.109375,-38.0859375,-33.69140625,125.48828125,0.0
1676923598.4465683,-55.17578125,-30.76171875,-25.87890625,-110.83984375,0.0
1676923598.45032,-52.734375,-29.296875,-18.06640625,-249.51171875,0.0
1676923598.454072,-30.76171875,-35.15625,-27.83203125,-9.27734375,0.0
1676923598.4579225,-33.203125,-33.69140625,-29.78515625,171.875,0.0
1676923598.461773,-61.03515625,-30.2734375,-20.5078125,0.48828125,0.0
1676923598.4656234,-66.40625,-24.90234375,-13.671875,-221.19140625,0.0
1676923598.4694738,-36.62109375,-27.34375,-31.73828125,-69.3359375,0.0
1676923598.4733243,-20.01953125,-31.25,-43.45703125,145.99609375,0.0
1676923598.4771748,-31.73828125,-29.296875,-31.73828125,58.10546875,0.0
1676923598.4810255,-51.26953125,-20.99609375,-16.6015625,-194.82421875,0.0
1676923598.484876,-46.875,-23.92578125,-28.3203125,-161.62109375,0.0
1676923598.4887264,-28.3203125,-33.69140625,-39.55078125,95.21484375,0.0
1676923598.4925768,-14.6484375,-27.83203125,-15.625,92.7734375,0.0
1676923598.4964273,-31.25,-26.3671875,-18.5546875,-187.98828125,0.0
1676923598.5002778,-48.828125,-34.66796875,-26.3671875,-242.67578125,0.0
1676923598.5039315,-27.34375,-28.80859375,-19.53125,-3.90625,0.0
1676923598.5075855,-28.80859375,-29.78515625,-20.5078125,43.9453125,0.0
1676923598.5112395,-75.1953125,-36.62109375,-26.3671875,-188.4765625,0.0
1676923598.5148933,-88.37890625,-38.0859375,-28.80859375,-334.9609375,0.0
1676923598.518547,-62.5,-34.1796875,-23.92578125,-145.01953125,0.0
1676923598.522201,-55.6640625,-38.0859375,-27.34375,21.484375,0.0
1676923598.525855,-61.5234375,-38.57421875,-23.92578125,-123.046875,0.0
1676923598.5295088,-75.1953125,-34.1796875,-35.64453125,-298.33984375,0.0
1676923598.5331626,-65.4296875,-33.203125,-38.0859375,-128.90625,0.0
1676923598.5368166,-42.96875,-31.25,-14.6484375,103.515625,0.0
1676923598.5404706,-42.48046875,-37.109375,-21.484375,59.5703125,0.0
1676923598.5441244,-57.6171875,-38.0859375,-32.71484375,-181.640625,0.0
1676923598.547869,-54.6875,-34.1796875,-30.76171875,-150.390625,0.0
1676923598.5516136,-23.92578125,-36.62109375,-24.4140625,109.86328125,0.0
1676923598.5553582,-23.92578125,-36.1328125,-28.80859375,145.5078125,0.0
1676923598.5591028,-40.0390625,-35.15625,-26.85546875,-121.58203125,0.0
1676923598.5628474,-32.2265625,-36.62109375,-21.484375,-218.75,0.0
1676923598.566592,-16.6015625,-34.1796875,-25.390625,25.390625,0.0
1676923598.5703366,-7.8125,-34.66796875,-32.71484375,167.48046875,0.0
1676923598.5740812,-25.87890625,-39.55078125,-41.015625,-18.06640625,0.0
1676923598.5778258,-35.15625,-32.71484375,-25.390625,-229.98046875,0.0
1676923598.5815704,-12.20703125,-27.34375,-19.53125,-39.0625,0.0
1676923598.585315,0.0,-31.73828125,-25.390625,172.8515625,0.0
1676923598.5890596,-1.46484375,-27.34375,-26.3671875,46.38671875,0.0
1676923598.592864,-12.6953125,-26.85546875,-24.4140625,-206.54296875,0.0
1676923598.5966682,-12.20703125,-30.2734375,-30.2734375,-119.62890625,0.0
1676923598.6004725,-11.23046875,-29.296875,-42.96875,133.7890625,0.0
1676923598.604277,-19.04296875,-28.3203125,-35.64453125,110.83984375,0.0
1676923598.6080813,-29.78515625,-23.4375,-34.1796875,-153.80859375,0.0
1676923598.6118855,-27.34375,-33.203125,-38.57421875,-160.64453125,0.0
1676923598.6156898,-5.37109375,-44.921875,-38.0859375,96.19140625,0.0
1676923598.6194942,0.9765625,-33.69140625,-27.34375,130.859375,0.0
1676923598.6232986,-18.06640625,-30.2734375,-25.390625,-115.72265625,0.0
1676923598.6271029,-19.04296875,-34.66796875,-50.78125,-219.23828125,0.0
1676923598.630907,-4.8828125,-34.1796875,-50.78125,53.22265625,0.0
1676923598.6347115,4.8828125,-34.1796875,-26.3671875,183.10546875,0.0
1676923598.638413,-0.48828125,-37.59765625,-27.34375,-42.48046875,0.0
1676923598.6421144,-33.69140625,-35.15625,-47.8515625,-239.2578125,0.0
1676923598.6458158,-26.3671875,-34.1796875,-47.36328125,-54.6875,0.0
1676923598.6495175,10.25390625,-33.203125,-28.80859375,156.25,0.0
1676923598.653219,-4.39453125,-34.66796875,-36.1328125,34.66796875,0.0
1676923598.6569204,-19.04296875,-39.0625,-55.17578125,-209.9609375,0.0
1676923598.660622,0.0,-38.0859375,-46.875,-138.671875,0.0
1676923598.6643233,22.94921875,-28.3203125,-21.484375,116.2109375,0.0
1676923598.668025,15.625,-30.76171875,-23.92578125,111.328125,0.0
1676923598.6717265,-22.94921875,-39.0625,-45.41015625,-166.9921875,0.0
1676923598.675428,-19.53125,-32.2265625,-45.8984375,-214.35546875,0.0
1676923598.6791294,11.71875,-28.80859375,-28.3203125,22.94921875,0.0
1676923598.6830015,15.13671875,-30.76171875,-36.62109375,89.35546875,0.0
1676923598.6868737,-20.99609375,-32.2265625,-48.828125,-141.11328125,0.0
1676923598.6907458,-22.94921875,-33.203125,-41.015625,-292.96875,0.0
1676923598.6946182,23.92578125,-30.2734375,-30.2734375,-62.98828125,0.0
1676923598.6984904,22.94921875,-31.25,-36.62109375,80.078125,0.0
1676923598.7023625,-21.484375,-29.296875,-48.33984375,-105.95703125,0.0
1676923598.7062347,-24.4140625,-20.01953125,-42.96875,-275.390625,0.0
1676923598.7101068,13.18359375,-22.4609375,-33.203125,-114.2578125,0.0
1676923598.7139792,14.6484375,-26.3671875,-41.50390625,91.796875,0.0
1676923598.7178514,-17.578125,-26.85546875,-52.24609375,-14.6484375,0.0
1676923598.7217236,-39.55078125,-33.203125,-47.36328125,-272.4609375,0.0
1676923598.7255957,-25.87890625,-32.2265625,-38.0859375,-208.49609375,0.0
1676923598.730468,-13.671875,-35.15625,-41.50390625,74.70703125,0.0
1676923598.7353404,-21.484375,-34.1796875,-43.45703125,74.70703125,0.0
1676923598.7402127,-38.57421875,-26.3671875,-37.109375,-179.6875,0.0
1676923598.745085,-42.48046875,-27.34375,-40.52734375,-225.5859375,0.0
1676923598.7499573,-20.99609375,-38.57421875,-47.36328125,49.8046875,0.0
1676923598.7548296,-18.06640625,-41.015625,-47.36328125,185.05859375,0.0
1676923598.759702,-32.71484375,-26.3671875,-31.25,-37.109375,0.0
1676923598.7645743,-40.0390625,-20.99609375,-29.78515625,-197.265625,0.0
1676923598.7694466,-40.0390625,-28.3203125,-49.8046875,4.39453125,0.0
1676923598.774319,-40.0390625,-31.25,-41.9921875,182.6171875,0.0
1676923598.7791913,-57.12890625,-23.92578125,-30.76171875,30.2734375,0.0
1676923598.7840636,-67.87109375,-20.5078125,-39.55078125,-190.91796875,0.0
1676923598.7878144,-43.45703125,-21.97265625,-30.76171875,-53.22265625,0.0
1676923598.7915654,-15.625,-17.08984375,-23.4375,192.3828125,0.0
1676923598.7953162,-17.08984375,-10.25390625,-18.5546875,105.46875,0.0
1676923598.799067,-53.7109375,-7.8125,-25.390625,-199.70703125,0.0
1676923598.8028178,-66.89453125,-10.25390625,-35.64453125,-179.6875,0.0
1676923598.8065686,-53.22265625,-15.625,-37.109375,123.53515625,0.0
1676923598.8103197,-51.7578125,-20.99609375,-35.15625,151.3671875,0.0
1676923598.8140705,-61.03515625,-23.4375,-30.76171875,-113.28125,0.0
1676923598.8178213,-67.87109375,-24.90234375,-49.31640625,-208.0078125,0.0
1676923598.8215723,-51.26953125,-31.25,-46.38671875,1.46484375,0.0
1676923598.825323,-31.73828125,-35.64453125,-23.92578125,106.4453125,0.0
1676923598.829074,-47.8515625,-31.73828125,-31.73828125,-91.30859375,0.0
1676923598.832821,-59.08203125,-29.78515625,-28.3203125,-256.8359375,0.0
1676923598.8365679,-35.64453125,-25.87890625,-23.4375,-66.89453125,0.0
1676923598.8403149,-11.23046875,-24.4140625,-29.78515625,140.625,0.0
1676923598.8440619,-45.41015625,-36.1328125,-38.57421875,19.53125,0.0
1676923598.8478088,-79.1015625,-40.52734375,-39.0625,-243.65234375,0.0
1676923598.8515558,-53.7109375,-36.62109375,-29.78515625,-131.8359375,0.0
1676923598.8553026,-39.55078125,-36.1328125,-32.2265625,115.234375,0.0
1676923598.8590496,-56.640625,-36.62109375,-41.015625,86.9140625,0.0
1676923598.8627965,-74.21875,-28.80859375,-39.0625,-166.015625,0.0
1676923598.8665435,-51.7578125,-19.53125,-21.97265625,-182.12890625,0.0
1676923598.8702905,-20.99609375,-20.5078125,-22.4609375,109.86328125,0.0
1676923598.8740375,-21.484375,-25.390625,-37.109375,186.03515625,0.0
1676923598.87779,-53.7109375,-31.73828125,-31.73828125,-72.265625,0.0
1676923598.8815424,-65.4296875,-22.94921875,-22.94921875,-185.546875,0.0
1676923598.885295,-50.78125,-19.04296875,-29.296875,42.48046875,0.0
1676923598.8890474,-29.78515625,-25.87890625,-27.34375,177.734375,0.0
1676923598.8927999,-33.69140625,-32.71484375,-28.80859375,-5.859375,0.0
1676923598.8965526,-62.5,-34.66796875,-36.62109375,-207.51953125,0.0
1676923598.900305,-50.78125,-38.0859375,-37.109375,-37.109375,0.0
1676923598.9040575,-39.0625,-44.43359375,-41.9921875,194.3359375,0.0
1676923598.90781,-55.17578125,-34.66796875,-33.69140625,81.54296875,0.0
1676923598.9115624,-75.1953125,-28.3203125,-22.4609375,-192.3828125,0.0
1676923598.915315,-62.5,-32.71484375,-36.1328125,-113.28125,0.0
1676923598.9190674,-46.38671875,-40.0390625,-41.50390625,125.48828125,0.0
1676923598.9229207,-51.7578125,-34.66796875,-39.0625,94.23828125,0.0
1676923598.9267738,-65.91796875,-33.69140625,-41.9921875,-168.9453125,0.0
1676923598.930627,-65.4296875,-37.109375,-43.9453125,-210.44921875,0.0
1676923598.9344802,-42.96875,-33.203125,-34.66796875,69.3359375,0.0
1676923598.9383335,-38.0859375,-33.69140625,-27.34375,125.9765625,0.0
1676923598.9421868,-65.91796875,-30.76171875,-28.80859375,-98.14453125,0.0
1676923598.94604,-83.49609375,-31.25,-34.1796875,-208.0078125,0.0
1676923598.9498932,-63.4765625,-36.1328125,-29.296875,-3.90625,0.0
1676923598.9537463,-36.1328125,-27.83203125,-8.30078125,163.57421875,0.0
1676923598.9575996,-52.24609375,-24.90234375,-25.390625,-14.16015625,0.0
1676923598.9614527,-69.3359375,-30.76171875,-38.0859375,-250.48828125,0.0
1676923598.965306,-39.55078125,-28.80859375,-24.4140625,-78.61328125,0.0
1676923598.9689496,-29.78515625,-23.4375,-23.92578125,176.7578125,0.0
1676923598.9725928,-54.6875,-28.80859375,-35.15625,80.078125,0.0
1676923598.9762363,-76.171875,-31.25,-36.1328125,-159.1796875,0.0
1676923598.9798799,-60.546875,-22.94921875,-28.80859375,-102.5390625,0.0
1676923598.9835231,-27.34375,-23.4375,-25.390625,142.578125,0.0
1676923598.9871666,-47.36328125,-25.87890625,-22.94921875,155.2734375,0.0
1676923598.9908102,-81.54296875,-30.76171875,-34.1796875,-103.515625,0.0
1676923598.9944534,-65.4296875,-37.109375,-29.296875,-184.5703125,0.0
1676923598.998097,-30.2734375,-32.2265625,-10.25390625,50.78125,0.0
1676923599.0017405,-40.0390625,-35.15625,-25.390625,126.953125,0.0
1676923599.0053837,-64.94140625,-29.78515625,-27.83203125,-104.98046875,0.0
1676923599.0090272,-66.40625,-21.97265625,-19.04296875,-239.74609375,0.0
1676923599.012793,-48.828125,-23.4375,-19.04296875,-15.13671875,0.0
1676923599.0165591,-40.0390625,-18.5546875,-21.484375,181.15234375,0.0
1676923599.0203252,-55.17578125,-19.04296875,-29.78515625,41.015625,0.0
1676923599.024091,-74.70703125,-22.4609375,-24.4140625,-171.875,0.0
1676923599.0278568,-65.91796875,-22.94921875,-20.01953125,-9.27734375,0.0
1676923599.031623,-43.45703125,-33.69140625,-35.15625,245.1171875,0.0
1676923599.035389,-51.26953125,-42.96875,-34.1796875,199.21875,0.0
1676923599.0391548,-54.6875,-38.0859375,-19.04296875,-70.3125,0.0
1676923599.0429206,-33.69140625,-31.73828125,-17.578125,-78.61328125,0.0
1676923599.0466866,-18.06640625,-31.25,-36.1328125,214.35546875,0.0
1676923599.0504527,-18.5546875,-29.296875,-32.71484375,263.671875,0.0
1676923599.0542185,-31.73828125,-27.83203125,-13.18359375,-29.78515625,0.0
1676923599.0592062,-25.87890625,-30.76171875,-21.97265625,-152.34375,0.0
1676923599.064194,-7.8125,-30.76171875,-29.296875,94.7265625,0.0
1676923599.0691817,-8.30078125,-34.66796875,-31.25,219.7265625,0.0
1676923599.0741694,-36.62109375,-34.66796875,-29.296875,18.5546875,0.0
1676923599.079157,-48.33984375,-30.2734375,-31.73828125,-182.6171875,0.0
1676923599.0841448,-19.04296875,-22.94921875,-31.73828125,-8.30078125,0.0
1676923599.0891325,-9.27734375,-24.90234375,-23.4375,184.08203125,0.0
1676923599.0941203,-36.1328125,-28.80859375,-22.94921875,39.55078125,0.0
1676923599.099108,-61.03515625,-24.4140625,-36.1328125,-202.63671875,0.0
1676923599.1040957,-42.96875,-30.2734375,-46.38671875,-83.49609375,0.0
1676923599.1090834,-18.06640625,-27.34375,-27.34375,176.7578125,0.0
1676923599.1140711,-28.3203125,-19.53125,-7.8125,125.48828125,0.0
1676923599.117816,-58.10546875,-28.3203125,-25.390625,-135.7421875,0.0
1676923599.121561,-60.05859375,-35.64453125,-40.0390625,-136.23046875,0.0
1676923599.125306,-25.87890625,-29.78515625,-26.85546875,107.91015625,0.0
1676923599.129051,-18.5546875,-24.4140625,-22.4609375,145.5078125,0.0
1676923599.1327958,-39.55078125,-22.94921875,-34.66796875,-102.5390625,0.0
1676923599.136541,-36.62109375,-25.87890625,-37.59765625,-208.984375,0.0
1676923599.1402857,-23.92578125,-23.4375,-26.3671875,25.390625,0.0
1676923599.1440306,-21.484375,-23.92578125,-24.4140625,166.015625,0.0
1676923599.1477757,-49.8046875,-34.1796875,-41.015625,-17.578125,0.0
1676923599.1515205,-75.68359375,-35.64453125,-37.59765625,-198.2421875,0.0
1676923599.1552656,-38.57421875,-25.87890625,-22.4609375,-22.94921875,0.0
1676923599.1590104,-8.7890625,-25.390625,-27.34375,169.921875,0.0
1676923599.162867,-32.2265625,-27.34375,-33.69140625,44.921875,0.0
1676923599.1667237,-58.59375,-25.390625,-34.66796875,-206.0546875,0.0
1676923599.1705804,-48.828125,-32.71484375,-29.296875,-132.8125,0.0
1676923599.174437,-25.390625,-28.80859375,-28.3203125,128.90625,0.0
1676923599.1782937,-50.78125,-29.78515625,-38.0859375,89.35546875,0.0
1676923599.1821504,-74.21875,-34.1796875,-40.0390625,-170.41015625,0.0
1676923599.1860068,-52.734375,-31.73828125,-34.1796875,-173.828125,0.0
1676923599.1898634,-35.15625,-35.15625,-38.0859375,79.58984375,0.0
1676923599.19372,-56.15234375,-41.50390625,-56.640625,176.26953125,0.0
1676923599.1975768,-76.171875,-41.9921875,-48.828125,-45.8984375,0.0
1676923599.2014334,-64.453125,-37.109375,-30.2734375,-202.1484375,0.0
1676923599.20529,-43.45703125,-38.57421875,-35.15625,-3.90625,0.0
1676923599.2089381,-44.43359375,-41.015625,-37.109375,146.484375,0.0
1676923599.2125862,-64.94140625,-39.0625,-35.64453125,-22.4609375,0.0
1676923599.2162342,-81.0546875,-37.59765625,-39.55078125,-235.3515625,0.0
1676923599.219882,-62.01171875,-45.41015625,-45.41015625,-86.9140625,0.0
