timestamps,TP9,Fp1,Fp2,TP10,stim
1676922418.461368,-0.48828125,142.08984375,-0.48828125,-127.44140625,0.0
1676922418.4650133,2.44140625,106.93359375,-11.71875,-123.046875,0.0
1676922418.4686587,-13.18359375,18.5546875,-26.85546875,-119.140625,0.0
1676922418.472304,-15.13671875,63.4765625,-14.16015625,-98.6328125,0.0
1676922418.4760463,-0.9765625,83.49609375,-3.90625,-67.87109375,0.0
1676922418.4797885,2.44140625,52.24609375,4.8828125,-43.9453125,0.0
1676922418.4835308,0.48828125,31.25,-13.18359375,-38.0859375,0.0
1676922418.487273,-11.23046875,68.84765625,-28.3203125,-41.9921875,0.0
1676922418.4910152,-19.04296875,51.7578125,-23.92578125,-34.1796875,0.0
1676922418.4947574,-13.671875,-3.41796875,-21.97265625,-25.87890625,0.0
1676922418.4984996,-15.13671875,-31.25,-31.73828125,-25.390625,0.0
1676922418.5022418,-10.7421875,58.59375,-22.94921875,-14.16015625,0.0
1676922418.505984,-12.20703125,127.9296875,-22.4609375,-11.71875,0.0
1676922418.5097263,-22.94921875,14.16015625,-37.59765625,-11.23046875,0.0
1676922418.5134685,-24.90234375,-62.98828125,-35.64453125,-6.34765625,0.0
1676922418.5172107,-36.62109375,62.5,-25.390625,-26.3671875,0.0
1676922418.520989,-32.2265625,88.8671875,-22.94921875,-23.4375,0.0
1676922418.524767,-18.5546875,-9.765625,-19.53125,-10.7421875,0.0
1676922418.5285451,-17.08984375,-11.23046875,-18.06640625,-15.625,0.0
1676922418.5323231,-21.484375,57.6171875,-20.99609375,-22.4609375,0.0
1676922418.5361013,-25.87890625,52.24609375,-27.34375,-13.671875,0.0
1676922418.5398793,-10.25390625,-101.07421875,-54.19921875,11.23046875,0.0
1676922418.5436575,-10.7421875,-84.47265625,-58.59375,2.9296875,0.0
1676922418.5474358,-15.13671875,82.51953125,-33.69140625,-14.6484375,0.0
1676922418.5512137,8.7890625,32.2265625,-31.73828125,12.6953125,0.0
1676922418.554992,16.11328125,-51.7578125,-35.15625,24.90234375,0.0
1676922418.55877,5.859375,14.6484375,-24.4140625,8.7890625,0.0
1676922418.5625482,3.90625,102.05078125,-18.5546875,-4.39453125,0.0
1676922418.5675306,4.39453125,36.1328125,-35.64453125,-0.48828125,0.0
1676922418.572513,0.0,-31.25,-44.921875,8.7890625,0.0
1676922418.5774953,0.48828125,36.62109375,-25.87890625,0.9765625,0.0
1676922418.5824778,4.39453125,93.75,-11.23046875,-1.953125,0.0
1676922418.5874603,2.9296875,25.390625,-38.0859375,-7.8125,0.0
1676922418.5924425,4.39453125,-46.875,-52.24609375,-3.41796875,0.0
1676922418.597425,3.90625,26.85546875,-27.83203125,-1.46484375,0.0
1676922418.6024075,-3.90625,95.703125,-16.6015625,-16.11328125,0.0
1676922418.60739,-22.4609375,4.39453125,-39.55078125,-20.99609375,0.0
1676922418.6123724,-29.296875,-39.0625,-55.17578125,-13.18359375,0.0
1676922418.6173546,-28.3203125,52.24609375,-52.734375,-21.484375,0.0
1676922418.622337,-26.3671875,35.15625,-42.48046875,-21.484375,0.0
1676922418.626087,-26.3671875,-35.64453125,-36.1328125,-1.953125,0.0
1676922418.6298368,-29.296875,-13.18359375,-29.296875,5.37109375,0.0
1676922418.6335866,-24.4140625,82.51953125,-15.13671875,-11.71875,0.0
1676922418.6373365,-15.625,53.22265625,-23.4375,-26.3671875,0.0
1676922418.6410863,-14.16015625,-34.66796875,-40.0390625,-33.69140625,0.0
1676922418.6448364,-16.6015625,-47.8515625,-43.9453125,-41.015625,0.0
1676922418.6485863,-21.484375,17.08984375,-39.0625,-48.828125,0.0
1676922418.6523361,-14.16015625,57.12890625,-30.76171875,-53.22265625,0.0
1676922418.656086,2.44140625,-92.28515625,-46.38671875,-41.015625,0.0
1676922418.6598358,3.41796875,-88.8671875,-41.50390625,-39.55078125,0.0
1676922418.6635857,-1.46484375,99.609375,-11.71875,-45.41015625,0.0
1676922418.6673355,-1.953125,36.1328125,-34.1796875,-35.64453125,0.0
1676922418.6710856,-5.37109375,-9.765625,-45.41015625,-29.78515625,0.0
1676922418.6748357,0.48828125,30.76171875,-36.62109375,-20.99609375,0.0
1676922418.678586,15.13671875,19.04296875,-40.0390625,-8.30078125,0.0
1676922418.682336,21.484375,24.4140625,-32.71484375,-2.44140625,0.0
1676922418.6860862,21.484375,-6.8359375,-32.71484375,3.90625,0.0
1676922418.6898365,3.90625,-20.01953125,-30.76171875,1.953125,0.0
1676922418.6935866,-9.765625,53.7109375,-16.6015625,-12.20703125,0.0
1676922418.6973367,-8.7890625,48.33984375,-27.34375,-11.71875,0.0
1676922418.7010868,-5.37109375,-62.5,-50.29296875,-10.25390625,0.0
1676922418.7048368,-22.94921875,45.41015625,-41.015625,-35.64453125,0.0
1676922418.7085872,-25.390625,86.42578125,-32.2265625,-45.41015625,0.0
1676922418.7123373,1.46484375,-28.3203125,-35.15625,-34.1796875,0.0
1676922418.7160876,-3.41796875,-2.44140625,-32.71484375,-56.640625,0.0
1676922418.719838,-22.94921875,50.29296875,-22.94921875,-88.37890625,0.0
1676922418.7235885,-19.04296875,28.3203125,-20.99609375,-98.6328125,0.0
1676922418.7273388,-5.859375,-20.01953125,-24.90234375,-92.7734375,0.0
1676922418.731089,3.41796875,-16.6015625,-28.3203125,-85.9375,0.0
1676922418.7348394,5.859375,-11.71875,-24.90234375,-75.1953125,0.0
1676922418.7385898,-3.41796875,-19.04296875,-27.83203125,-84.9609375,0.0
1676922418.74234,-9.27734375,-101.07421875,-52.24609375,-87.40234375,0.0
1676922418.7460904,-14.16015625,-96.19140625,-54.6875,-81.54296875,0.0
1676922418.749841,-26.85546875,95.21484375,-31.25,-84.9609375,0.0
1676922418.7535913,-14.16015625,89.84375,-24.90234375,-71.77734375,0.0
1676922418.7573416,-10.7421875,20.01953125,-37.109375,-79.58984375,0.0
1676922418.7611003,-14.6484375,39.0625,-48.828125,-84.9609375,0.0
1676922418.7648587,-8.7890625,46.875,-43.45703125,-71.77734375,0.0
1676922418.7686174,-8.7890625,-20.5078125,-48.828125,-68.84765625,0.0
1676922418.772376,-8.7890625,-25.390625,-49.31640625,-79.58984375,0.0
1676922418.7761345,-1.46484375,23.4375,-32.2265625,-76.66015625,0.0
1676922418.7798932,-3.41796875,-32.71484375,-48.828125,-74.70703125,0.0
1676922418.7836518,-18.06640625,-44.921875,-66.89453125,-88.8671875,0.0
1676922418.7874103,-16.6015625,-90.8203125,-72.265625,-82.51953125,0.0
1676922418.791169,-25.87890625,-18.5546875,-53.22265625,-70.3125,0.0
1676922418.7949276,-39.55078125,87.890625,-37.109375,-73.2421875,0.0
1676922418.798686,-37.59765625,-9.27734375,-63.96484375,-63.96484375,0.0
1676922418.8024447,-31.73828125,-40.0390625,-61.5234375,-57.6171875,0.0
1676922418.80617,-25.390625,49.8046875,-39.0625,-56.15234375,0.0
1676922418.809895,-21.97265625,51.7578125,-38.0859375,-47.8515625,0.0
1676922418.8136203,-23.92578125,-29.296875,-44.921875,-58.59375,0.0
1676922418.8173456,-25.87890625,-26.85546875,-35.15625,-67.3828125,0.0
1676922418.821071,-17.578125,2.44140625,-23.4375,-52.24609375,0.0
1676922418.8247962,-26.85546875,-38.57421875,-37.109375,-48.33984375,0.0
1676922418.8285213,-26.85546875,-113.28125,-52.24609375,-45.41015625,0.0
1676922418.8322465,-14.16015625,-85.44921875,-43.9453125,-38.57421875,0.0
1676922418.8359718,-13.671875,67.3828125,-27.83203125,-47.8515625,0.0
1676922418.839697,-3.41796875,40.52734375,-35.64453125,-29.296875,0.0
1676922418.8434222,7.32421875,-29.296875,-37.109375,-18.5546875,0.0
1676922418.8471475,-3.90625,-7.8125,-37.109375,-34.1796875,0.0
1676922418.8521926,-20.99609375,43.9453125,-31.25,-52.24609375,0.0
1676922418.8572378,-19.04296875,-2.9296875,-31.73828125,-50.29296875,0.0
1676922418.8622828,-15.625,-77.1484375,-39.0625,-42.48046875,0.0
1676922418.867328,-21.484375,-3.90625,-26.85546875,-45.8984375,0.0
1676922418.872373,-22.94921875,41.015625,-29.78515625,-46.38671875,0.0
1676922418.877418,-16.11328125,-48.33984375,-57.6171875,-42.48046875,0.0
1676922418.8824632,-9.765625,-87.890625,-59.5703125,-29.78515625,0.0
1676922418.8875084,-11.23046875,31.25,-41.015625,-31.25,0.0
1676922418.8925536,-10.25390625,87.40234375,-31.25,-31.73828125,0.0
1676922418.8975987,5.37109375,-2.44140625,-40.52734375,-22.94921875,0.0
1676922418.9026437,12.20703125,-7.8125,-50.29296875,-29.78515625,0.0
1676922418.9076889,6.34765625,50.29296875,-50.29296875,-32.2265625,0.0
1676922418.9114406,3.90625,51.26953125,-47.36328125,-40.0390625,0.0
1676922418.9151924,2.9296875,-43.45703125,-59.5703125,-51.26953125,0.0
1676922418.9189441,1.953125,-37.59765625,-58.10546875,-47.36328125,0.0
1676922418.9226959,-6.8359375,83.984375,-39.0625,-53.22265625,0.0
1676922418.9264476,-11.71875,55.6640625,-52.24609375,-62.5,0.0
1676922418.9301991,-13.18359375,-74.21875,-76.66015625,-61.5234375,0.0
1676922418.933951,-18.5546875,-52.24609375,-71.77734375,-56.640625,0.0
1676922418.9377027,-14.6484375,75.68359375,-49.31640625,-57.6171875,0.0
1676922418.9414544,-7.32421875,84.9609375,-40.52734375,-52.734375,0.0
1676922418.9452062,0.9765625,-78.61328125,-58.10546875,-41.015625,0.0
1676922418.948958,3.90625,-79.58984375,-62.98828125,-41.50390625,0.0
1676922418.9527097,-5.859375,116.69921875,-39.0625,-56.15234375,0.0
1676922418.9564295,-9.27734375,66.89453125,-50.78125,-57.12890625,0.0
1676922418.960149,-19.04296875,5.37109375,-69.3359375,-58.59375,0.0
1676922418.9638689,-24.90234375,37.59765625,-55.6640625,-61.03515625,0.0
1676922418.9675887,-17.578125,41.50390625,-43.9453125,-56.15234375,0.0
1676922418.9713082,-10.25390625,-15.13671875,-51.7578125,-48.828125,0.0
1676922418.975028,-8.30078125,-65.4296875,-61.5234375,-38.57421875,0.0
1676922418.9787478,-18.5546875,-33.203125,-49.31640625,-31.25,0.0
1676922418.9824674,-23.92578125,59.5703125,-29.78515625,-39.0625,0.0
1676922418.9861872,-17.08984375,8.7890625,-37.59765625,-47.36328125,0.0
1676922418.989907,-15.13671875,-145.01953125,-62.98828125,-49.31640625,0.0
1676922418.9936266,-30.2734375,-11.71875,-55.6640625,-83.0078125,0.0
1676922418.9973464,-31.25,78.61328125,-53.7109375,-97.16796875,0.0
1676922419.001074,-14.6484375,-36.1328125,-65.91796875,-81.54296875,0.0
1676922419.0048018,-8.7890625,-45.8984375,-53.22265625,-80.56640625,0.0
1676922419.0085294,-23.4375,-2.44140625,-41.9921875,-89.35546875,0.0
1676922419.012257,-36.1328125,-12.6953125,-55.17578125,-90.33203125,0.0
1676922419.0159848,-34.1796875,-58.10546875,-70.3125,-80.078125,0.0
1676922419.0197124,-28.80859375,-79.58984375,-69.3359375,-76.66015625,0.0
1676922419.0234401,-37.59765625,-27.34375,-64.453125,-81.0546875,0.0
1676922419.0271678,-34.66796875,6.8359375,-54.6875,-75.1953125,0.0
1676922419.0308955,-7.8125,-104.00390625,-56.15234375,-48.828125,0.0
1676922419.0346231,-1.46484375,-97.65625,-51.7578125,-46.875,0.0
1676922419.0383508,-12.6953125,101.5625,-33.69140625,-68.359375,0.0
1676922419.0420785,-18.06640625,57.6171875,-43.45703125,-67.87109375,0.0
1676922419.0495932,-27.34375,-12.20703125,-55.6640625,-58.59375,0.0
1676922419.057108,-25.87890625,26.85546875,-55.17578125,-62.98828125,0.0
1676922419.0646226,-18.06640625,25.390625,-51.7578125,-75.1953125,0.0
1676922419.0721374,-16.11328125,-13.18359375,-53.7109375,-79.1015625,0.0
1676922419.079652,-8.7890625,-47.36328125,-46.38671875,-61.5234375,0.0
1676922419.0871668,-1.953125,-51.26953125,-33.203125,-49.31640625,0.0
1676922419.0946817,-8.7890625,1.46484375,-39.55078125,-68.359375,0.0
1676922419.1021965,-8.7890625,-4.8828125,-54.19921875,-66.40625,0.0
1676922419.1097112,-17.578125,-100.09765625,-62.98828125,-50.29296875,0.0
1676922419.117226,-38.57421875,0.0,-55.17578125,-56.15234375,0.0
1676922419.1247406,-41.015625,28.3203125,-60.05859375,-61.03515625,0.0
1676922419.1322553,-27.83203125,-80.078125,-73.73046875,-58.10546875,0.0
1676922419.1325896,-21.484375,-58.59375,-70.3125,-66.89453125,0.0
1676922419.1329236,-28.80859375,44.43359375,-57.6171875,-67.3828125,0.0
1676922419.1332579,-34.66796875,-7.8125,-66.89453125,-63.96484375,0.0
1676922419.1335921,-35.15625,-89.84375,-77.1484375,-72.265625,0.0
1676922419.1339262,-38.0859375,-52.734375,-71.77734375,-77.63671875,0.0
1676922419.1342604,-39.0625,-40.52734375,-79.58984375,-72.75390625,0.0
1676922419.1345947,-38.57421875,-86.9140625,-99.609375,-88.8671875,0.0
1676922419.1349287,-48.828125,-91.30859375,-92.7734375,-102.5390625,0.0
1676922419.135263,-44.43359375,-19.04296875,-65.91796875,-101.07421875,0.0
1676922419.1355972,-32.2265625,37.109375,-49.8046875,-85.44921875,0.0
1676922419.1359313,-28.80859375,-33.203125,-64.453125,-62.98828125,0.0
1676922419.1362655,-31.73828125,-104.00390625,-81.54296875,-60.05859375,0.0
1676922419.1397908,-41.015625,-34.66796875,-68.84765625,-62.98828125,0.0
1676922419.1433163,-45.8984375,-29.296875,-67.87109375,-71.77734375,0.0
1676922419.1468415,-47.8515625,-94.7265625,-76.66015625,-76.66015625,0.0
1676922419.1503668,-45.8984375,-58.10546875,-66.89453125,-78.61328125,0.0
1676922419.153892,-39.0625,-7.8125,-56.15234375,-80.56640625,0.0
1676922419.1574173,-25.87890625,-66.40625,-63.4765625,-82.03125,0.0
1676922419.1609428,-20.99609375,-57.12890625,-68.359375,-93.75,0.0
1676922419.164468,-20.01953125,-101.07421875,-75.1953125,-98.6328125,0.0
1676922419.1679933,-27.83203125,-120.1171875,-79.1015625,-117.1875,0.0
1676922419.1715188,-44.43359375,86.9140625,-51.7578125,-163.0859375,0.0
1676922419.175044,-33.69140625,62.5,-45.41015625,-170.41015625,0.0
1676922419.1785693,-27.83203125,3.41796875,-55.17578125,-185.05859375,0.0
1676922419.182217,-37.59765625,48.33984375,-51.7578125,-203.125,0.0
1676922419.1858644,-42.48046875,19.04296875,-50.29296875,-211.42578125,0.0
1676922419.1895123,-53.7109375,-37.109375,-57.12890625,-209.47265625,0.0
1676922419.1931598,-60.546875,-16.11328125,-52.734375,-200.68359375,0.0
1676922419.1968074,-44.921875,18.06640625,-47.36328125,-198.2421875,0.0
1676922419.200455,-37.59765625,1.953125,-54.6875,-196.77734375,0.0
1676922419.2041025,-27.34375,-49.31640625,-62.5,-175.78125,0.0
1676922419.20775,-15.625,-59.08203125,-65.91796875,-159.66796875,0.0
1676922419.2113976,-19.53125,111.328125,-41.50390625,-177.24609375,0.0
1676922419.2150455,-10.25390625,105.46875,-34.1796875,-167.48046875,0.0
1676922419.218693,-5.37109375,19.53125,-41.50390625,-162.109375,0.0
1676922419.2223406,-14.16015625,45.8984375,-38.0859375,-153.3203125,0.0
1676922419.227337,-14.6484375,66.40625,-35.15625,-155.76171875,0.0
1676922419.232333,-13.671875,11.23046875,-51.7578125,-164.0625,0.0
1676922419.237329,-26.85546875,-13.18359375,-60.546875,-153.3203125,0.0
1676922419.2423253,-27.34375,42.96875,-50.29296875,-136.23046875,0.0
1676922419.2473216,-28.3203125,33.69140625,-53.22265625,-121.58203125,0.0
1676922419.2523177,-27.34375,-31.25,-69.82421875,-104.4921875,0.0
1676922419.2573137,-28.3203125,-87.890625,-86.42578125,-92.28515625,0.0
1676922419.26231,-30.76171875,-14.16015625,-82.03125,-88.37890625,0.0
1676922419.2673063,-26.85546875,117.1875,-59.5703125,-70.80078125,0.0
1676922419.2723024,-15.13671875,57.6171875,-52.24609375,-41.50390625,0.0
1676922419.2772985,-7.8125,-1.46484375,-55.6640625,-19.04296875,0.0
1676922419.2822948,-13.18359375,87.40234375,-37.109375,-8.7890625,0.0
1676922419.284801,-7.8125,81.0546875,-37.109375,-14.6484375,0.0
1676922419.2873073,-1.953125,9.27734375,-50.78125,-15.13671875,0.0
1676922419.2898135,-16.6015625,25.390625,-43.9453125,-11.23046875,0.0
1676922419.2923198,-33.69140625,75.68359375,-35.15625,-25.390625,0.0
1676922419.294826,-20.5078125,41.9921875,-44.921875,-16.11328125,0.0
1676922419.2973323,-9.27734375,-57.6171875,-54.6875,1.953125,0.0
1676922419.2998383,-16.6015625,-9.27734375,-44.43359375,-10.25390625,0.0
1676922419.3023446,-20.5078125,84.9609375,-35.64453125,-18.06640625,0.0
1676922419.3048508,-18.06640625,71.77734375,-35.64453125,-1.46484375,0.0
1676922419.307357,-5.859375,-71.77734375,-48.828125,19.53125,0.0
1676922419.3098633,-2.44140625,-74.21875,-47.36328125,22.4609375,0.0
1676922419.3123696,-15.625,117.1875,-21.97265625,3.41796875,0.0
1676922419.3173773,-18.5546875,66.40625,-33.203125,-5.37109375,0.0
1676922419.322385,-23.4375,-16.11328125,-53.22265625,-7.8125,0.0
1676922419.3273928,-17.08984375,42.48046875,-36.1328125,-3.90625,0.0
1676922419.3324006,-20.01953125,76.66015625,-26.85546875,-5.37109375,0.0
1676922419.3374083,-47.36328125,11.23046875,-54.6875,-14.6484375,0.0
1676922419.342416,-49.31640625,-50.78125,-69.82421875,-19.04296875,0.0
1676922419.3474238,-41.015625,10.25390625,-51.7578125,-23.92578125,0.0
1676922419.3524315,-36.1328125,77.1484375,-27.34375,-21.97265625,0.0
1676922419.3574393,-35.15625,0.0,-39.0625,-27.83203125,0.0
1676922419.362447,-36.62109375,-60.546875,-63.4765625,-28.80859375,0.0
1676922419.3674548,-29.78515625,33.203125,-58.59375,-28.80859375,0.0
1676922419.3724625,-20.99609375,66.40625,-42.48046875,-29.296875,0.0
1676922419.376268,-13.671875,-15.625,-41.9921875,-9.27734375,0.0
1676922419.3800735,-10.25390625,-39.0625,-44.43359375,-3.90625,0.0
1676922419.383879,-16.11328125,28.80859375,-48.828125,-14.16015625,0.0
1676922419.3876846,-16.6015625,44.921875,-49.8046875,-14.16015625,0.0
1676922419.39149,-13.18359375,-66.40625,-53.7109375,-6.8359375,0.0
1676922419.3952956,-19.04296875,-109.86328125,-60.05859375,-4.8828125,0.0
1676922419.399101,-27.34375,32.2265625,-34.1796875,-5.859375,0.0
1676922419.4029064,-19.04296875,86.42578125,-20.99609375,0.0,0.0
1676922419.406712,0.48828125,-66.89453125,-38.0859375,3.41796875,0.0
1676922419.4105175,-1.46484375,-71.2890625,-37.59765625,0.0,0.0
1676922419.414323,-9.765625,104.98046875,-21.484375,-9.765625,0.0
1676922419.4181285,-4.8828125,49.31640625,-28.3203125,-13.18359375,0.0
1676922419.4218106,-9.765625,1.46484375,-42.48046875,-15.625,0.0
1676922419.425493,-20.01953125,37.109375,-49.8046875,-25.390625,0.0
1676922419.4291754,-16.11328125,46.875,-41.50390625,-25.87890625,0.0
1676922419.4328575,-11.23046875,-0.9765625,-50.78125,-22.94921875,0.0
1676922419.4365396,-15.625,-46.875,-52.24609375,-26.3671875,0.0
1676922419.440222,-4.8828125,-20.99609375,-27.34375,-23.92578125,0.0
1676922419.4439044,-4.8828125,25.390625,-23.4375,-32.2265625,0.0
1676922419.4475865,-4.39453125,13.18359375,-22.94921875,-34.66796875,0.0
1676922419.4512687,-4.8828125,-19.04296875,-22.4609375,-38.0859375,0.0
1676922419.454951,-17.578125,49.8046875,-21.97265625,-52.24609375,0.0
1676922419.4586334,-19.04296875,74.21875,-19.53125,-47.8515625,0.0
1676922419.4623156,-12.6953125,-17.578125,-31.73828125,-32.2265625,0.0
1676922419.4660678,-21.484375,-39.0625,-42.96875,-32.2265625,0.0
1676922419.4698198,-31.73828125,51.26953125,-29.78515625,-46.875,0.0
1676922419.473572,-34.66796875,55.6640625,-29.78515625,-68.359375,0.0
1676922419.477324,-30.76171875,-47.36328125,-44.43359375,-62.01171875,0.0
1676922419.4810762,-27.83203125,-86.9140625,-43.45703125,-37.109375,0.0
1676922419.4848285,-24.4140625,8.30078125,-28.3203125,-33.203125,0.0
1676922419.4885805,-21.97265625,42.96875,-27.83203125,-56.640625,0.0
1676922419.4923327,-4.39453125,-54.6875,-31.73828125,-50.78125,0.0
1676922419.4960847,0.0,-79.1015625,-37.59765625,-39.0625,0.0
1676922419.499837,-17.08984375,123.53515625,-17.08984375,-67.3828125,0.0
1676922419.503589,-6.8359375,98.6328125,-13.18359375,-73.2421875,0.0
1676922419.5073411,-3.41796875,20.5078125,-32.2265625,-72.75390625,0.0
1676922419.511089,-1.46484375,66.89453125,-25.390625,-67.87109375,0.0
1676922419.5148368,-1.953125,80.56640625,-15.13671875,-72.75390625,0.0
1676922419.5185847,-13.18359375,24.4140625,-27.34375,-79.58984375,0.0
1676922419.5223327,-16.6015625,1.953125,-37.109375,-80.56640625,0.0
1676922419.5260804,-11.71875,28.3203125,-41.9921875,-76.66015625,0.0
1676922419.5298283,-15.625,-6.34765625,-53.7109375,-75.68359375,0.0
1676922419.5335763,-28.80859375,-16.6015625,-60.546875,-76.66015625,0.0
1676922419.537324,-34.66796875,-34.66796875,-66.40625,-74.21875,0.0
1676922419.541072,-38.0859375,65.4296875,-39.0625,-77.63671875,0.0
1676922419.5448198,-19.53125,111.328125,-16.6015625,-70.3125,0.0
1676922419.5485675,-9.765625,-8.7890625,-37.59765625,-55.17578125,0.0
1676922419.5523155,-16.11328125,-1.953125,-35.15625,-55.6640625,0.0
1676922419.5560718,-3.90625,90.33203125,-6.34765625,-61.5234375,0.0
1676922419.5598283,2.44140625,63.96484375,-6.8359375,-52.24609375,0.0
1676922419.5635846,0.48828125,-9.765625,-19.53125,-57.6171875,0.0
1676922419.567341,-17.08984375,3.90625,-19.53125,-76.171875,0.0
1676922419.5710974,-25.390625,25.390625,-12.6953125,-58.10546875,0.0
1676922419.574854,-17.08984375,-17.578125,-26.85546875,-42.96875,0.0
1676922419.5786102,-9.27734375,-97.16796875,-45.8984375,-47.36328125,0.0
1676922419.5823665,-5.37109375,-64.453125,-41.9921875,-46.38671875,0.0
1676922419.586123,-4.39453125,111.81640625,-20.5078125,-57.12890625,0.0
1676922419.5898793,-2.44140625,68.84765625,-24.4140625,-48.828125,0.0
1676922419.5936358,4.8828125,9.765625,-26.85546875,-29.78515625,0.0
1676922419.597392,10.25390625,44.921875,-12.6953125,-26.3671875,0.0
1676922419.6023874,-0.9765625,15.625,-27.83203125,-41.50390625,0.0
1676922419.607383,-14.16015625,-40.52734375,-52.734375,-37.59765625,0.0
1676922419.6123786,-21.97265625,-34.1796875,-51.7578125,-31.73828125,0.0
1676922419.617374,-17.578125,33.69140625,-34.66796875,-52.24609375,0.0
1676922419.6223693,-14.6484375,35.64453125,-33.69140625,-61.03515625,0.0
1676922419.6273649,-5.859375,-26.85546875,-37.59765625,-37.59765625,0.0
1676922419.6323605,-0.48828125,-59.5703125,-44.921875,-24.4140625,0.0
1676922419.6373558,-9.27734375,49.8046875,-30.2734375,-29.78515625,0.0
1676922419.6423512,-6.8359375,121.09375,-27.34375,-25.390625,0.0
1676922419.6473467,1.953125,27.34375,-38.0859375,-13.671875,0.0
1676922419.6523423,0.0,3.41796875,-31.73828125,-15.13671875,0.0
1676922419.6573377,-3.90625,53.7109375,-32.2265625,-29.78515625,0.0
1676922419.659845,1.46484375,47.36328125,-32.71484375,-21.97265625,0.0
1676922419.6623526,-1.953125,-2.9296875,-32.71484375,-13.18359375,0.0
1676922419.6648602,-10.25390625,6.8359375,-34.66796875,-28.80859375,0.0
1676922419.6673677,-10.7421875,16.11328125,-39.0625,-41.50390625,0.0
1676922419.6698751,-8.30078125,10.7421875,-24.90234375,-31.73828125,0.0
1676922419.6723828,-3.41796875,-53.22265625,-26.85546875,-20.5078125,0.0
1676922419.6748903,-14.16015625,-26.3671875,-29.296875,-21.97265625,0.0
1676922419.6773977,-25.390625,112.3046875,-18.06640625,-33.69140625,0.0
1676922419.6799052,-24.4140625,85.9375,-25.87890625,-31.25,0.0
1676922419.6824126,-17.578125,-77.1484375,-46.875,-6.8359375,0.0
1676922419.6849203,-11.71875,-75.68359375,-46.875,-13.671875,0.0
1676922419.6874278,-10.7421875,110.3515625,-18.06640625,-30.76171875,0.0
1676922419.6924176,-2.9296875,49.31640625,-31.73828125,-21.97265625,0.0
1676922419.6974075,-5.859375,4.39453125,-43.45703125,-24.90234375,0.0
1676922419.7023973,-14.6484375,44.921875,-41.015625,-36.1328125,0.0
1676922419.707387,-15.13671875,43.9453125,-39.55078125,-38.0859375,0.0
1676922419.7123768,-11.71875,4.8828125,-40.52734375,-33.69140625,0.0
1676922419.7173667,-15.625,-57.12890625,-58.59375,-34.66796875,0.0
1676922419.7223566,-21.484375,-27.83203125,-51.7578125,-39.55078125,0.0
1676922419.7273464,-16.6015625,40.52734375,-30.2734375,-35.15625,0.0
1676922419.732336,-9.765625,23.4375,-32.71484375,-36.62109375,0.0
1676922419.737326,-3.41796875,-101.07421875,-49.8046875,-22.4609375,0.0
1676922419.7423158,-6.34765625,1.46484375,-41.50390625,-33.203125,0.0
1676922419.7473056,-1.953125,102.05078125,-30.76171875,-45.41015625,0.0
1676922419.7510557,7.8125,11.71875,-33.69140625,-28.3203125,0.0
1676922419.754806,19.04296875,6.8359375,-22.94921875,-10.25390625,0.0
1676922419.7585561,20.01953125,54.6875,-12.20703125,-11.23046875,0.0
1676922419.7623065,4.39453125,26.85546875,-24.4140625,-31.25,0.0
1676922419.7660565,6.34765625,-49.8046875,-32.71484375,-26.3671875,0.0
1676922419.7698069,13.671875,-62.01171875,-32.2265625,-24.90234375,0.0
1676922419.773557,-0.9765625,2.44140625,-31.73828125,-41.50390625,0.0
1676922419.777307,-11.71875,59.5703125,-27.34375,-50.29296875,0.0
1676922419.7810574,-7.32421875,-81.0546875,-38.57421875,-33.203125,0.0
1676922419.7848074,-15.13671875,-135.7421875,-34.1796875,-30.2734375,0.0
1676922419.7885578,-36.1328125,40.0390625,-18.5546875,-63.4765625,0.0
1676922419.7923079,-35.64453125,22.4609375,-35.15625,-63.96484375,0.0
1676922419.7960606,-30.76171875,-58.10546875,-51.26953125,-46.875,0.0
1676922419.7998135,-36.1328125,-0.48828125,-46.38671875,-56.15234375,0.0
1676922419.8035662,-38.57421875,42.48046875,-38.0859375,-67.3828125,0.0
1676922419.8073192,-29.296875,-4.39453125,-50.78125,-66.89453125,0.0
1676922419.8110719,-12.6953125,-44.43359375,-70.3125,-57.12890625,0.0
1676922419.8148246,-18.06640625,-46.38671875,-73.73046875,-43.45703125,0.0
1676922419.8185775,-25.87890625,-7.8125,-62.98828125,-59.5703125,0.0
1676922419.8223302,-28.3203125,-18.5546875,-51.26953125,-74.70703125,0.0
1676922419.8260832,-26.85546875,-110.83984375,-67.3828125,-70.80078125,0.0
1676922419.829836,-32.71484375,-12.6953125,-61.5234375,-86.42578125,0.0
1676922419.8335888,-33.69140625,63.4765625,-51.7578125,-95.21484375,0.0
1676922419.8373415,-25.87890625,-52.734375,-63.4765625,-77.63671875,0.0
1676922419.841194,-19.04296875,-97.16796875,-61.03515625,-63.96484375,0.0
1676922419.8450463,-27.34375,15.13671875,-51.7578125,-62.01171875,0.0
1676922419.8488986,-33.203125,50.78125,-47.8515625,-56.640625,0.0
1676922419.852751,-19.53125,-58.59375,-61.03515625,-41.9921875,0.0
1676922419.8566034,-13.671875,-75.1953125,-57.6171875,-35.15625,0.0
1676922419.8604555,-13.671875,-6.8359375,-41.9921875,-22.94921875,0.0
1676922419.8643079,-1.953125,-0.9765625,-39.0625,-19.53125,0.0
1676922419.8681602,-0.9765625,-67.3828125,-42.96875,-24.90234375,0.0
1676922419.8720126,-15.13671875,-66.40625,-41.9921875,-34.1796875,0.0
1676922419.875865,-21.97265625,74.21875,-20.99609375,-46.38671875,0.0
1676922419.8797174,-27.83203125,21.484375,-24.90234375,-46.875,0.0
1676922419.8835697,-22.94921875,-36.1328125,-27.83203125,-50.78125,0.0
1676922419.8872173,-12.20703125,4.8828125,-20.5078125,-49.31640625,0.0
1676922419.8908648,-12.20703125,26.85546875,-23.4375,-48.828125,0.0
1676922419.8945122,0.0,-23.92578125,-24.4140625,-42.48046875,0.0
1676922419.8981597,3.41796875,-42.96875,-22.4609375,-41.9921875,0.0
1676922419.9018073,-0.48828125,20.5078125,-10.7421875,-47.36328125,0.0
1676922419.9054549,-0.9765625,-6.34765625,-19.53125,-48.828125,0.0
1676922419.9091024,0.0,-2.9296875,-20.01953125,-44.43359375,0.0
1676922419.91275,8.7890625,-86.9140625,-27.83203125,-30.2734375,0.0
1676922419.9163976,8.30078125,-31.25,-20.01953125,-24.90234375,0.0
1676922419.920045,4.8828125,137.20703125,15.625,-38.0859375,0.0
1676922419.9236925,9.27734375,39.0625,2.44140625,-29.296875,0.0
1676922419.92734,6.34765625,9.765625,-8.7890625,-8.7890625,0.0
1676922419.9310899,4.39453125,52.734375,-0.48828125,-1.46484375,0.0
1676922419.9348397,3.41796875,48.828125,-7.8125,-8.30078125,0.0
1676922419.9385896,-0.48828125,-16.11328125,-31.73828125,-30.76171875,0.0
1676922419.9423394,-9.765625,-10.25390625,-21.484375,-37.109375,0.0
1676922419.9460893,-20.01953125,20.5078125,-15.13671875,-37.109375,0.0
1676922419.949839,-24.4140625,-24.4140625,-34.66796875,-54.6875,0.0
1676922419.9535887,-21.484375,-105.95703125,-51.7578125,-68.359375,0.0
1676922419.9573386,-26.85546875,-112.79296875,-48.33984375,-79.58984375,0.0
1676922419.9610884,-39.55078125,74.21875,-19.53125,-111.328125,0.0
1676922419.9648383,-30.2734375,64.94140625,-25.390625,-135.7421875,0.0
1676922419.968588,-21.484375,-38.57421875,-41.50390625,-149.4140625,0.0
1676922419.972338,-18.5546875,0.9765625,-44.43359375,-156.25,0.0
1676922419.9760594,-28.80859375,66.40625,-36.1328125,-174.8046875,0.0
1676922419.9797807,-27.83203125,7.8125,-35.15625,-177.24609375,0.0
1676922419.9835021,-28.80859375,-34.66796875,-42.96875,-168.45703125,0.0
1676922419.9872234,-37.109375,25.87890625,-36.1328125,-162.109375,0.0
1676922419.9909449,-26.85546875,31.25,-26.85546875,-148.92578125,0.0
1676922419.994666,-29.296875,-32.71484375,-31.25,-151.85546875,0.0
1676922419.9983876,-32.71484375,-101.5625,-41.9921875,-147.94921875,0.0
1676922420.002109,-33.69140625,7.32421875,-19.53125,-158.203125,0.0
1676922420.0058303,-28.3203125,100.5859375,-12.20703125,-159.66796875,0.0
1676922420.0095518,-21.484375,-15.625,-37.59765625,-141.11328125,0.0
1676922420.013273,-25.87890625,-21.97265625,-40.52734375,-136.23046875,0.0
1676922420.0169945,-20.5078125,55.6640625,-30.76171875,-138.671875,0.0
1676922420.0207894,-1.953125,34.66796875,-27.83203125,-124.51171875,0.0
1676922420.0245843,-0.48828125,-48.828125,-46.875,-113.76953125,0.0
1676922420.0283794,-10.25390625,-53.22265625,-60.05859375,-109.375,0.0
1676922420.0321743,-4.8828125,16.6015625,-37.109375,-96.6796875,0.0
1676922420.0359693,5.859375,2.9296875,-26.3671875,-87.40234375,0.0
1676922420.0397644,10.25390625,-122.55859375,-37.59765625,-65.4296875,0.0
1676922420.0435593,4.39453125,-95.21484375,-31.73828125,-56.15234375,0.0
1676922420.0473542,-12.20703125,60.546875,-16.11328125,-59.08203125,0.0
1676922420.0511491,-4.8828125,25.390625,-18.5546875,-32.2265625,0.0
1676922420.054944,7.8125,-64.453125,-25.87890625,-14.16015625,0.0
1676922420.0587392,2.44140625,-30.2734375,-26.3671875,-14.16015625,0.0
1676922420.062534,-2.9296875,10.25390625,-24.4140625,-14.6484375,0.0
1676922420.0675182,-6.34765625,-41.9921875,-41.50390625,-23.92578125,0.0
1676922420.0725026,-20.5078125,-92.28515625,-54.19921875,-25.87890625,0.0
1676922420.0774868,-27.34375,-17.578125,-41.9921875,-26.85546875,0.0
1676922420.082471,-23.92578125,59.08203125,-41.9921875,-30.76171875,0.0
1676922420.0874553,-17.578125,-12.6953125,-47.36328125,-20.99609375,0.0
1676922420.0924394,-5.37109375,-62.01171875,-46.38671875,-15.625,0.0
1676922420.0974236,-0.48828125,4.8828125,-37.59765625,-17.08984375,0.0
1676922420.102408,7.32421875,69.3359375,-19.04296875,-14.16015625,0.0
1676922420.107392,6.34765625,3.90625,-22.4609375,-20.5078125,0.0
1676922420.1123762,-5.37109375,-52.24609375,-31.73828125,-9.765625,0.0
1676922420.1173606,-19.04296875,51.7578125,-27.34375,-9.765625,0.0
1676922420.1223447,-22.94921875,73.2421875,-27.83203125,-13.671875,0.0
1676922420.1273203,-12.6953125,-19.53125,-33.69140625,-6.8359375,0.0
1676922420.132296,-7.8125,-8.30078125,-28.80859375,-7.8125,0.0
1676922420.137272,-14.16015625,32.71484375,-18.06640625,-6.34765625,0.0
1676922420.1422474,-9.27734375,0.0,-22.4609375,3.41796875,0.0
1676922420.147223,1.46484375,-45.8984375,-27.34375,16.6015625,0.0
1676922420.1521988,-2.9296875,-52.24609375,-24.90234375,5.859375,0.0
1676922420.1571746,-14.6484375,48.33984375,-26.3671875,-6.34765625,0.0
1676922420.1621501,-19.04296875,73.73046875,-34.66796875,-14.16015625,0.0
1676922420.1671257,-20.01953125,-87.890625,-54.6875,-23.4375,0.0
1676922420.1721015,-26.85546875,-89.84375,-58.59375,-26.3671875,0.0
1676922420.1770773,-29.296875,87.890625,-32.2265625,-27.83203125,0.0
1676922420.1820529,-22.4609375,51.26953125,-25.390625,-1.953125,0.0
1676922420.1845737,-23.4375,-3.41796875,-37.109375,3.90625,0.0
1676922420.1870942,-23.4375,23.92578125,-43.9453125,-4.8828125,0.0
1676922420.189615,-28.3203125,43.45703125,-44.43359375,-1.953125,0.0
1676922420.1921356,-32.71484375,-9.27734375,-54.6875,1.953125,0.0
1676922420.1946564,-20.01953125,-36.1328125,-52.734375,3.41796875,0.0
1676922420.197177,-18.06640625,-10.25390625,-42.48046875,-2.44140625,0.0
1676922420.1996977,-24.4140625,8.30078125,-39.55078125,-5.37109375,0.0
1676922420.2022185,-20.99609375,7.32421875,-32.71484375,6.8359375,0.0
1676922420.204739,-20.99609375,32.71484375,-25.87890625,11.23046875,0.0
1676922420.20726,-28.80859375,83.49609375,-25.390625,-6.8359375,0.0
1676922420.2097805,-28.3203125,66.40625,-25.87890625,-27.83203125,0.0
1676922420.2123013,-20.01953125,5.37109375,-30.76171875,-19.04296875,0.0
1676922420.2160482,-10.7421875,-127.44140625,-52.24609375,-0.9765625,0.0
1676922420.2197955,-20.01953125,-1.953125,-38.57421875,-16.6015625,0.0
1676922420.2235425,-21.484375,111.328125,-27.83203125,-28.3203125,0.0
1676922420.2272897,-11.71875,7.8125,-38.57421875,-20.5078125,0.0
1676922420.2310367,-11.71875,1.46484375,-41.015625,-26.3671875,0.0
1676922420.2347836,-7.32421875,0.0,-40.0390625,-27.83203125,0.0
1676922420.2385309,-2.44140625,17.08984375,-35.64453125,-22.94921875,0.0
1676922420.2422779,-9.27734375,-31.73828125,-50.78125,-24.90234375,0.0
1676922420.246025,-26.3671875,-29.296875,-58.59375,-32.71484375,0.0
1676922420.249772,-32.71484375,63.96484375,-40.0390625,-42.96875,0.0
1676922420.2535193,-29.78515625,78.61328125,-28.3203125,-49.31640625,0.0
1676922420.2572663,-20.5078125,-48.33984375,-48.33984375,-34.1796875,0.0
1676922420.2610278,-19.53125,-43.9453125,-46.875,-19.53125,0.0
1676922420.264789,-15.625,123.53515625,-14.6484375,-29.296875,0.0
1676922420.2685506,-7.32421875,69.3359375,-19.04296875,-20.99609375,0.0
1676922420.272312,-16.11328125,33.203125,-28.80859375,-18.06640625,0.0
1676922420.2760735,-11.71875,46.875,-22.94921875,-25.87890625,0.0
1676922420.2798347,-13.18359375,1.953125,-26.85546875,-30.76171875,0.0
1676922420.2835963,-22.4609375,-22.94921875,-31.25,-39.55078125,0.0
1676922420.2873578,-24.90234375,-60.05859375,-40.52734375,-50.29296875,0.0
1676922420.291119,-22.4609375,34.66796875,-29.78515625,-61.03515625,0.0
1676922420.2948806,-8.30078125,118.65234375,-9.27734375,-59.08203125,0.0
1676922420.298642,-2.9296875,22.4609375,-18.06640625,-52.24609375,0.0
1676922420.3024035,-3.41796875,-32.71484375,-24.4140625,-51.26953125,0.0
1676922420.3062344,-11.71875,18.5546875,-22.94921875,-62.98828125,0.0
1676922420.3100653,-20.01953125,83.984375,-18.06640625,-77.1484375,0.0
1676922420.313896,-15.13671875,-12.6953125,-29.78515625,-75.68359375,0.0
1676922420.3177269,-17.578125,-49.31640625,-42.48046875,-65.4296875,0.0
1676922420.3215578,-15.625,38.0859375,-33.203125,-66.40625,0.0
1676922420.3253884,7.8125,6.34765625,-25.390625,-57.6171875,0.0
1676922420.3292193,20.99609375,-83.984375,-30.76171875,-33.203125,0.0
1676922420.3330503,7.8125,-40.0390625,-31.25,-29.296875,0.0
1676922420.3368812,-6.34765625,101.07421875,-27.83203125,-45.41015625,0.0
1676922420.340712,-1.953125,59.08203125,-30.2734375,-27.34375,0.0
1676922420.3445427,-12.6953125,-1.953125,-35.15625,-30.2734375,0.0
1676922420.3483737,-20.99609375,30.2734375,-28.3203125,-43.45703125,0.0
1676922420.3520374,-15.13671875,62.98828125,-30.76171875,-38.0859375,0.0
1676922420.3557014,-10.25390625,19.04296875,-38.57421875,-35.15625,0.0
1676922420.3593652,-2.44140625,-30.76171875,-33.69140625,-23.92578125,0.0
1676922420.363029,-14.6484375,13.18359375,-33.69140625,-35.15625,0.0
1676922420.3666928,-27.34375,40.0390625,-22.94921875,-43.45703125,0.0
1676922420.3703566,-15.13671875,-10.7421875,-25.390625,-36.1328125,0.0
1676922420.3740206,-3.90625,-107.421875,-41.015625,-18.5546875,0.0
1676922420.3776844,-12.20703125,-33.69140625,-27.83203125,-17.578125,0.0
1676922420.3813481,-22.94921875,128.41796875,-9.27734375,-38.57421875,0.0
1676922420.3850121,-10.25390625,48.33984375,-22.4609375,-42.96875,0.0
1676922420.388676,-2.9296875,-15.625,-21.484375,-38.0859375,0.0
1676922420.3923397,-14.16015625,16.6015625,-7.8125,-26.3671875,0.0
1676922420.3960972,-17.08984375,60.546875,-8.30078125,-38.57421875,0.0
1676922420.3998547,-14.16015625,1.46484375,-16.6015625,-48.828125,0.0
1676922420.4036121,-21.97265625,-31.73828125,-17.578125,-44.43359375,0.0
1676922420.4073696,-22.94921875,34.1796875,-11.23046875,-38.0859375,0.0
1676922420.411127,-22.4609375,5.859375,-18.5546875,-35.64453125,0.0
1676922420.4148846,-26.85546875,-115.234375,-44.921875,-34.66796875,0.0
1676922420.4186418,-24.90234375,-110.3515625,-42.96875,-24.4140625,0.0
1676922420.4223993,-22.94921875,24.4140625,-21.484375,-19.04296875,0.0
1676922420.4261568,-21.484375,50.78125,-25.87890625,-22.4609375,0.0
1676922420.4299142,-12.6953125,-106.4453125,-48.828125,-18.5546875,0.0
1676922420.4336717,-2.9296875,-76.171875,-41.9921875,-14.16015625,0.0
1676922420.4374292,4.39453125,90.33203125,-16.11328125,-19.53125,0.0
1676922420.4424214,5.37109375,25.390625,-16.6015625,-7.32421875,0.0
1676922420.4474137,-11.71875,-18.06640625,-33.203125,-10.25390625,0.0
1676922420.452406,-20.5078125,-0.48828125,-41.015625,-31.25,0.0
1676922420.4573982,-10.25390625,26.85546875,-28.80859375,-28.80859375,0.0
1676922420.4623904,-8.30078125,3.90625,-28.3203125,-22.4609375,0.0
1676922420.4673824,-10.7421875,-67.3828125,-39.55078125,-18.5546875,0.0
1676922420.4723747,-14.16015625,-2.44140625,-26.3671875,-26.85546875,0.0
1676922420.477367,-11.23046875,63.96484375,-21.484375,-31.73828125,0.0
1676922420.4823592,-5.37109375,-3.41796875,-43.9453125,-21.97265625,0.0
1676922420.4873514,-9.27734375,-116.69921875,-47.8515625,-15.13671875,0.0
1676922420.4923437,-18.06640625,7.8125,-16.6015625,-35.15625,0.0
1676922420.497336,-18.5546875,118.1640625,-12.20703125,-41.50390625,0.0
1676922420.5010862,-15.13671875,-0.9765625,-37.109375,-27.83203125,0.0
1676922420.5048366,-14.6484375,-14.6484375,-38.0859375,-28.3203125,0.0
1676922420.508587,-12.20703125,52.734375,-15.625,-22.94921875,0.0
1676922420.5123372,-10.25390625,34.66796875,-20.5078125,-25.87890625,0.0
1676922420.5160875,-9.27734375,-47.36328125,-56.15234375,-33.69140625,0.0
1676922420.5198379,-4.8828125,-85.44921875,-55.6640625,-28.3203125,0.0
1676922420.5235884,-23.4375,-11.23046875,-34.66796875,-40.52734375,0.0
1676922420.5273387,-31.73828125,57.6171875,-25.87890625,-43.45703125,0.0
1676922420.531089,-19.04296875,-85.44921875,-44.921875,-12.6953125,0.0
1676922420.5348394,-18.06640625,-97.65625,-39.55078125,-12.20703125,0.0
1676922420.5385897,-22.94921875,67.87109375,-9.27734375,-32.71484375,0.0
1676922420.54234,-22.4609375,-8.7890625,-19.04296875,-37.109375,0.0
1676922420.5460896,-19.04296875,-76.66015625,-27.34375,-37.59765625,0.0
1676922420.5498393,-17.578125,15.625,-4.8828125,-46.875,0.0
1676922420.5535889,-23.4375,61.5234375,1.46484375,-57.6171875,0.0
1676922420.5573385,-19.53125,-11.23046875,-10.7421875,-47.36328125,0.0
1676922420.561088,5.859375,-27.34375,-7.32421875,-19.53125,0.0
1676922420.564838,8.30078125,-20.5078125,-7.32421875,1.953125,0.0
1676922420.5685875,-5.37109375,11.71875,-6.8359375,-19.04296875,0.0
1676922420.5723372,-7.32421875,9.27734375,-19.04296875,-43.45703125,0.0
1676922420.5760868,-5.859375,-101.5625,-36.1328125,-41.015625,0.0
1676922420.5798364,0.9765625,10.7421875,-8.7890625,-38.0859375,0.0
1676922420.583586,9.765625,87.890625,2.44140625,-35.15625,0.0
1676922420.5873356,3.90625,-15.625,-21.97265625,-40.52734375,0.0
1676922420.592337,-9.765625,-14.6484375,-28.80859375,-51.7578125,0.0
1676922420.5973382,-11.23046875,19.53125,-21.97265625,-45.41015625,0.0
1676922420.6023395,-7.8125,-24.4140625,-19.53125,-45.8984375,0.0
1676922420.6073408,-12.6953125,-89.84375,-33.69140625,-52.734375,0.0
1676922420.6123421,-26.85546875,-78.125,-44.921875,-58.10546875,0.0
1676922420.6173434,-30.2734375,-20.5078125,-36.62109375,-64.453125,0.0
1676922420.622345,-20.5078125,-20.99609375,-31.25,-56.640625,0.0
1676922420.6273463,-16.6015625,-92.28515625,-45.8984375,-40.0390625,0.0
1676922420.6323476,-20.99609375,-68.359375,-39.55078125,-39.0625,0.0
1676922420.637349,-24.90234375,68.84765625,-22.94921875,-55.6640625,0.0
1676922420.6423502,-18.06640625,16.6015625,-42.48046875,-57.12890625,0.0
1676922420.6473515,-14.6484375,-54.19921875,-47.36328125,-63.4765625,0.0
1676922420.6498437,-17.578125,-3.90625,-34.66796875,-71.2890625,0.0
1676922420.6523361,-25.87890625,23.4375,-34.1796875,-69.3359375,0.0
1676922420.6548283,-21.97265625,-23.92578125,-34.1796875,-57.6171875,0.0
1676922420.6573205,-25.390625,-30.76171875,-36.1328125,-43.45703125,0.0
1676922420.659813,-27.83203125,-21.484375,-34.1796875,-25.87890625,0.0
1676922420.662305,-19.53125,-53.7109375,-32.2265625,-28.3203125,0.0
1676922420.6647973,-13.671875,-57.6171875,-33.203125,-27.83203125,0.0
1676922420.6672897,-8.7890625,-30.76171875,-30.76171875,-20.01953125,0.0
1676922420.669782,-9.27734375,34.66796875,-17.578125,-34.66796875,0.0
1676922420.672274,-21.484375,30.2734375,-28.80859375,-53.22265625,0.0
1676922420.6747665,-14.6484375,-31.25,-39.0625,-42.48046875,0.0
1676922420.6772587,-3.41796875,-162.109375,-58.59375,-20.01953125,0.0
1676922420.6810043,-23.92578125,-42.48046875,-51.26953125,-38.57421875,0.0
1676922420.6847498,-26.3671875,93.75,-24.90234375,-57.12890625,0.0
1676922420.6884954,-13.671875,-23.4375,-35.15625,-53.7109375,0.0
1676922420.692241,-12.6953125,-23.92578125,-33.203125,-44.921875,0.0
1676922420.6959865,-12.20703125,13.18359375,-28.3203125,-31.73828125,0.0
1676922420.6997323,-14.6484375,-34.1796875,-38.0859375,-32.71484375,0.0
1676922420.7034779,-4.39453125,-111.81640625,-40.52734375,-23.92578125,0.0
1676922420.7072234,0.9765625,-75.1953125,-26.85546875,-1.953125,0.0
1676922420.710969,-10.7421875,37.109375,-23.92578125,-7.8125,0.0
1676922420.7147145,-6.34765625,30.2734375,-25.390625,-6.34765625,0.0
1676922420.71846,0.9765625,-33.69140625,-17.08984375,0.48828125,0.0
1676922420.7222056,0.48828125,0.48828125,-7.32421875,-7.32421875,0.0
1676922420.7259603,0.48828125,66.40625,-9.765625,-21.484375,0.0
1676922420.7297149,1.46484375,14.6484375,-14.16015625,-27.34375,0.0
1676922420.7334695,-2.44140625,-16.6015625,-11.71875,-32.2265625,0.0
1676922420.737224,-0.9765625,23.4375,0.9765625,-42.48046875,0.0
1676922420.7409787,5.37109375,23.92578125,-6.34765625,-53.7109375,0.0
1676922420.7447333,5.859375,-56.640625,-21.484375,-73.73046875,0.0
1676922420.7484877,0.48828125,-110.83984375,-19.53125,-95.21484375,0.0
1676922420.7522423,-5.859375,0.0,-4.8828125,-121.09375,0.0
1676922420.755997,3.41796875,70.80078125,7.8125,-131.8359375,0.0
1676922420.7597516,10.7421875,-15.13671875,-12.20703125,-126.953125,0.0
1676922420.7635062,7.8125,-25.390625,-21.97265625,-127.9296875,0.0
1676922420.7672608,8.7890625,0.9765625,-17.08984375,-119.62890625,0.0
1676922420.7711186,7.8125,54.6875,-11.71875,-118.1640625,0.0
1676922420.7749763,7.8125,12.6953125,-19.04296875,-127.9296875,0.0
1676922420.778834,-1.46484375,-32.2265625,-24.90234375,-125.48828125,0.0
1676922420.7826917,-20.01953125,63.4765625,-13.671875,-132.32421875,0.0
1676922420.7865496,-12.6953125,61.03515625,-10.7421875,-127.44140625,0.0
1676922420.7904072,1.953125,-41.015625,-19.53125,-109.86328125,0.0
1676922420.794265,-0.9765625,-16.6015625,-23.4375,-110.83984375,0.0
1676922420.798123,-13.671875,107.421875,-15.625,-122.0703125,0.0
1676922420.8019805,-21.484375,62.5,-23.4375,-121.09375,0.0
1676922420.8058383,-11.71875,-28.80859375,-34.1796875,-106.93359375,0.0
1676922420.809696,-0.48828125,-18.06640625,-38.57421875,-100.09765625,0.0
1676922420.8135538,-1.46484375,42.48046875,-38.57421875,-101.5625,0.0
1676922420.8184965,-3.41796875,23.4375,-42.48046875,-98.6328125,0.0
1676922420.8234391,-5.37109375,-16.6015625,-46.875,-86.42578125,0.0
1676922420.8283818,-1.953125,1.953125,-40.52734375,-55.17578125,0.0
1676922420.8333244,1.953125,54.19921875,-25.87890625,-41.50390625,0.0
1676922420.838267,1.953125,39.0625,-28.3203125,-43.9453125,0.0
1676922420.8432097,4.8828125,-110.83984375,-47.8515625,-10.7421875,0.0
1676922420.8481524,-11.23046875,-44.43359375,-37.59765625,-8.30078125,0.0
1676922420.853095,-10.7421875,130.859375,-7.8125,-11.23046875,0.0
1676922420.8580377,-4.8828125,19.53125,-19.53125,-6.34765625,0.0
1676922420.8629804,-5.859375,-11.23046875,-28.3203125,-9.27734375,0.0
1676922420.867923,-1.46484375,80.078125,-22.94921875,9.27734375,0.0
1676922420.8728657,4.39453125,68.84765625,-25.87890625,22.4609375,0.0
1676922420.8765647,9.765625,-5.859375,-33.69140625,21.97265625,0.0
1676922420.8802636,-4.39453125,-8.30078125,-43.9453125,14.16015625,0.0
1676922420.8839626,-5.859375,43.45703125,-31.73828125,16.6015625,0.0
1676922420.8876617,1.46484375,28.3203125,-27.83203125,21.484375,0.0
1676922420.8913605,4.8828125,-27.83203125,-38.57421875,19.04296875,0.0
1676922420.8950596,10.25390625,-43.9453125,-41.9921875,16.11328125,0.0
1676922420.8987586,11.23046875,2.44140625,-39.0625,21.97265625,0.0
1676922420.9024575,5.859375,55.17578125,-24.90234375,18.06640625,0.0
1676922420.9061565,12.6953125,-47.8515625,-22.94921875,23.92578125,0.0
1676922420.9098556,11.71875,-160.64453125,-33.203125,37.109375,0.0
1676922420.9135544,10.25390625,54.6875,-0.48828125,38.0859375,0.0
1676922420.9172535,22.4609375,104.98046875,6.8359375,33.203125,0.0
1676922420.921011,20.5078125,20.5078125,-9.765625,39.0625,0.0
1676922420.9247684,13.671875,50.78125,-0.9765625,34.1796875,0.0
1676922420.9285257,13.18359375,47.36328125,-0.9765625,27.83203125,0.0
1676922420.9322832,12.6953125,19.04296875,-8.7890625,38.57421875,0.0
1676922420.9360406,2.44140625,-15.13671875,-17.08984375,41.9921875,0.0
1676922420.9397979,-0.9765625,-23.92578125,-10.25390625,42.96875,0.0
1676922420.9435554,-4.8828125,19.53125,-0.48828125,32.2265625,0.0
1676922420.9473128,-7.32421875,26.3671875,-3.41796875,23.92578125,0.0
1676922420.9510703,0.0,-119.62890625,-31.73828125,44.921875,0.0
1676922420.9548278,-11.71875,-53.7109375,-38.57421875,20.99609375,0.0
1676922420.958585,-24.90234375,98.6328125,-14.16015625,-14.6484375,0.0
1676922420.9623425,-21.97265625,13.671875,-23.92578125,0.9765625,0.0
1676922420.966092,-24.90234375,-17.578125,-29.78515625,13.18359375,0.0
1676922420.9698415,-25.390625,24.4140625,-22.4609375,9.27734375,0.0
1676922420.973591,-24.4140625,2.9296875,-28.80859375,4.39453125,0.0
1676922420.9773405,-8.30078125,-39.0625,-27.34375,15.625,0.0
1676922420.98109,4.39453125,-37.109375,-21.484375,14.6484375,0.0
1676922420.9848394,-7.32421875,-45.41015625,-23.4375,5.37109375,0.0
1676922420.988589,-11.23046875,-33.69140625,-20.01953125,1.46484375,0.0
1676922420.9923387,-3.41796875,-87.40234375,-28.3203125,-0.9765625,0.0
1676922420.996088,-13.18359375,-73.2421875,-32.2265625,-2.44140625,0.0
1676922420.9998376,-22.94921875,76.171875,-12.20703125,-18.5546875,0.0
1676922421.003587,-11.71875,10.7421875,-17.578125,-20.99609375,0.0
1676922421.0073366,-5.37109375,-61.5234375,-25.390625,-15.625,0.0
1676922421.0110865,-8.30078125,21.484375,-0.9765625,-18.5546875,0.0
1676922421.0148363,-7.32421875,80.078125,10.25390625,-15.13671875,0.0
1676922421.0185862,-6.34765625,7.8125,-4.39453125,-9.765625,0.0
1676922421.0223362,4.39453125,-6.34765625,-0.48828125,-13.18359375,0.0
1676922421.026086,5.37109375,37.59765625,3.41796875,-11.23046875,0.0
1676922421.029836,-6.34765625,-5.37109375,-19.04296875,-21.484375,0.0
1676922421.0335858,-11.71875,-23.92578125,-18.5546875,-29.78515625,0.0
1676922421.0373356,-18.06640625,-60.05859375,-15.625,-11.71875,0.0
1676922421.0410857,-19.04296875,28.80859375,0.48828125,-6.34765625,0.0
1676922421.0448356,-19.53125,104.98046875,11.23046875,-17.578125,0.0
1676922421.0485854,-19.04296875,9.765625,-16.11328125,-17.08984375,0.0
1676922421.0523353,-17.08984375,-1.953125,-17.578125,-17.578125,0.0
1676922421.056189,-16.6015625,36.62109375,-6.34765625,-26.85546875,0.0
1676922421.0600426,-12.6953125,-8.7890625,-26.3671875,-31.25,0.0
1676922421.0638964,-4.8828125,-91.30859375,-40.52734375,-28.3203125,0.0
1676922421.06775,-5.859375,-57.6171875,-23.4375,-36.1328125,0.0
1676922421.0716038,-3.41796875,39.55078125,-19.53125,-54.6875,0.0
1676922421.0754576,-5.859375,-10.25390625,-36.62109375,-56.640625,0.0
1676922421.0793111,-9.765625,-111.81640625,-32.71484375,-47.36328125,0.0
1676922421.083165,-8.30078125,-70.80078125,-20.99609375,-45.41015625,0.0
1676922421.0870185,-11.23046875,88.8671875,-3.90625,-59.08203125,0.0
1676922421.0908723,-0.48828125,55.6640625,-0.9765625,-44.43359375,0.0
1676922421.0947258,5.859375,-10.7421875,-5.859375,-31.25,0.0
1676922421.0985796,8.7890625,23.92578125,1.46484375,-30.76171875,0.0
1676922421.102243,11.23046875,64.94140625,-1.46484375,-35.64453125,0.0
1676922421.1059062,9.27734375,22.94921875,-14.6484375,-35.15625,0.0
1676922421.1095695,3.41796875,-5.37109375,-5.37109375,-25.390625,0.0
1676922421.1132326,-4.39453125,22.94921875,9.27734375,-21.484375,0.0
1676922421.116896,-7.32421875,-10.25390625,1.46484375,-23.92578125,0.0
1676922421.1205592,-10.7421875,-27.34375,-6.8359375,-28.3203125,0.0
1676922421.1242225,-8.7890625,-120.60546875,-35.15625,-6.8359375,0.0
1676922421.1278858,-14.6484375,-61.03515625,-30.76171875,-14.6484375,0.0
1676922421.131549,-12.6953125,95.703125,0.9765625,-45.41015625,0.0
1676922421.1352122,-3.90625,1.953125,-3.41796875,-41.015625,0.0
1676922421.1388755,0.9765625,-15.625,-2.9296875,-31.25,0.0
1676922421.1425388,0.0,48.33984375,-2.44140625,-37.109375,0.0
1676922421.1462798,-10.7421875,39.0625,-12.6953125,-46.38671875,0.0
1676922421.150021,-1.953125,-33.69140625,-17.578125,-33.69140625,0.0
1676922421.153762,3.90625,-34.1796875,-14.16015625,-26.3671875,0.0
1676922421.1575031,-3.41796875,27.34375,-13.18359375,-34.1796875,0.0
1676922421.1612442,-1.46484375,11.71875,-18.06640625,-36.62109375,0.0
1676922421.1649852,3.41796875,-110.83984375,-34.1796875,-20.01953125,0.0
1676922421.1687264,-6.8359375,-91.30859375,-26.85546875,-11.71875,0.0
1676922421.1724675,-9.765625,25.87890625,-17.08984375,-13.18359375,0.0
1676922421.1762085,-15.625,17.08984375,-23.4375,-18.06640625,0.0
1676922421.1799498,-14.6484375,-72.75390625,-28.3203125,-14.6484375,0.0
1676922421.1836908,-13.671875,-60.546875,-32.71484375,-22.4609375,0.0
1676922421.1874318,-21.97265625,60.05859375,-22.94921875,-39.55078125,0.0
1676922421.1914253,-5.37109375,2.9296875,-22.94921875,-20.01953125,0.0
1676922421.1954188,-0.9765625,-19.04296875,-17.578125,-12.20703125,0.0
1676922421.1994123,-16.11328125,9.765625,-21.484375,-26.85546875,0.0
1676922421.203406,-21.97265625,10.25390625,-30.76171875,-33.69140625,0.0
1676922421.2073996,-10.25390625,-34.1796875,-30.76171875,-28.3203125,0.0
1676922421.211393,-3.90625,-73.2421875,-33.69140625,-23.92578125,0.0
1676922421.2153866,-16.11328125,2.9296875,-32.71484375,-27.34375,0.0
1676922421.2193801,-13.671875,48.33984375,-29.78515625,-22.94921875,0.0
1676922421.223374,0.0,-30.2734375,-35.15625,-18.06640625,0.0
1676922421.2273674,-4.39453125,-57.6171875,-42.96875,-24.90234375,0.0
1676922421.231361,-11.71875,-11.71875,-41.9921875,-30.2734375,0.0
1676922421.2353544,-7.32421875,-20.5078125,-47.36328125,-31.73828125,0.0
1676922421.2401032,4.39453125,-58.59375,-49.31640625,-17.08984375,0.0
1676922421.244852,0.48828125,-31.25,-39.0625,-12.6953125,0.0
1676922421.2496006,-16.11328125,25.87890625,-32.71484375,-27.83203125,0.0
1676922421.2543495,-13.671875,25.390625,-32.71484375,-29.78515625,0.0
1676922421.2590983,-1.953125,-38.57421875,-43.9453125,-1.953125,0.0
1676922421.2638469,-0.9765625,-188.96484375,-61.5234375,25.87890625,0.0
1676922421.2685957,-12.20703125,-18.06640625,-36.62109375,1.953125,0.0
1676922421.2733445,-13.18359375,111.328125,-20.5078125,-20.99609375,0.0
1676922421.2780933,-6.8359375,-31.73828125,-41.015625,-13.18359375,0.0
1676922421.2828422,-9.765625,12.6953125,-39.0625,-11.71875,0.0
1676922421.2875907,-10.25390625,61.03515625,-28.80859375,-9.27734375,0.0
1676922421.2923396,-5.859375,15.13671875,-32.2265625,-9.765625,0.0
1676922421.2961917,-5.37109375,-11.23046875,-21.97265625,-25.87890625,0.0
1676922421.3000438,-8.30078125,-24.90234375,-17.578125,-30.76171875,0.0
1676922421.303896,-13.671875,7.8125,-25.390625,-31.73828125,0.0
1676922421.307748,-11.71875,13.671875,-15.13671875,-29.78515625,0.0
1676922421.3116002,-9.765625,-43.45703125,-13.671875,-20.5078125,0.0
1676922421.3154523,-12.20703125,-39.55078125,-28.80859375,-27.34375,0.0
1676922421.3193045,-12.20703125,11.71875,-27.34375,-33.69140625,0.0
1676922421.3231566,-7.32421875,18.5546875,-15.625,-31.25,0.0
1676922421.3270087,-3.90625,-76.66015625,-21.484375,-24.4140625,0.0
1676922421.3308609,-5.37109375,4.39453125,-4.39453125,-31.25,0.0
1676922421.334713,5.37109375,77.1484375,10.7421875,-26.3671875,0.0
1676922421.338565,7.32421875,-16.6015625,-5.859375,-13.18359375,0.0
1676922421.3422036,0.48828125,-43.9453125,-18.5546875,-21.484375,0.0
1676922421.3458424,6.8359375,21.484375,-15.13671875,-19.04296875,0.0
1676922421.3494809,17.08984375,23.4375,-16.6015625,-20.01953125,0.0
1676922421.3531194,11.23046875,-62.98828125,-35.64453125,-24.90234375,0.0
1676922421.3567579,4.8828125,-99.609375,-43.45703125,-25.390625,0.0
1676922421.3603964,5.859375,-49.8046875,-33.203125,-36.62109375,0.0
1676922421.3640351,2.44140625,-10.25390625,-30.2734375,-39.55078125,0.0
1676922421.3676736,3.41796875,-83.0078125,-41.50390625,-25.390625,0.0
1676922421.3713121,2.9296875,-122.55859375,-41.9921875,-20.01953125,0.0
1676922421.374951,1.46484375,52.734375,-7.8125,-25.87890625,0.0
1676922421.3785894,4.39453125,52.24609375,-14.6484375,-11.71875,0.0
1676922421.382228,5.37109375,-18.06640625,-33.203125,-9.27734375,0.0
1676922421.385995,10.25390625,8.30078125,-15.625,-15.13671875,0.0
1676922421.3897622,-2.9296875,-0.48828125,-15.13671875,-29.78515625,0.0
1676922421.3935292,-4.39453125,-57.12890625,-31.25,-34.66796875,0.0
1676922421.3972964,-2.44140625,-73.73046875,-33.203125,-34.66796875,0.0
1676922421.4010634,-10.25390625,-50.29296875,-31.73828125,-41.50390625,0.0
1676922421.4048305,-8.7890625,-88.37890625,-40.52734375,-39.0625,0.0
1676922421.4085977,-5.859375,-78.61328125,-33.203125,-28.3203125,0.0
1676922421.4123647,-0.9765625,-153.3203125,-39.0625,-13.18359375,0.0
1676922421.416132,-6.8359375,-88.37890625,-36.1328125,-29.296875,0.0
1676922421.419899,-9.27734375,64.453125,-11.71875,-50.29296875,0.0
1676922421.4236662,-5.37109375,-25.87890625,-13.671875,-34.1796875,0.0
1676922421.4274333,-8.30078125,-50.29296875,-20.5078125,-28.3203125,0.0
1676922421.431176,-5.859375,9.765625,-23.4375,-25.390625,0.0
1676922421.4349184,-3.90625,1.46484375,-34.66796875,-31.73828125,0.0
1676922421.438661,-10.7421875,-62.98828125,-47.36328125,-45.41015625,0.0
1676922421.4424036,-10.7421875,-48.33984375,-41.015625,-43.45703125,0.0
1676922421.4461462,-6.34765625,-11.71875,-33.203125,-33.203125,0.0
1676922421.4498887,-10.7421875,-60.546875,-38.0859375,-23.4375,0.0
1676922421.4536314,-25.87890625,-114.74609375,-54.19921875,-22.4609375,0.0
1676922421.457374,-30.76171875,-53.22265625,-49.31640625,-19.53125,0.0
1676922421.4611166,-30.2734375,14.16015625,-32.71484375,-13.671875,0.0
1676922421.4648592,-28.80859375,-12.6953125,-35.15625,-7.32421875,0.0
1676922421.4686017,-16.6015625,-133.7890625,-54.19921875,6.34765625,0.0
1676922421.4723444,-6.8359375,-107.421875,-45.8984375,-0.9765625,0.0
1676922421.4760861,-5.37109375,64.453125,-17.578125,-25.87890625,0.0
1676922421.4798281,-6.34765625,3.41796875,-29.78515625,-34.1796875,0.0
1676922421.4835699,-5.859375,-48.828125,-38.0859375,-33.203125,0.0
1676922421.4873118,-8.7890625,2.44140625,-21.97265625,-35.64453125,0.0
1676922421.4910536,-3.90625,-6.34765625,-25.87890625,-44.43359375,0.0
1676922421.4947953,-9.27734375,-66.40625,-41.50390625,-55.17578125,0.0
1676922421.4985373,-23.4375,-108.3984375,-48.33984375,-68.359375,0.0
1676922421.502279,-27.34375,-30.76171875,-42.96875,-105.95703125,0.0
1676922421.506021,-22.94921875,58.59375,-26.3671875,-113.76953125,0.0
1676922421.5097628,-21.97265625,-12.20703125,-34.1796875,-99.12109375,0.0
1676922421.5135047,-24.4140625,-41.50390625,-37.59765625,-107.91015625,0.0
1676922421.5172465,-21.97265625,8.30078125,-31.25,-111.81640625,0.0
1676922421.5211074,-16.11328125,12.6953125,-21.484375,-101.07421875,0.0
1676922421.5249684,-4.8828125,-80.078125,-25.390625,-94.7265625,0.0
1676922421.5288293,-7.8125,-80.078125,-30.2734375,-99.12109375,0.0
1676922421.5326903,-14.6484375,41.9921875,-14.6484375,-104.98046875,0.0
1676922421.5365512,-10.7421875,29.78515625,-20.01953125,-104.00390625,0.0
1676922421.5404124,-0.9765625,-94.23828125,-40.0390625,-86.9140625,0.0
1676922421.5442734,-12.20703125,-94.23828125,-36.62109375,-89.84375,0.0
1676922421.5481343,-23.4375,38.0859375,-19.04296875,-109.86328125,0.0
1676922421.5519953,-1.953125,34.1796875,-15.625,-90.8203125,0.0
1676922421.5558562,6.34765625,-67.3828125,-34.1796875,-70.80078125,0.0
1676922421.5597172,-1.953125,-53.7109375,-39.55078125,-71.77734375,0.0
1676922421.5635781,0.48828125,42.48046875,-23.4375,-77.63671875,0.0
1676922421.5684812,0.0,8.30078125,-30.2734375,-80.078125,0.0
1676922421.5733843,-6.34765625,-11.23046875,-41.9921875,-66.89453125,0.0
1676922421.5782876,-17.08984375,30.2734375,-44.43359375,-64.453125,0.0
1676922421.5831907,-18.5546875,20.5078125,-43.9453125,-61.03515625,0.0
1676922421.5880938,-11.23046875,-20.5078125,-48.828125,-40.0390625,0.0
1676922421.5929968,-9.27734375,-114.74609375,-54.6875,-10.7421875,0.0
1676922421.5979,-12.6953125,-42.96875,-39.0625,-5.859375,0.0
1676922421.602803,-12.6953125,96.6796875,-13.671875,-16.6015625,0.0
1676922421.607706,-5.859375,2.44140625,-24.90234375,-12.20703125,0.0
1676922421.6126094,-1.46484375,-14.6484375,-27.34375,-3.90625,0.0
1676922421.6175125,-2.44140625,55.6640625,-13.18359375,-5.37109375,0.0
1676922421.6224155,-12.20703125,37.109375,-20.99609375,-8.7890625,0.0
1676922421.626151,-19.04296875,-49.31640625,-35.15625,-0.9765625,0.0
1676922421.6298866,-14.6484375,-62.5,-37.109375,2.44140625,0.0
1676922421.6336222,-22.4609375,20.5078125,-29.296875,-2.44140625,0.0
1676922421.6373577,-19.04296875,20.5078125,-27.83203125,8.30078125,0.0
1676922421.6410933,-6.34765625,-35.64453125,-25.390625,19.04296875,0.0
1676922421.6448288,1.46484375,-61.03515625,-27.34375,13.18359375,0.0
1676922421.648564,4.39453125,-11.71875,-21.97265625,13.18359375,0.0
1676922421.6522996,6.8359375,32.71484375,-19.53125,13.671875,0.0
1676922421.6560352,9.27734375,-66.40625,-41.50390625,13.671875,0.0
1676922421.6597707,-0.48828125,-88.8671875,-38.57421875,18.06640625,0.0
1676922421.6635063,-3.41796875,78.61328125,-15.625,13.671875,0.0
1676922421.6672418,8.7890625,47.8515625,-20.5078125,16.6015625,0.0
1676922421.6710038,4.8828125,15.13671875,-20.5078125,18.06640625,0.0
1676922421.6747658,1.953125,52.734375,-11.71875,13.18359375,0.0
1676922421.6785278,0.0,44.921875,-19.04296875,4.39453125,0.0
1676922421.6822898,3.41796875,1.953125,-27.34375,10.25390625,0.0
1676922421.6860518,10.25390625,-31.25,-31.25,20.5078125,0.0
1676922421.6898136,8.7890625,-34.1796875,-32.71484375,16.11328125,0.0
1676922421.6935756,6.8359375,10.7421875,-20.99609375,14.6484375,0.0
1676922421.6973376,10.7421875,8.30078125,-21.97265625,25.390625,0.0
1676922421.7010996,12.6953125,-61.5234375,-35.64453125,36.1328125,0.0
1676922421.7048616,6.34765625,-1.953125,-21.484375,20.01953125,0.0
1676922421.7086236,1.46484375,45.41015625,-6.8359375,-1.953125,0.0
1676922421.7123857,-2.44140625,4.39453125,-13.18359375,2.44140625,0.0
1676922421.716137,-4.8828125,-13.671875,-16.6015625,6.34765625,0.0
1676922421.719888,-16.11328125,60.05859375,-11.71875,-2.44140625,0.0
1676922421.723639,-14.6484375,39.0625,-20.99609375,-9.27734375,0.0
1676922421.7273903,0.0,-39.55078125,-30.76171875,3.41796875,0.0
1676922421.7311416,1.953125,-45.8984375,-31.73828125,14.16015625,0.0
1676922421.7348926,-5.37109375,-3.90625,-31.73828125,-1.953125,0.0
1676922421.7386436,-9.765625,3.90625,-34.1796875,-8.7890625,0.0
1676922421.742395,-1.953125,-62.5,-38.57421875,-4.39453125,0.0
1676922421.7461462,1.46484375,-46.875,-39.55078125,7.8125,0.0
1676922421.7498972,-7.8125,88.37890625,-30.76171875,3.90625,0.0
1676922421.7536483,-1.953125,26.85546875,-34.1796875,-3.41796875,0.0
1676922421.7573996,0.9765625,-25.390625,-36.62109375,-15.13671875,0.0
1676922421.7612472,2.44140625,-23.92578125,-36.1328125,-15.13671875,0.0
1676922421.7650945,-4.8828125,5.37109375,-32.71484375,-11.23046875,0.0
1676922421.7689419,-10.25390625,14.6484375,-32.71484375,-15.13671875,0.0
1676922421.7727895,-6.34765625,-36.1328125,-38.0859375,-20.99609375,0.0
1676922421.776637,-10.7421875,-3.90625,-33.69140625,-33.203125,0.0
1676922421.7804844,-7.32421875,-9.765625,-30.76171875,-26.85546875,0.0
1676922421.7843318,-11.23046875,-24.90234375,-34.1796875,-24.90234375,0.0
1676922421.7881794,-14.16015625,-66.89453125,-48.828125,-20.99609375,0.0
1676922421.792027,-10.7421875,18.5546875,-39.0625,-3.90625,0.0
1676922421.7958744,-12.6953125,91.30859375,-23.4375,-3.41796875,0.0
1676922421.7997217,-20.01953125,-1.953125,-43.45703125,-24.4140625,0.0
1676922421.8035693,-20.5078125,-13.671875,-55.17578125,-32.71484375,0.0
1676922421.8072207,-20.99609375,44.43359375,-47.8515625,-37.59765625,0.0
1676922421.810872,-24.4140625,41.015625,-44.43359375,-41.50390625,0.0
1676922421.8145235,-13.671875,-22.4609375,-47.36328125,-39.55078125,0.0
1676922421.8181748,-0.9765625,-37.109375,-41.015625,-40.52734375,0.0
1676922421.8218262,1.953125,-0.48828125,-10.7421875,-48.828125,0.0
1676922421.8254776,12.6953125,-0.48828125,20.99609375,-57.6171875,0.0
1676922421.8291292,13.671875,-68.359375,23.92578125,-53.7109375,0.0
1676922421.8327806,1.953125,-87.40234375,23.4375,-47.8515625,0.0
1676922421.836432,-7.32421875,66.40625,49.8046875,-68.84765625,0.0
1676922421.8400834,-1.953125,79.1015625,56.15234375,-66.89453125,0.0
1676922421.8437347,2.44140625,6.8359375,44.43359375,-44.921875,0.0
1676922421.8473861,-2.9296875,49.8046875,42.96875,-46.875,0.0
1676922421.8511305,-1.953125,69.3359375,43.45703125,-52.24609375,0.0
1676922421.8548748,-4.39453125,18.5546875,31.73828125,-50.29296875,0.0
1676922421.8586192,-8.30078125,-0.48828125,25.87890625,-41.9921875,0.0
1676922421.8623636,-7.32421875,38.0859375,30.2734375,-37.109375,0.0
1676922421.866108,-3.90625,11.23046875,18.5546875,-33.203125,0.0
1676922421.8698525,4.39453125,-35.15625,14.6484375,-25.87890625,0.0
1676922421.873597,7.32421875,-86.42578125,12.20703125,-14.6484375,0.0
1676922421.8773413,-4.39453125,-2.44140625,22.4609375,-23.4375,0.0
1676922421.8810856,-15.13671875,95.703125,30.2734375,-40.0390625,0.0
1676922421.88483,-19.53125,-0.48828125,10.7421875,-44.921875,0.0
1676922421.8885744,-17.08984375,-13.671875,7.32421875,-44.921875,0.0
1676922421.8923187,-12.6953125,62.01171875,11.23046875,-40.0390625,0.0
1676922421.8960755,-20.01953125,67.87109375,-1.953125,-46.38671875,0.0
1676922421.8998322,-15.13671875,-24.4140625,-20.01953125,-45.8984375,0.0
1676922421.903589,-3.90625,-56.15234375,-18.5546875,-35.64453125,0.0
1676922421.9073458,-6.8359375,45.8984375,-1.953125,-36.62109375,0.0
1676922421.9111025,-0.9765625,52.24609375,-2.44140625,-36.1328125,0.0
1676922421.9148593,7.32421875,-64.94140625,-21.484375,-20.01953125,0.0
1676922421.9186158,7.32421875,-62.5,-23.4375,-12.20703125,0.0
1676922421.9223726,3.41796875,77.63671875,-1.46484375,-20.5078125,0.0
1676922421.9261293,7.32421875,39.0625,-0.48828125,-27.83203125,0.0
1676922421.929886,17.578125,-82.03125,-12.20703125,-18.06640625,0.0
1676922421.9336429,15.13671875,-32.71484375,-9.765625,-19.04296875,0.0
1676922421.9373996,3.41796875,62.01171875,-1.953125,-20.5078125,0.0
1676922421.9423978,-1.46484375,2.44140625,-13.671875,-2.44140625,0.0
1676922421.9473963,0.0,-29.78515625,-22.94921875,1.953125,0.0
1676922421.9523945,-3.41796875,23.4375,-12.20703125,-9.27734375,0.0
1676922421.9573927,-2.44140625,37.109375,-9.765625,-19.04296875,0.0
1676922421.962391,-4.39453125,-14.6484375,-24.90234375,-23.4375,0.0
1676922421.967389,-10.7421875,-82.03125,-36.62109375,-30.76171875,0.0
1676922421.9723876,-12.6953125,-41.50390625,-21.484375,-36.1328125,0.0
1676922421.9773858,-12.20703125,36.62109375,-6.34765625,-28.3203125,0.0
1676922421.982384,-10.7421875,-12.6953125,-17.578125,-24.90234375,0.0
1676922421.9873824,-15.625,-78.61328125,-32.2265625,-28.3203125,0.0
1676922421.9923806,-26.3671875,11.23046875,-26.3671875,-39.0625,0.0
1676922421.9973788,-19.04296875,49.31640625,-28.3203125,-40.52734375,0.0
1676922422.002378,-4.39453125,-53.22265625,-41.9921875,-25.87890625,0.0
1676922422.0073771,-3.41796875,-56.15234375,-37.59765625,-31.73828125,0.0
1676922422.012376,-20.99609375,34.66796875,-28.3203125,-43.45703125,0.0
1676922422.0173752,-29.78515625,28.80859375,-27.34375,-52.24609375,0.0
1676922422.0223744,-21.484375,-67.3828125,-34.66796875,-42.96875,0.0
1676922422.0273733,-20.01953125,-112.3046875,-38.57421875,-35.64453125,0.0
1676922422.0323725,-37.59765625,-11.23046875,-30.2734375,-52.24609375,0.0
1676922422.0373716,-41.50390625,36.62109375,-26.85546875,-53.22265625,0.0
1676922422.0423708,-25.390625,-95.703125,-41.50390625,-29.78515625,0.0
1676922422.04737,-28.80859375,-119.140625,-49.31640625,-19.04296875,0.0
1676922422.0523689,-41.9921875,48.828125,-21.484375,-34.1796875,0.0
1676922422.057368,-33.203125,1.46484375,-20.99609375,-34.66796875,0.0
1676922422.0598705,-22.4609375,-51.26953125,-27.34375,-33.203125,0.0
1676922422.062373,-24.90234375,3.90625,-18.5546875,-33.69140625,0.0
1676922422.0648754,-26.3671875,6.34765625,-20.99609375,-30.76171875,0.0
1676922422.0673778,-22.4609375,-46.38671875,-23.92578125,-27.34375,0.0
1676922422.0698802,-20.99609375,-78.61328125,-23.92578125,-32.71484375,0.0
1676922422.072383,-11.71875,-46.38671875,-17.08984375,-24.4140625,0.0
1676922422.0748854,-1.46484375,24.4140625,-1.953125,-16.11328125,0.0
1676922422.0773878,-7.8125,-3.90625,-7.32421875,-25.87890625,0.0
1676922422.0798903,-21.484375,-50.78125,-24.4140625,-45.8984375,0.0
1676922422.0823927,-24.90234375,22.94921875,-15.625,-46.38671875,0.0
1676922422.0848951,-14.6484375,16.11328125,-20.01953125,-41.50390625,0.0
1676922422.0873976,-11.71875,-63.4765625,-33.203125,-43.9453125,0.0
1676922422.0911493,-15.13671875,-92.7734375,-31.25,-43.45703125,0.0
1676922422.0949008,-13.671875,22.4609375,-22.4609375,-47.36328125,0.0
1676922422.0986526,-14.16015625,50.78125,-26.85546875,-43.45703125,0.0
1676922422.1024044,-12.20703125,-59.08203125,-41.015625,-38.0859375,0.0
1676922422.1061559,-7.32421875,-47.8515625,-26.3671875,-30.2734375,0.0
1676922422.1099076,-17.578125,-13.18359375,-16.11328125,-28.80859375,0.0
1676922422.1136594,-24.90234375,-13.18359375,-22.94921875,-34.1796875,0.0
1676922422.117411,-21.97265625,-78.61328125,-32.2265625,-21.484375,0.0
1676922422.1211627,-22.4609375,-112.3046875,-26.85546875,-7.8125,0.0
1676922422.1249144,-27.34375,81.0546875,4.39453125,-19.53125,0.0
1676922422.128666,-13.671875,83.0078125,5.859375,-11.71875,0.0
1676922422.1324177,-11.23046875,5.37109375,-3.41796875,-0.48828125,0.0
1676922422.1374135,-19.53125,35.64453125,-4.39453125,-9.27734375,0.0
1676922422.1424096,-16.6015625,35.64453125,-13.671875,-17.578125,0.0
1676922422.1474054,-6.34765625,0.0,-13.671875,-4.8828125,0.0
1676922422.1524012,-1.953125,-18.5546875,-8.30078125,-4.39453125,0.0
1676922422.1573973,-3.41796875,6.8359375,-2.9296875,-25.390625,0.0
1676922422.162393,0.9765625,-16.11328125,-4.8828125,-27.34375,0.0
1676922422.167389,-3.41796875,-32.71484375,-15.13671875,-30.76171875,0.0
1676922422.172385,0.0,-76.171875,-21.484375,-20.5078125,0.0
1676922422.1773808,2.9296875,3.41796875,-2.9296875,-13.18359375,0.0
1676922422.1823766,14.16015625,56.640625,7.8125,-19.53125,0.0
1676922422.1873727,23.92578125,-21.484375,0.9765625,-11.71875,0.0
1676922422.1923685,15.625,-14.6484375,-2.9296875,-4.8828125,0.0
1676922422.194868,14.6484375,50.29296875,-3.90625,-11.23046875,0.0
1676922422.1973674,10.25390625,38.0859375,-8.7890625,-4.39453125,0.0
1676922422.1998668,3.41796875,-39.0625,-27.83203125,3.41796875,0.0
1676922422.2023664,-7.32421875,-30.2734375,-34.66796875,-0.9765625,0.0
1676922422.204866,-2.44140625,16.11328125,-17.08984375,12.20703125,0.0
1676922422.2073653,10.7421875,-26.3671875,-15.625,19.04296875,0.0
1676922422.2098646,4.8828125,-74.70703125,-23.4375,1.46484375,0.0
1676922422.2123642,-4.39453125,-29.296875,-19.04296875,-2.44140625,0.0
1676922422.2148638,-12.6953125,38.57421875,-14.6484375,-3.90625,0.0
1676922422.217363,-7.32421875,24.4140625,-22.94921875,-19.53125,0.0
1676922422.2198625,2.9296875,-113.76953125,-44.43359375,-25.390625,0.0
1676922422.222362,2.9296875,-110.3515625,-38.0859375,-33.69140625,0.0
1676922422.2274737,2.9296875,41.015625,-16.6015625,-54.19921875,0.0
1676922422.2325852,10.7421875,29.296875,-20.99609375,-58.10546875,0.0
1676922422.237697,14.6484375,-43.9453125,-28.3203125,-71.2890625,0.0
1676922422.2428083,7.32421875,-0.48828125,-22.94921875,-91.796875,0.0
1676922422.24792,-7.8125,37.109375,-22.94921875,-88.37890625,0.0
1676922422.2530317,-18.06640625,-30.2734375,-35.15625,-89.84375,0.0
1676922422.2581432,-21.97265625,-90.8203125,-46.875,-92.7734375,0.0
1676922422.263255,-31.25,3.41796875,-29.78515625,-96.6796875,0.0
1676922422.2683663,-26.85546875,86.42578125,-12.6953125,-104.98046875,0.0
1676922422.273478,-7.32421875,-5.859375,-24.90234375,-97.65625,0.0
1676922422.2785895,-5.859375,-3.90625,-19.04296875,-100.5859375,0.0
1676922422.2837012,-18.5546875,48.33984375,-13.671875,-107.91015625,0.0
1676922422.2860959,-5.859375,43.45703125,-16.6015625,-91.30859375,0.0
1676922422.2884905,7.8125,-1.953125,-24.90234375,-83.49609375,0.0
1676922422.2908852,0.0,-45.41015625,-36.1328125,-87.40234375,0.0
1676922422.29328,-3.41796875,-5.37109375,-27.34375,-82.51953125,0.0
1676922422.2956746,-4.39453125,28.80859375,-28.3203125,-79.1015625,0.0
1676922422.2980692,-5.859375,-53.7109375,-46.38671875,-71.2890625,0.0
1676922422.300464,-17.578125,-45.41015625,-43.9453125,-71.77734375,0.0
1676922422.3028586,-20.99609375,61.03515625,-23.92578125,-73.73046875,0.0
1676922422.3052533,-8.7890625,62.98828125,-21.484375,-64.94140625,0.0
1676922422.307648,-9.27734375,-64.94140625,-47.36328125,-43.45703125,0.0
1676922422.3100426,-13.671875,-89.35546875,-57.12890625,-38.0859375,0.0
1676922422.3124373,-16.11328125,85.44921875,-25.390625,-54.6875,0.0
1676922422.317433,-8.7890625,75.1953125,-16.11328125,-39.55078125,0.0
1676922422.322429,6.34765625,19.53125,-19.53125,-16.11328125,0.0
1676922422.3274248,10.25390625,55.6640625,-10.7421875,-6.8359375,0.0
1676922422.3324206,5.37109375,70.80078125,-4.8828125,6.8359375,0.0
1676922422.3374164,2.9296875,16.6015625,-10.7421875,8.7890625,0.0
1676922422.3424122,1.953125,-32.71484375,-23.4375,3.90625,0.0
1676922422.347408,-1.953125,-25.87890625,-28.80859375,-0.9765625,0.0
1676922422.3524039,-5.859375,6.8359375,-28.3203125,-3.90625,0.0
1676922422.3573997,-2.9296875,26.3671875,-32.71484375,1.953125,0.0
1676922422.3623955,10.7421875,-86.9140625,-38.57421875,16.6015625,0.0
1676922422.3673913,9.765625,-14.6484375,-19.04296875,14.16015625,0.0
1676922422.3723872,8.7890625,95.703125,-13.18359375,-1.46484375,0.0
1676922422.377517,21.484375,-7.32421875,-23.92578125,10.25390625,0.0
1676922422.3826468,19.53125,-15.13671875,-20.5078125,16.6015625,0.0
1676922422.3877766,10.7421875,39.55078125,-21.97265625,10.7421875,0.0
1676922422.3929064,11.23046875,29.296875,-23.4375,5.37109375,0.0
1676922422.3980362,13.671875,-10.7421875,-28.80859375,0.0,0.0
1676922422.4031663,10.25390625,-46.38671875,-31.73828125,1.46484375,0.0
1676922422.408296,1.46484375,4.8828125,-20.99609375,5.37109375,0.0
1676922422.413426,-3.90625,48.828125,-19.53125,11.23046875,0.0
1676922422.4185557,2.44140625,-56.640625,-32.2265625,12.6953125,0.0
1676922422.4236856,0.0,-51.7578125,-38.0859375,-4.8828125,0.0
1676922422.4288154,-3.41796875,45.8984375,-29.78515625,-16.6015625,0.0
1676922422.4339452,-0.9765625,32.71484375,-26.3671875,-15.13671875,0.0
1676922422.4363139,-5.37109375,-109.375,-52.734375,-10.7421875,0.0
1676922422.4386823,-12.6953125,-110.3515625,-61.03515625,-11.23046875,0.0
1676922422.441051,-5.859375,62.01171875,-31.73828125,-24.90234375,0.0
1676922422.4434197,-0.48828125,21.484375,-33.69140625,-36.1328125,0.0
1676922422.4457881,-17.578125,-44.921875,-49.8046875,-41.50390625,0.0
1676922422.4481568,-27.34375,-54.19921875,-50.29296875,-34.1796875,0.0
1676922422.4505255,-27.34375,-7.8125,-41.9921875,-34.1796875,0.0
1676922422.452894,-33.69140625,5.37109375,-42.96875,-37.109375,0.0
1676922422.4552627,-36.1328125,-42.96875,-50.78125,-37.59765625,0.0
1676922422.4576313,-45.41015625,16.6015625,-52.24609375,-37.59765625,0.0
1676922422.4599998,-52.24609375,47.8515625,-40.52734375,-39.55078125,0.0
1676922422.4623685,-41.9921875,-6.34765625,-26.3671875,-39.55078125,0.0
1676922422.4673743,-34.66796875,-150.390625,-54.19921875,-29.78515625,0.0
1676922422.47238,-42.48046875,-65.91796875,-52.734375,-32.2265625,0.0
1676922422.4773855,-45.41015625,116.2109375,-22.94921875,-58.59375,0.0
1676922422.4823914,-35.15625,31.25,-23.92578125,-58.59375,0.0
1676922422.4873972,-26.85546875,-3.90625,-22.94921875,-51.26953125,0.0
1676922422.4924028,-21.484375,3.90625,-26.3671875,-43.45703125,0.0
1676922422.4974084,-23.4375,-1.46484375,-27.83203125,-40.52734375,0.0
1676922422.5024142,-15.625,-61.03515625,-31.25,-31.73828125,0.0
1676922422.50742,-12.20703125,-63.4765625,-32.71484375,-29.78515625,0.0
1676922422.5124257,-22.94921875,75.1953125,-5.37109375,-36.1328125,0.0
1676922422.5174313,-14.6484375,34.1796875,-1.953125,-20.01953125,0.0
1676922422.522437,-4.8828125,-30.76171875,-19.04296875,-14.6484375,0.0
1676922422.5249243,-10.7421875,10.25390625,-21.97265625,-20.99609375,0.0
1676922422.5274112,-27.34375,11.71875,-34.1796875,-34.1796875,0.0
1676922422.5298984,-32.2265625,-51.26953125,-44.43359375,-31.73828125,0.0
1676922422.5323853,-26.85546875,-74.70703125,-44.921875,-30.2734375,0.0
1676922422.5348725,-20.01953125,-7.8125,-40.52734375,-34.1796875,0.0
1676922422.5373597,-9.765625,-12.20703125,-29.78515625,-19.53125,0.0
1676922422.5398467,-10.25390625,-42.48046875,-25.390625,-22.94921875,0.0
1676922422.5423338,-18.06640625,-21.484375,-26.85546875,-45.41015625,0.0
1676922422.5448208,-20.5078125,21.97265625,-22.94921875,-56.640625,0.0
1676922422.547308,-15.625,21.97265625,-30.76171875,-57.6171875,0.0
1676922422.549795,-4.39453125,-40.0390625,-39.0625,-53.22265625,0.0
1676922422.552282,3.90625,-59.08203125,-26.85546875,-45.41015625,0.0
1676922422.5560393,-0.48828125,16.6015625,-21.97265625,-56.15234375,0.0
1676922422.5597963,-1.953125,37.59765625,-25.87890625,-62.5,0.0
1676922422.5635533,0.9765625,-65.4296875,-35.64453125,-51.26953125,0.0
1676922422.5673106,-3.90625,-100.09765625,-40.0390625,-54.6875,0.0
1676922422.5710678,-15.625,-1.953125,-27.34375,-67.87109375,0.0
1676922422.5748248,-20.99609375,-19.53125,-29.78515625,-59.5703125,0.0
1676922422.5785818,-12.6953125,-103.515625,-39.0625,-41.015625,0.0
1676922422.582339,-5.37109375,-121.09375,-37.109375,-26.3671875,0.0
1676922422.5860963,-20.01953125,52.734375,-15.625,-42.96875,0.0
1676922422.5898533,-18.06640625,50.78125,-19.53125,-48.33984375,0.0
1676922422.5936103,-6.34765625,-42.48046875,-24.90234375,-36.62109375,0.0
1676922422.5973675,-17.08984375,-2.9296875,-16.6015625,-37.59765625,0.0
1676922422.6011174,-24.90234375,12.6953125,-27.83203125,-41.015625,0.0
1676922422.6048675,-15.13671875,-39.0625,-35.15625,-25.390625,0.0
1676922422.6086173,-4.8828125,-64.453125,-23.4375,-20.01953125,0.0
1676922422.6123674,-7.32421875,-24.90234375,-12.6953125,-31.25,0.0
1676922422.6161172,-10.7421875,-22.94921875,-15.13671875,-20.99609375,0.0
1676922422.6198673,1.953125,-48.33984375,-10.7421875,-1.953125,0.0
1676922422.6236172,11.71875,-106.93359375,-14.16015625,6.8359375,0.0
1676922422.627367,-3.41796875,-37.109375,-16.11328125,-5.37109375,0.0
1676922422.631117,-10.7421875,20.99609375,-17.578125,-8.30078125,0.0
1676922422.634867,-0.9765625,-63.4765625,-25.87890625,-2.44140625,0.0
1676922422.638617,0.9765625,-77.1484375,-21.484375,-4.8828125,0.0
1676922422.642367,-10.25390625,17.08984375,-14.16015625,-12.6953125,0.0
1676922422.6461246,-4.39453125,59.08203125,-20.01953125,-15.13671875,0.0
1676922422.649882,6.34765625,-29.78515625,-29.296875,-13.18359375,0.0
1676922422.6536398,-3.90625,-33.69140625,-29.296875,-7.8125,0.0
1676922422.6573975,-4.8828125,10.7421875,-25.87890625,-3.90625,0.0
1676922422.661155,7.8125,-14.16015625,-36.1328125,-6.8359375,0.0
1676922422.6649127,14.16015625,-121.09375,-52.24609375,-3.90625,0.0
1676922422.6686704,8.7890625,-106.4453125,-42.48046875,-7.8125,0.0
1676922422.672428,7.32421875,49.8046875,-13.18359375,-13.18359375,0.0
1676922422.6761856,13.671875,31.73828125,-5.859375,-3.90625,0.0
1676922422.6799433,8.7890625,-48.33984375,-18.06640625,-1.46484375,0.0
1676922422.6837008,-12.6953125,-18.06640625,-23.92578125,-14.6484375,0.0
1676922422.6874585,-13.18359375,8.30078125,-9.765625,-12.20703125,0.0
1676922422.692451,-0.48828125,-20.99609375,-0.48828125,-4.8828125,0.0
1676922422.6974435,0.9765625,-37.59765625,-1.46484375,-9.27734375,0.0
1676922422.7024362,-9.27734375,9.27734375,7.32421875,-25.87890625,0.0
1676922422.7074287,-6.8359375,31.73828125,17.578125,-20.5078125,0.0
1676922422.7124212,-3.41796875,-15.625,15.13671875,-9.27734375,0.0
1676922422.717414,-4.39453125,-48.828125,0.48828125,-22.94921875,0.0
1676922422.7224064,-6.34765625,-35.15625,-7.32421875,-33.69140625,0.0
1676922422.7273989,-1.46484375,39.55078125,9.765625,-19.53125,0.0
1676922422.7323914,5.37109375,-4.8828125,5.859375,-1.46484375,0.0
1676922422.7373838,-2.44140625,-73.2421875,-14.16015625,0.9765625,0.0
1676922422.7423766,-12.20703125,19.53125,-2.9296875,-7.32421875,0.0
1676922422.747369,-20.01953125,45.8984375,0.9765625,-22.94921875,0.0
1676922422.7536197,-13.671875,-26.85546875,-13.18359375,-12.20703125,0.0
1676922422.7598703,-10.7421875,-38.0859375,-17.08984375,-1.953125,0.0
1676922422.766121,-14.6484375,-34.66796875,-15.13671875,-5.859375,0.0
1676922422.7723715,-10.25390625,-21.484375,-6.34765625,-11.23046875,0.0
1676922422.7786222,-0.48828125,-54.6875,-3.90625,-1.46484375,0.0
1676922422.784873,7.32421875,-98.14453125,-12.20703125,5.37109375,0.0
1676922422.7911236,-4.8828125,-6.8359375,-6.34765625,-15.625,0.0
1676922422.7973742,-13.18359375,31.25,-1.953125,-21.484375,0.0
1676922422.8036249,-5.37109375,-91.30859375,-12.6953125,-3.41796875,0.0
1676922422.8098755,-9.27734375,-112.3046875,-13.18359375,-9.765625,0.0
1676922422.816126,-9.765625,31.25,6.8359375,-21.97265625,0.0
1676922422.8223767,2.44140625,-16.6015625,-1.46484375,-9.27734375,0.0
1676922422.8236256,10.7421875,-52.24609375,-3.41796875,-9.27734375,0.0
1676922422.8248742,9.27734375,-9.765625,0.48828125,-20.01953125,0.0
1676922422.8261228,-2.9296875,-9.765625,-4.8828125,-24.90234375,0.0
1676922422.8273716,-7.8125,-50.78125,-9.765625,-18.06640625,0.0
1676922422.8286204,-2.44140625,-74.70703125,-17.08984375,-12.20703125,0.0
1676922422.829869,-6.8359375,-69.3359375,-20.01953125,-17.08984375,0.0
1676922422.8311176,-12.6953125,-48.828125,-19.04296875,-25.390625,0.0
1676922422.8323665,-14.16015625,-45.41015625,-16.6015625,-26.85546875,0.0
1676922422.8336153,-8.7890625,-41.50390625,-12.20703125,-30.76171875,0.0
1676922422.834864,-7.8125,-4.8828125,-15.13671875,-30.76171875,0.0
1676922422.8361125,-15.625,0.0,-21.97265625,-33.203125,0.0
1676922422.8373613,-9.765625,-60.05859375,-27.34375,-34.1796875,0.0
1676922422.841112,-6.34765625,-83.49609375,-32.71484375,-39.0625,0.0
1676922422.8448625,-17.08984375,0.48828125,-26.3671875,-55.6640625,0.0
1676922422.8486128,-17.578125,7.32421875,-25.390625,-58.59375,0.0
1676922422.8523633,-16.11328125,-89.35546875,-44.921875,-50.29296875,0.0
1676922422.856114,-12.6953125,-189.453125,-61.03515625,-28.80859375,0.0
1676922422.8598645,-20.99609375,-79.1015625,-35.64453125,-25.87890625,0.0
1676922422.863615,-25.87890625,44.921875,-8.7890625,-18.06640625,0.0
1676922422.8673656,-10.7421875,-63.4765625,-8.7890625,10.25390625,0.0
1676922422.8711162,-6.34765625,-107.91015625,-11.71875,16.11328125,0.0
1676922422.8748665,-13.671875,60.05859375,7.8125,-3.90625,0.0
1676922422.878617,-4.8828125,37.59765625,10.25390625,6.34765625,0.0
1676922422.8823676,2.9296875,-57.6171875,-4.8828125,21.484375,0.0
1676922422.8861175,-2.44140625,-26.85546875,-8.30078125,18.5546875,0.0
1676922422.889867,-2.44140625,23.4375,0.48828125,16.11328125,0.0
1676922422.8936167,7.8125,-10.7421875,-1.953125,20.5078125,0.0
1676922422.8973665,8.7890625,-72.75390625,-10.25390625,26.85546875,0.0
1676922422.9011164,2.9296875,-30.2734375,-0.48828125,9.27734375,0.0
1676922422.904866,0.0,-28.3203125,-4.8828125,-10.25390625,0.0
1676922422.9086156,-1.953125,-53.7109375,-8.30078125,-16.11328125,0.0
1676922422.9123654,4.8828125,-89.84375,-7.32421875,-20.01953125,0.0
1676922422.9161153,1.46484375,-28.80859375,-10.25390625,-41.015625,0.0
1676922422.919865,-4.39453125,46.875,-5.37109375,-60.05859375,0.0
1676922422.9236145,-3.41796875,-45.41015625,-21.484375,-61.03515625,0.0
1676922422.9273643,1.46484375,-87.40234375,-25.87890625,-51.26953125,0.0
1676922422.9312189,-2.44140625,-1.953125,-9.27734375,-49.8046875,0.0
1676922422.9350731,-4.8828125,28.80859375,-1.46484375,-55.6640625,0.0
1676922422.9389277,-3.41796875,-62.5,-9.27734375,-60.546875,0.0
1676922422.942782,-5.859375,-68.84765625,-7.32421875,-62.5,0.0
1676922422.9466364,-11.71875,17.578125,6.34765625,-64.94140625,0.0
1676922422.950491,-13.18359375,-23.4375,-5.859375,-66.89453125,0.0
1676922422.9543452,-10.7421875,-102.05078125,-20.5078125,-67.87109375,0.0
1676922422.9581997,-18.06640625,-83.49609375,-20.01953125,-60.546875,0.0
1676922422.962054,-17.08984375,57.12890625,7.32421875,-64.94140625,0.0
1676922422.9659085,1.46484375,37.109375,10.25390625,-60.546875,0.0
1676922422.9697628,-0.9765625,-27.83203125,-5.859375,-53.22265625,0.0
1676922422.9736173,-6.34765625,-6.8359375,-7.32421875,-58.59375,0.0
1676922422.9772651,-7.32421875,8.30078125,-16.11328125,-69.3359375,0.0
1676922422.980913,-2.44140625,-31.73828125,-17.578125,-65.91796875,0.0
1676922422.9845607,-0.48828125,-50.78125,-10.7421875,-52.734375,0.0
1676922422.9882085,-4.8828125,2.44140625,-11.23046875,-41.50390625,0.0
1676922422.9918563,-4.8828125,3.41796875,-11.23046875,-33.69140625,0.0
1676922422.9955041,-4.8828125,-46.38671875,-17.578125,-25.390625,0.0
1676922422.999152,3.41796875,-141.6015625,-31.25,2.44140625,0.0
1676922423.0027997,2.44140625,-56.15234375,-20.01953125,-0.48828125,0.0
1676922423.0064476,-0.9765625,101.5625,-11.23046875,-11.23046875,0.0
1676922423.0100954,14.16015625,14.6484375,-22.94921875,10.25390625,0.0
1676922423.0137432,19.04296875,-25.87890625,-12.20703125,21.97265625,0.0
1676922423.017391,15.13671875,37.109375,0.0,17.08984375,0.0
1676922423.0211446,19.04296875,43.45703125,-9.27734375,14.16015625,0.0
1676922423.0248983,15.625,-23.92578125,-22.94921875,7.8125,0.0
1676922423.028652,6.34765625,-37.59765625,-24.4140625,-3.41796875,0.0
1676922423.0324056,0.48828125,12.6953125,-17.578125,-8.7890625,0.0
1676922423.0361593,-2.9296875,-3.90625,-31.25,-7.32421875,0.0
1676922423.0399127,7.32421875,-85.44921875,-50.78125,2.44140625,0.0
1676922423.0436664,6.34765625,-95.703125,-54.19921875,0.0,0.0
1676922423.04742,-7.32421875,5.37109375,-35.64453125,-15.13671875,0.0
1676922423.0511737,-6.8359375,33.69140625,-19.53125,-27.34375,0.0
1676922423.0549273,3.41796875,-97.16796875,-30.76171875,-9.765625,0.0
1676922423.058681,-1.953125,-101.5625,-25.390625,4.39453125,0.0
1676922423.0624347,-15.625,47.36328125,-6.34765625,-21.97265625,0.0
1676922423.0674264,-7.8125,-7.8125,-20.5078125,-28.3203125,0.0
1676922423.072418,-2.9296875,-53.7109375,-31.25,-9.27734375,0.0
1676922423.0774097,-5.37109375,-13.18359375,-22.94921875,6.8359375,0.0
1676922423.0824013,-0.48828125,9.27734375,-12.20703125,11.23046875,0.0
1676922423.087393,-1.953125,-6.8359375,-21.484375,2.44140625,0.0
1676922423.0923848,-8.30078125,-62.01171875,-41.9921875,-2.9296875,0.0
1676922423.0973763,-11.23046875,-21.97265625,-43.9453125,-10.25390625,0.0
1676922423.102368,-6.34765625,30.76171875,-26.3671875,-5.859375,0.0
1676922423.1073596,-1.953125,-11.23046875,-20.99609375,-5.859375,0.0
1676922423.1123514,6.8359375,-109.86328125,-34.66796875,-9.27734375,0.0
1676922423.117343,5.37109375,-22.94921875,-22.94921875,-4.39453125,0.0
1676922423.1223347,0.0,89.35546875,-8.7890625,-10.25390625,0.0
1676922423.1273382,-2.44140625,-17.08984375,-24.4140625,-10.7421875,0.0
1676922423.1323416,-10.7421875,-39.55078125,-31.25,-15.625,0.0
1676922423.1373448,-8.30078125,21.97265625,-25.390625,-16.11328125,0.0
1676922423.1423483,-3.41796875,19.04296875,-18.5546875,-21.484375,0.0
1676922423.1473517,-1.953125,-44.921875,-24.90234375,-18.06640625,0.0
1676922423.1523552,-3.90625,-55.6640625,-33.203125,-18.5546875,0.0
1676922423.1573586,-8.30078125,-19.04296875,-21.484375,-37.59765625,0.0
1676922423.162362,-7.32421875,7.32421875,-8.30078125,-42.96875,0.0
1676922423.1673656,3.41796875,-60.05859375,-16.6015625,-21.97265625,0.0
1676922423.1723688,10.25390625,-59.5703125,-20.5078125,-10.7421875,0.0
1676922423.1773722,4.8828125,68.359375,-6.34765625,-23.92578125,0.0
1676922423.1823757,4.39453125,30.76171875,-17.578125,-31.73828125,0.0
1676922423.1849546,-5.37109375,-30.2734375,-29.296875,-29.78515625,0.0
1676922423.1875336,-8.7890625,6.34765625,-19.53125,-25.390625,0.0
1676922423.1901126,-1.953125,27.83203125,-11.23046875,-24.4140625,0.0
1676922423.1926916,4.39453125,-20.99609375,-18.06640625,-12.6953125,0.0
1676922423.1952705,-4.39453125,-39.55078125,-26.3671875,-14.6484375,0.0
1676922423.1978493,-16.6015625,-53.22265625,-25.87890625,-26.3671875,0.0
1676922423.2004282,-15.625,-6.8359375,-15.625,-44.43359375,0.0
1676922423.2030072,-11.23046875,3.41796875,-15.13671875,-51.26953125,0.0
1676922423.2055862,-20.99609375,-42.96875,-29.296875,-52.734375,0.0
1676922423.2081652,-24.4140625,10.25390625,-39.55078125,-63.4765625,0.0
1676922423.2107441,-19.53125,30.2734375,-40.52734375,-67.3828125,0.0
1676922423.213323,-7.32421875,-31.73828125,-40.52734375,-55.6640625,0.0
1676922423.217088,2.44140625,-86.42578125,-45.8984375,-43.9453125,0.0
1676922423.220853,-10.25390625,-12.20703125,-44.43359375,-63.4765625,0.0
1676922423.224618,-20.01953125,35.64453125,-44.43359375,-77.1484375,0.0
1676922423.228383,-15.625,-19.04296875,-41.50390625,-67.3828125,0.0
1676922423.232148,-7.32421875,-32.2265625,-31.73828125,-60.05859375,0.0
1676922423.2359128,-11.23046875,-7.8125,-29.78515625,-67.3828125,0.0
1676922423.239678,-18.5546875,17.578125,-33.203125,-75.68359375,0.0
1676922423.2434428,-15.13671875,-31.25,-44.921875,-70.3125,0.0
1676922423.2472079,-12.6953125,-102.5390625,-56.15234375,-47.8515625,0.0
1676922423.2509727,-24.4140625,62.01171875,-40.52734375,-49.8046875,0.0
1676922423.2547379,-20.99609375,61.03515625,-43.45703125,-45.41015625,0.0
1676922423.2585027,-14.6484375,-21.484375,-46.38671875,-33.69140625,0.0
1676922423.2621474,-13.18359375,20.5078125,-34.66796875,-31.73828125,0.0
1676922423.2657921,-15.13671875,37.59765625,-32.71484375,-38.57421875,0.0
1676922423.2694368,-12.6953125,-7.8125,-37.109375,-34.66796875,0.0
1676922423.2730815,-10.7421875,-24.4140625,-38.57421875,-24.4140625,0.0
1676922423.2767262,-11.71875,-5.37109375,-35.64453125,-19.53125,0.0
1676922423.280371,-5.37109375,-29.296875,-36.62109375,-22.4609375,0.0
1676922423.2840157,-10.7421875,-26.3671875,-38.57421875,-35.15625,0.0
1676922423.2876604,-4.8828125,-103.515625,-47.36328125,-18.06640625,0.0
1676922423.291305,-3.41796875,-56.640625,-42.96875,-10.25390625,0.0
1676922423.2949498,-9.27734375,95.703125,-28.80859375,-27.34375,0.0
1676922423.2985945,-4.39453125,24.4140625,-30.76171875,-20.99609375,0.0
1676922423.3022392,-2.9296875,-14.16015625,-35.64453125,-14.16015625,0.0
1676922423.306,-5.37109375,24.90234375,-35.15625,-25.87890625,0.0
1676922423.3097608,-4.39453125,21.97265625,-26.3671875,-26.85546875,0.0
1676922423.3135216,0.0,-29.78515625,-28.80859375,-16.11328125,0.0
1676922423.3172824,-2.9296875,-19.04296875,-31.25,-11.23046875,0.0
1676922423.3210433,2.44140625,25.87890625,-19.04296875,-6.34765625,0.0
1676922423.3248038,4.8828125,0.9765625,-11.23046875,-3.41796875,0.0
1676922423.3285646,-8.7890625,-72.265625,-35.15625,-9.765625,0.0
1676922423.3323255,26.3671875,-63.96484375,-7.32421875,22.94921875,0.0
1676922423.3360863,-124.51171875,-41.50390625,-122.55859375,-126.953125,0.0
1676922423.339847,-449.21875,-327.63671875,-448.2421875,-449.70703125,0.0
1676922423.343608,-551.7578125,-566.40625,-585.9375,-549.8046875,0.0
1676922423.3473687,-548.33984375,-549.8046875,-585.44921875,-543.9453125,0.0
1676922423.3511162,-538.0859375,-458.49609375,-561.03515625,-533.69140625,0.0
1676922423.3548636,-503.90625,-470.21484375,-533.203125,-495.60546875,0.0
1676922423.358611,-476.07421875,-487.79296875,-509.765625,-472.16796875,0.0
1676922423.3623586,-465.8203125,-427.734375,-482.91015625,-456.54296875,0.0
1676922423.366106,-437.98828125,-415.0390625,-460.9375,-428.22265625,0.0
1676922423.3698535,-403.80859375,-453.125,-441.89453125,-410.15625,0.0
1676922423.373601,-382.32421875,-481.4453125,-425.78125,-381.34765625,0.0
1676922423.3773484,-368.65234375,-369.62890625,-394.53125,-366.69921875,0.0
1676922423.381096,-357.421875,-269.04296875,-366.2109375,-361.328125,0.0
1676922423.3848433,-333.0078125,-335.44921875,-354.98046875,-332.03125,0.0
1676922423.3885908,-304.19921875,-353.02734375,-325.1953125,-301.7578125,0.0
1676922423.3923383,-287.59765625,-288.0859375,-297.36328125,-290.52734375,0.0
1676922423.396192,-276.85546875,-227.5390625,-279.78515625,-289.0625,0.0
1676922423.400046,-262.20703125,-271.97265625,-267.08984375,-274.4140625,0.0
1676922423.4039001,-243.1640625,-292.48046875,-255.37109375,-245.60546875,0.0
1676922423.407754,-235.3515625,-190.4296875,-238.28125,-234.375,0.0
1676922423.4116077,-218.75,-168.9453125,-238.76953125,-228.515625,0.0
1676922423.4154618,-197.75390625,-274.4140625,-237.79296875,-208.0078125,0.0
1676922423.4193158,-191.40625,-260.25390625,-215.8203125,-196.77734375,0.0
1676922423.4231696,-181.640625,-135.25390625,-191.40625,-186.03515625,0.0
1676922423.4270234,-159.66796875,-129.39453125,-185.546875,-163.57421875,0.0
1676922423.4308774,-145.01953125,-205.56640625,-191.89453125,-152.34375,0.0
1676922423.4347315,-145.01953125,-177.734375,-180.17578125,-159.66796875,0.0
1676922423.4385853,-141.6015625,-91.30859375,-158.203125,-152.83203125,0.0
1676922423.4434838,-138.18359375,-130.37109375,-153.80859375,-129.8828125,0.0
1676922423.4483824,-142.578125,-183.59375,-164.0625,-131.8359375,0.0
1676922423.453281,-139.6484375,-144.04296875,-155.2734375,-133.30078125,0.0
1676922423.4581797,-129.8828125,-71.77734375,-137.20703125,-116.2109375,0.0
1676922423.4630783,-120.1171875,-77.63671875,-132.32421875,-114.2578125,0.0
1676922423.4679768,-107.91015625,-213.8671875,-129.8828125,-112.79296875,0.0
1676922423.4728754,-113.28125,-172.8515625,-120.60546875,-119.62890625,0.0
1676922423.477774,-111.328125,-1.46484375,-103.02734375,-124.51171875,0.0
1676922423.4826727,-92.7734375,-64.94140625,-104.98046875,-95.703125,0.0
1676922423.4875712,-77.63671875,-96.6796875,-100.5859375,-80.56640625,0.0
1676922423.4924698,-71.2890625,-57.6171875,-94.7265625,-88.37890625,0.0
1676922423.4973683,-70.3125,-52.24609375,-98.6328125,-94.23828125,0.0
1676922423.5011187,-70.80078125,-91.30859375,-99.609375,-89.35546875,0.0
1676922423.5048687,-70.80078125,-94.7265625,-90.8203125,-74.70703125,0.0
1676922423.508619,-64.94140625,-40.0390625,-76.171875,-63.4765625,0.0
1676922423.5123694,-57.12890625,-51.26953125,-71.2890625,-55.17578125,0.0
1676922423.5161195,-48.33984375,-121.58203125,-83.0078125,-43.45703125,0.0
1676922423.5198698,-49.8046875,-133.30078125,-94.23828125,-48.828125,0.0
1676922423.5236201,-52.734375,-41.015625,-72.75390625,-56.15234375,0.0
1676922423.5273702,-58.10546875,11.71875,-61.5234375,-63.96484375,0.0
1676922423.5311205,-48.828125,-111.328125,-84.47265625,-48.828125,0.0
1676922423.5348709,-40.52734375,-128.90625,-83.49609375,-44.43359375,0.0
1676922423.538621,-47.8515625,19.04296875,-64.94140625,-71.77734375,0.0
1676922423.5423713,-47.36328125,-18.5546875,-69.82421875,-75.1953125,0.0
1676922423.5473466,-44.43359375,-54.19921875,-69.3359375,-75.1953125,0.0
1676922423.552322,-41.9921875,-33.203125,-65.91796875,-78.125,0.0
1676922423.5572972,-40.0390625,-17.08984375,-62.98828125,-79.58984375,0.0
1676922423.5622725,-39.55078125,-31.25,-58.10546875,-76.171875,0.0
1676922423.5672479,-36.62109375,-63.96484375,-57.12890625,-83.0078125,0.0
1676922423.5722232,-41.9921875,-54.6875,-64.94140625,-94.7265625,0.0
1676922423.5771983,-50.29296875,-24.90234375,-60.05859375,-97.65625,0.0
1676922423.5821736,-53.22265625,-10.7421875,-47.8515625,-106.4453125,0.0
1676922423.587149,-50.29296875,-107.91015625,-67.87109375,-90.33203125,0.0
1676922423.5921242,-46.38671875,-47.8515625,-57.12890625,-76.66015625,0.0
1676922423.5970995,-43.9453125,88.37890625,-22.94921875,-88.8671875,0.0
1676922423.6020749,-36.62109375,-9.27734375,-35.15625,-85.9375,0.0
1676922423.6045806,-30.2734375,-35.15625,-48.33984375,-79.58984375,0.0
1676922423.6070862,-31.25,15.13671875,-56.640625,-76.66015625,0.0
1676922423.609592,-30.2734375,6.8359375,-70.80078125,-66.40625,0.0
1676922423.6120977,-34.66796875,-33.69140625,-88.37890625,-56.640625,0.0
1676922423.6146035,-33.203125,-48.828125,-95.21484375,-62.01171875,0.0
1676922423.6171093,-26.3671875,-32.2265625,-91.796875,-64.453125,0.0
1676922423.6196148,-19.53125,-20.01953125,-99.609375,-56.15234375,0.0
1676922423.6221206,-13.671875,-56.640625,-109.86328125,-56.15234375,0.0
1676922423.6246264,-13.671875,-19.53125,-104.00390625,-65.4296875,0.0
1676922423.627132,-7.8125,23.4375,-104.98046875,-59.5703125,0.0
1676922423.6296377,-9.765625,-18.5546875,-115.72265625,-53.7109375,0.0
1676922423.6321435,-2.44140625,-95.703125,-133.30078125,-42.96875,0.0
1676922423.6359127,-2.44140625,-79.1015625,-132.8125,-37.59765625,0.0
1676922423.6396818,-6.8359375,86.42578125,-104.98046875,-45.8984375,0.0
1676922423.6434512,1.953125,27.34375,-111.81640625,-36.62109375,0.0
1676922423.6472204,-6.8359375,-23.4375,-121.58203125,-40.0390625,0.0
1676922423.6509895,-5.37109375,15.13671875,-115.72265625,-37.59765625,0.0
1676922423.6547587,2.44140625,-15.13671875,-120.60546875,-21.484375,0.0
1676922423.6585279,-1.953125,-18.5546875,-126.953125,-14.16015625,0.0
1676922423.662297,-6.34765625,-69.3359375,-134.27734375,-17.08984375,0.0
1676922423.6660662,-11.71875,0.9765625,-116.69921875,-27.34375,0.0
1676922423.6698356,-9.27734375,80.56640625,-93.75,-20.99609375,0.0
1676922423.6736047,-1.46484375,-2.44140625,-109.86328125,-4.39453125,0.0
1676922423.677374,1.46484375,-8.30078125,-118.65234375,-2.44140625,0.0
1676922423.6812239,-3.90625,20.99609375,-112.79296875,-0.48828125,0.0
1676922423.6850739,-10.7421875,-11.23046875,-119.62890625,10.25390625,0.0
1676922423.6889238,-8.7890625,-57.6171875,-127.9296875,16.11328125,0.0
1676922423.6927738,-4.8828125,-18.06640625,-112.3046875,19.04296875,0.0
1676922423.6966238,-4.8828125,57.12890625,-93.26171875,12.6953125,0.0
1676922423.7004738,4.8828125,6.34765625,-99.609375,10.25390625,0.0
1676922423.7043238,8.30078125,-63.96484375,-110.83984375,7.32421875,0.0
1676922423.7081738,3.41796875,-54.19921875,-117.67578125,10.7421875,0.0
1676922423.7120237,-1.46484375,62.5,-104.4921875,-2.9296875,0.0
1676922423.7158737,1.46484375,44.921875,-96.6796875,-6.34765625,0.0
1676922423.7197237,4.39453125,-23.92578125,-92.28515625,5.859375,0.0
1676922423.7235737,10.7421875,14.16015625,-87.40234375,8.7890625,0.0
1676922423.7284732,13.671875,58.59375,-83.984375,20.01953125,0.0
1676922423.733373,15.13671875,18.06640625,-84.47265625,27.34375,0.0
1676922423.7382724,16.6015625,-11.23046875,-86.42578125,21.484375,0.0
1676922423.7431722,11.71875,13.18359375,-86.42578125,20.01953125,0.0
1676922423.7480717,9.27734375,-21.484375,-92.28515625,15.13671875,0.0
1676922423.7529712,3.90625,-23.92578125,-81.0546875,-10.25390625,0.0
1676922423.757871,7.8125,-89.84375,-77.63671875,-12.20703125,0.0
1676922423.7627704,11.71875,-46.38671875,-65.91796875,-2.44140625,0.0
1676922423.7676702,2.9296875,106.93359375,-44.921875,-0.48828125,0.0
1676922423.7725697,-3.90625,18.06640625,-65.4296875,-0.9765625,0.0
1676922423.7774694,-3.90625,-59.5703125,-77.1484375,-5.859375,0.0
1676922423.782369,-7.32421875,1.46484375,-63.4765625,-7.32421875,0.0
1676922423.7861192,-7.32421875,47.36328125,-53.7109375,-5.37109375,0.0
1676922423.7898693,-6.34765625,-20.5078125,-61.03515625,-3.41796875,0.0
1676922423.7936196,-5.859375,-24.90234375,-59.5703125,-10.7421875,0.0
1676922423.7973697,7.8125,43.45703125,-49.31640625,-6.8359375,0.0
1676922423.80112,19.53125,20.99609375,-51.7578125,3.41796875,0.0
1676922423.8048701,22.94921875,-41.9921875,-52.24609375,3.41796875,0.0
1676922423.8086205,21.97265625,-34.1796875,-43.45703125,1.46484375,0.0
1676922423.8123708,16.11328125,8.7890625,-41.50390625,1.953125,0.0
1676922423.8161209,3.41796875,46.875,-41.9921875,-8.30078125,0.0
1676922423.8198712,11.23046875,-63.96484375,-55.17578125,-5.37109375,0.0
1676922423.8236213,10.7421875,-119.62890625,-62.01171875,-8.7890625,0.0
1676922423.8273716,-7.32421875,44.921875,-40.52734375,-25.390625,0.0
1676922423.8311214,-5.859375,40.52734375,-41.50390625,-17.08984375,0.0
1676922423.8348713,1.46484375,-16.11328125,-44.43359375,4.8828125,0.0
1676922423.8386211,9.765625,18.06640625,-41.9921875,3.41796875,0.0
1676922423.842371,17.08984375,48.828125,-48.33984375,-7.32421875,0.0
1676922423.8461208,15.13671875,3.90625,-62.01171875,-3.90625,0.0
1676922423.8498707,1.46484375,-45.8984375,-68.84765625,-8.30078125,0.0
1676922423.8536208,2.44140625,-0.9765625,-63.4765625,-19.53125,0.0
1676922423.8573706,11.71875,56.640625,-50.78125,-18.06640625,0.0
1676922423.8611205,17.08984375,15.13671875,-54.6875,-6.8359375,0.0
1676922423.8648703,25.87890625,-82.03125,-72.265625,4.39453125,0.0
1676922423.8686202,15.13671875,-0.48828125,-64.453125,-9.765625,0.0
1676922423.87237,-1.953125,94.7265625,-53.7109375,-31.73828125,0.0
1676922423.8762321,-3.41796875,-6.34765625,-66.89453125,-32.71484375,0.0
1676922423.8800945,-0.9765625,-41.9921875,-78.125,-26.3671875,0.0
1676922423.8839567,4.39453125,42.96875,-58.59375,-23.92578125,0.0
1676922423.8878188,9.765625,36.62109375,-42.96875,-33.203125,0.0
1676922423.891681,3.90625,-41.015625,-52.734375,-41.50390625,0.0
1676922423.895543,3.90625,-59.08203125,-51.26953125,-36.1328125,0.0
1676922423.8994055,8.30078125,15.13671875,-41.50390625,-29.296875,0.0
1676922423.9032676,4.39453125,64.94140625,-48.33984375,-22.4609375,0.0
1676922423.9071298,6.8359375,-47.36328125,-71.2890625,-9.27734375,0.0
1676922423.9109921,-0.9765625,-83.984375,-73.2421875,-14.16015625,0.0
1676922423.9148543,-4.8828125,53.22265625,-50.78125,-26.3671875,0.0
1676922423.9187164,8.7890625,42.96875,-49.31640625,-13.671875,0.0
1676922423.9223819,9.27734375,-25.87890625,-58.10546875,-1.46484375,0.0
1676922423.9260473,1.953125,-13.671875,-59.08203125,-3.41796875,0.0
1676922423.929713,0.9765625,53.7109375,-44.921875,-6.8359375,0.0
1676922423.9333785,7.32421875,25.390625,-43.9453125,8.7890625,0.0
1676922423.937044,6.8359375,-29.296875,-44.921875,3.90625,0.0
1676922423.9407096,6.34765625,-22.94921875,-47.36328125,-7.8125,0.0
1676922423.944375,2.44140625,11.23046875,-55.17578125,-13.671875,0.0
1676922423.9480405,-4.8828125,41.50390625,-51.7578125,-16.11328125,0.0
1676922423.951706,9.765625,-84.47265625,-60.546875,1.46484375,0.0
1676922423.9553714,12.6953125,-57.12890625,-62.98828125,0.48828125,0.0
1676922423.959037,0.0,93.26171875,-48.828125,-21.97265625,0.0
1676922423.9627025,6.34765625,29.296875,-47.8515625,-16.11328125,0.0
1676922423.9664216,16.6015625,15.625,-46.38671875,4.8828125,0.0
1676922423.9701407,20.5078125,54.6875,-37.109375,10.25390625,0.0
1676922423.9738598,24.90234375,54.19921875,-31.25,5.37109375,0.0
1676922423.977579,23.92578125,-17.578125,-52.24609375,7.8125,0.0
1676922423.9812982,15.13671875,-34.66796875,-67.3828125,14.16015625,0.0
1676922423.9850173,6.34765625,14.16015625,-59.08203125,8.7890625,0.0
1676922423.9887364,7.8125,27.83203125,-54.6875,8.7890625,0.0
1676922423.9924555,19.53125,-28.80859375,-59.08203125,19.04296875,0.0
1676922423.9961748,15.13671875,-41.015625,-65.4296875,20.99609375,0.0
1676922423.999894,9.27734375,112.79296875,-43.9453125,13.671875,0.0
1676922424.003613,16.6015625,89.84375,-37.59765625,13.18359375,0.0
1676922424.007332,16.11328125,24.4140625,-45.41015625,6.8359375,0.0
1676922424.0110705,5.37109375,40.0390625,-52.734375,1.46484375,0.0
1676922424.014809,-6.8359375,37.109375,-56.15234375,-10.7421875,0.0
1676922424.0185473,-2.44140625,8.7890625,-55.17578125,-14.6484375,0.0
1676922424.0222857,-5.859375,-15.625,-62.5,-24.90234375,0.0
1676922424.026024,-10.25390625,3.90625,-63.96484375,-29.296875,0.0
1676922424.0297625,-7.8125,-19.53125,-66.89453125,-21.97265625,0.0
1676922424.033501,-11.71875,-12.6953125,-58.10546875,-18.5546875,0.0
1676922424.0372393,-7.8125,-72.75390625,-68.84765625,-8.30078125,0.0
1676922424.0409777,-6.8359375,-27.34375,-77.1484375,-11.71875,0.0
1676922424.0447161,-11.23046875,112.79296875,-64.453125,-30.76171875,0.0
1676922424.0484545,-4.39453125,19.04296875,-71.2890625,-23.4375,0.0
1676922424.052193,-9.765625,-13.18359375,-62.98828125,-17.08984375,0.0
1676922424.0559578,-20.5078125,35.15625,-60.546875,-35.15625,0.0
1676922424.0597224,-13.18359375,32.71484375,-62.5,-29.296875,0.0
1676922424.063487,-8.7890625,-12.6953125,-63.96484375,-13.18359375,0.0
1676922424.067252,-11.71875,-8.7890625,-67.87109375,-8.30078125,0.0
1676922424.0710168,-11.23046875,19.04296875,-65.4296875,-10.7421875,0.0
1676922424.0747814,-12.20703125,-12.20703125,-65.4296875,-12.6953125,0.0
1676922424.078546,-2.9296875,-58.59375,-61.03515625,-7.8125,0.0
1676922424.082311,-10.25390625,-42.48046875,-58.10546875,-7.8125,0.0
1676922424.0860758,-20.5078125,89.35546875,-43.45703125,-12.6953125,0.0
1676922424.0898404,-2.44140625,56.15234375,-44.921875,-12.20703125,0.0
1676922424.093605,0.48828125,-37.109375,-57.12890625,-4.8828125,0.0
1676922424.09737,-13.671875,17.578125,-52.734375,-12.20703125,0.0
1676922424.101117,-16.11328125,96.6796875,-45.41015625,-26.85546875,0.0
1676922424.104864,-6.8359375,43.9453125,-50.78125,-14.16015625,0.0
1676922424.1086109,-6.34765625,-12.20703125,-55.17578125,3.41796875,0.0
1676922424.1123579,-16.11328125,16.6015625,-45.8984375,2.44140625,0.0
1676922424.1161048,-16.6015625,8.7890625,-40.52734375,-5.37109375,0.0
1676922424.119852,-11.23046875,-37.109375,-47.8515625,-14.16015625,0.0
1676922424.123599,-13.18359375,-92.28515625,-59.5703125,-0.9765625,0.0
1676922424.127346,-25.390625,-12.20703125,-55.17578125,-2.9296875,0.0
1676922424.131093,-23.92578125,77.63671875,-44.43359375,-15.625,0.0
1676922424.13484,-13.671875,-2.44140625,-48.33984375,4.39453125,0.0
1676922424.138587,-13.671875,-16.6015625,-45.41015625,16.11328125,0.0
1676922424.142334,-11.23046875,25.87890625,-43.9453125,5.37109375,0.0
1676922424.1461904,-16.6015625,-1.46484375,-50.29296875,-3.90625,0.0
1676922424.1500468,-20.01953125,-63.4765625,-55.17578125,-9.27734375,0.0
1676922424.1539032,-11.71875,-45.8984375,-51.26953125,-1.953125,0.0
1676922424.1577597,-6.8359375,46.38671875,-33.69140625,9.27734375,0.0
1676922424.161616,-2.9296875,40.0390625,-41.015625,6.8359375,0.0
1676922424.1654725,3.90625,-81.54296875,-66.89453125,3.41796875,0.0
1676922424.1693287,2.9296875,-64.453125,-62.01171875,-7.32421875,0.0
1676922424.173185,0.9765625,69.82421875,-38.57421875,-20.99609375,0.0
1676922424.1770415,-1.953125,43.9453125,-45.8984375,-20.01953125,0.0
1676922424.180898,-1.46484375,-66.89453125,-63.4765625,-20.99609375,0.0
1676922424.1847544,1.46484375,-62.01171875,-58.10546875,-34.66796875,0.0
1676922424.1886108,-3.90625,36.62109375,-37.59765625,-48.828125,0.0
1676922424.1935074,-12.6953125,11.71875,-42.96875,-53.22265625,0.0
1676922424.1984043,-19.04296875,-29.296875,-52.24609375,-59.08203125,0.0
1676922424.203301,-20.99609375,0.0,-53.7109375,-56.640625,0.0
1676922424.2081978,-20.5078125,-6.34765625,-61.03515625,-40.52734375,0.0
1676922424.2130945,-21.484375,12.20703125,-59.08203125,-46.38671875,0.0
1676922424.2179914,-21.97265625,-86.42578125,-72.265625,-41.50390625,0.0
1676922424.222888,-29.78515625,-71.2890625,-68.84765625,-42.48046875,0.0
1676922424.2277846,-28.80859375,66.40625,-50.78125,-62.5,0.0
1676922424.2326815,-20.01953125,-0.9765625,-67.3828125,-56.15234375,0.0
1676922424.2375782,-10.25390625,-20.5078125,-65.4296875,-53.7109375,0.0
1676922424.242475,-7.8125,31.25,-49.31640625,-56.640625,0.0
1676922424.2473717,-15.13671875,44.921875,-56.640625,-60.546875,0.0
1676922424.2511215,-16.11328125,-16.11328125,-63.96484375,-63.4765625,0.0
1676922424.2548716,-16.11328125,-22.94921875,-62.98828125,-57.12890625,0.0
1676922424.2586217,-20.5078125,29.78515625,-56.640625,-61.5234375,0.0
1676922424.2623715,-21.97265625,19.53125,-62.5,-66.40625,0.0
1676922424.2661214,-16.6015625,-48.33984375,-81.0546875,-61.5234375,0.0
1676922424.2698715,-16.6015625,-87.40234375,-85.9375,-59.08203125,0.0
1676922424.2736216,-20.99609375,-42.48046875,-75.68359375,-46.38671875,0.0
1676922424.2773714,-17.578125,21.97265625,-56.15234375,-30.76171875,0.0
1676922424.2811213,-3.41796875,-42.96875,-56.15234375,-11.71875,0.0
1676922424.2848713,-8.7890625,-104.98046875,-67.87109375,1.46484375,0.0
1676922424.2886214,-16.6015625,56.640625,-49.8046875,-10.7421875,0.0
1676922424.2923713,-10.25390625,68.359375,-51.7578125,-13.18359375,0.0
1676922424.2961137,-9.27734375,-16.6015625,-68.84765625,-18.06640625,0.0
1676922424.299856,-10.25390625,-5.859375,-66.40625,-15.625,0.0
1676922424.3035984,-10.25390625,6.34765625,-62.01171875,-10.25390625,0.0
1676922424.3073409,-10.25390625,-35.15625,-63.96484375,-10.7421875,0.0
1676922424.311083,-8.7890625,-52.24609375,-63.96484375,-7.8125,0.0
1676922424.3148255,-6.34765625,-53.22265625,-60.546875,1.953125,0.0
1676922424.318568,-15.13671875,-34.66796875,-58.59375,-14.6484375,0.0
1676922424.3223102,-19.53125,-38.0859375,-65.4296875,-31.73828125,0.0
1676922424.3260527,-20.01953125,-140.13671875,-77.1484375,-23.92578125,0.0
1676922424.3297951,-28.3203125,-74.70703125,-73.2421875,-27.34375,0.0
1676922424.3335373,-30.76171875,50.29296875,-61.03515625,-28.3203125,0.0
1676922424.3372798,-20.01953125,-17.08984375,-65.91796875,-16.11328125,0.0
1676922424.3410373,-5.37109375,-57.6171875,-62.5,-9.765625,0.0
1676922424.3447948,1.46484375,20.99609375,-50.78125,-2.9296875,0.0
1676922424.3485522,-3.41796875,40.52734375,-63.4765625,10.25390625,0.0
1676922424.3523097,0.0,-15.13671875,-67.3828125,10.25390625,0.0
1676922424.3560672,1.46484375,-19.04296875,-60.546875,4.8828125,0.0
1676922424.3598247,-3.41796875,-0.9765625,-65.4296875,-2.44140625,0.0
1676922424.3635821,-1.46484375,2.44140625,-78.125,-8.7890625,0.0
1676922424.3673396,6.8359375,-40.52734375,-86.42578125,0.0,0.0
1676922424.371097,8.30078125,-45.8984375,-85.9375,3.90625,0.0
1676922424.3748546,1.46484375,83.49609375,-65.91796875,-11.23046875,0.0
1676922424.378612,8.30078125,63.4765625,-58.10546875,-3.90625,0.0
1676922424.3823695,15.625,-4.39453125,-70.80078125,0.0,0.0
1676922424.3862035,4.8828125,1.46484375,-77.1484375,-13.18359375,0.0
1676922424.3900375,-2.44140625,49.8046875,-65.4296875,-16.11328125,0.0
1676922424.3938718,-5.859375,38.57421875,-64.453125,-17.08984375,0.0
1676922424.3977058,-7.32421875,-9.27734375,-73.2421875,-4.8828125,0.0
1676922424.4015398,-5.859375,21.484375,-60.546875,11.71875,0.0
1676922424.405374,-8.7890625,28.80859375,-55.17578125,12.6953125,0.0
1676922424.409208,-5.37109375,16.6015625,-59.08203125,12.20703125,0.0
1676922424.413042,7.8125,-31.25,-60.05859375,23.92578125,0.0
1676922424.416876,0.9765625,30.2734375,-50.78125,3.90625,0.0
1676922424.42071,-9.27734375,108.88671875,-48.33984375,-19.04296875,0.0
1676922424.4245443,-1.953125,48.33984375,-63.96484375,-15.13671875,0.0
1676922424.4283783,2.9296875,28.3203125,-67.3828125,-16.6015625,0.0
1676922424.432044,-2.44140625,53.7109375,-61.03515625,-32.2265625,0.0
1676922424.43571,-5.859375,41.015625,-65.4296875,-43.45703125,0.0
1676922424.4393759,-4.8828125,-19.53125,-78.61328125,-46.38671875,0.0
1676922424.4430416,-9.27734375,-18.5546875,-79.58984375,-46.875,0.0
1676922424.4467072,-15.13671875,43.9453125,-70.80078125,-44.43359375,0.0
1676922424.4503732,-9.27734375,20.01953125,-75.1953125,-36.62109375,0.0
1676922424.454039,-6.8359375,-45.8984375,-83.0078125,-19.53125,0.0
1676922424.4577048,-14.16015625,-70.80078125,-77.1484375,-5.859375,0.0
1676922424.4613705,-17.578125,81.54296875,-50.78125,-13.18359375,0.0
1676922424.4650364,-8.7890625,106.4453125,-50.78125,-14.16015625,0.0
1676922424.4687023,-12.6953125,12.6953125,-66.40625,-19.04296875,0.0
1676922424.472368,-12.6953125,30.76171875,-56.15234375,-29.78515625,0.0
1676922424.4761147,-10.7421875,45.8984375,-55.17578125,-36.1328125,0.0
1676922424.4798615,-11.23046875,11.71875,-70.80078125,-34.1796875,0.0
1676922424.4836082,-3.41796875,-7.8125,-73.73046875,-21.484375,0.0
1676922424.4873548,-0.9765625,19.53125,-62.5,-20.99609375,0.0
1676922424.4911015,5.37109375,15.13671875,-53.22265625,-14.6484375,0.0
1676922424.4948483,4.8828125,-25.87890625,-60.05859375,-18.5546875,0.0
1676922424.498595,5.37109375,-107.421875,-70.80078125,-14.16015625,0.0
1676922424.5023417,1.953125,-38.57421875,-61.03515625,-21.97265625,0.0
1676922424.5060883,4.39453125,115.72265625,-44.921875,-26.85546875,0.0
1676922424.509835,8.30078125,37.59765625,-62.01171875,-11.71875,0.0
1676922424.5135818,2.44140625,-15.13671875,-74.21875,-19.53125,0.0
1676922424.5173285,8.30078125,45.41015625,-64.453125,-21.97265625,0.0
1676922424.52109,15.625,55.6640625,-56.15234375,-11.71875,0.0
1676922424.5248518,18.5546875,-2.44140625,-60.546875,-0.48828125,0.0
1676922424.5286133,12.20703125,-22.94921875,-63.4765625,-5.859375,0.0
1676922424.5323749,9.27734375,25.87890625,-57.6171875,-14.6484375,0.0
1676922424.5361364,6.34765625,26.85546875,-70.80078125,-13.671875,0.0
1676922424.539898,11.23046875,-75.68359375,-83.0078125,8.30078125,0.0
1676922424.5436597,19.04296875,-66.40625,-67.87109375,13.18359375,0.0
1676922424.5474212,9.765625,67.3828125,-50.78125,0.0,0.0
1676922424.5511827,11.23046875,47.36328125,-54.6875,15.625,0.0
1676922424.5549445,27.34375,-62.5,-67.3828125,38.57421875,0.0
1676922424.558706,17.08984375,-25.390625,-68.359375,27.83203125,0.0
1676922424.5624676,10.25390625,86.42578125,-51.26953125,11.23046875,0.0
1676922424.567459,21.484375,39.0625,-55.17578125,18.06640625,0.0
1676922424.5724509,21.97265625,8.7890625,-69.3359375,9.765625,0.0
1676922424.5774424,12.6953125,31.25,-77.1484375,-6.8359375,0.0
1676922424.582434,12.20703125,43.45703125,-74.70703125,-11.23046875,0.0
1676922424.5874257,15.13671875,20.01953125,-72.265625,-5.37109375,0.0
1676922424.5924172,19.53125,-27.34375,-76.171875,3.90625,0.0
1676922424.5974088,23.4375,16.6015625,-65.4296875,1.46484375,0.0
1676922424.6024005,19.04296875,73.2421875,-59.5703125,-7.32421875,0.0
1676922424.607392,22.4609375,19.53125,-71.2890625,-1.953125,0.0
1676922424.6123836,22.94921875,-26.85546875,-76.66015625,-3.90625,0.0
1676922424.6173754,23.4375,31.73828125,-66.40625,1.46484375,0.0
1676922424.622367,31.25,44.43359375,-65.4296875,14.6484375,0.0
1676922424.6274695,26.3671875,4.8828125,-64.453125,16.6015625,0.0
1676922424.632572,20.01953125,11.71875,-57.6171875,10.7421875,0.0
1676922424.6376743,11.71875,75.1953125,-53.22265625,6.8359375,0.0
1676922424.642777,1.46484375,67.87109375,-64.94140625,0.9765625,0.0
1676922424.6478796,-4.8828125,-9.765625,-81.0546875,-11.23046875,0.0
1676922424.652982,-3.90625,-33.69140625,-73.2421875,-23.4375,0.0
1676922424.6580844,-4.8828125,26.3671875,-58.10546875,-27.34375,0.0
1676922424.663187,-7.8125,61.5234375,-53.22265625,-15.625,0.0
1676922424.6682897,0.9765625,-53.22265625,-67.87109375,0.9765625,0.0
1676922424.673392,6.8359375,-76.66015625,-68.84765625,3.90625,0.0
1676922424.6784945,0.9765625,71.77734375,-52.734375,-10.7421875,0.0
1676922424.683597,6.8359375,49.8046875,-64.453125,-7.32421875,0.0
1676922424.6859944,9.27734375,-1.953125,-60.546875,3.90625,0.0
1676922424.6883917,6.34765625,25.390625,-47.8515625,-3.90625,0.0
1676922424.690789,7.8125,9.27734375,-47.8515625,-16.6015625,0.0
1676922424.6931863,2.9296875,-28.3203125,-45.8984375,-12.6953125,0.0
1676922424.6955836,-3.90625,-16.6015625,-46.38671875,-5.859375,0.0
1676922424.6979809,-11.23046875,-15.13671875,-48.828125,-5.859375,0.0
1676922424.700378,-15.625,18.06640625,-41.9921875,-8.7890625,0.0
1676922424.7027752,-8.30078125,17.08984375,-39.55078125,-0.9765625,0.0
1676922424.7051725,-3.41796875,-11.23046875,-44.43359375,7.32421875,0.0
1676922424.7075698,-9.765625,29.296875,-42.96875,-8.7890625,0.0
1676922424.7099671,-13.18359375,29.78515625,-37.59765625,-18.06640625,0.0
1676922424.7123644,-6.8359375,-13.18359375,-35.15625,-13.18359375,0.0
1676922424.7161229,-1.46484375,-132.32421875,-52.24609375,1.953125,0.0
1676922424.7198813,-8.30078125,-35.15625,-40.0390625,-4.8828125,0.0
1676922424.7236395,-8.7890625,96.6796875,-14.16015625,-19.53125,0.0
1676922424.727398,-1.46484375,-6.8359375,-25.390625,-20.5078125,0.0
1676922424.7311563,2.9296875,-29.78515625,-36.62109375,-24.90234375,0.0
1676922424.7349148,3.41796875,-22.94921875,-39.55078125,-29.296875,0.0
1676922424.7386732,-3.41796875,-18.06640625,-41.50390625,-39.55078125,0.0
1676922424.7424316,8.30078125,-55.17578125,-41.015625,-34.1796875,0.0
1676922424.74619,13.18359375,-85.44921875,-38.57421875,-10.25390625,0.0
1676922424.7499483,1.953125,66.89453125,-21.97265625,-11.23046875,0.0
1676922424.7537067,16.6015625,82.51953125,-7.8125,-18.06640625,0.0
1676922424.7574651,20.01953125,17.08984375,-5.37109375,-14.16015625,0.0
1676922424.7612085,4.8828125,48.828125,-6.8359375,-15.625,0.0
1676922424.764952,-2.44140625,60.05859375,-8.7890625,-10.25390625,0.0
1676922424.7686954,-2.44140625,-0.9765625,-24.90234375,-3.90625,0.0
1676922424.7724388,-7.32421875,-29.296875,-33.203125,-10.25390625,0.0
1676922424.7761822,-13.18359375,10.7421875,-31.73828125,-21.484375,0.0
1676922424.7799256,-14.6484375,-26.3671875,-40.52734375,-23.4375,0.0
1676922424.783669,-17.578125,-53.7109375,-41.50390625,-28.3203125,0.0
1676922424.7874124,-12.20703125,-11.23046875,-30.76171875,-39.0625,0.0
1676922424.7911558,-3.90625,-0.48828125,-24.90234375,-42.96875,0.0
1676922424.7948992,-2.44140625,7.8125,-24.90234375,-37.59765625,0.0
1676922424.7986426,-8.7890625,-6.8359375,-27.83203125,-24.4140625,0.0
1676922424.802386,-6.34765625,-27.83203125,-26.85546875,-18.5546875,0.0
1676922424.806131,-1.46484375,17.08984375,-19.04296875,-20.5078125,0.0
1676922424.8098757,-1.46484375,37.59765625,-22.94921875,-8.7890625,0.0
1676922424.8136206,3.90625,-20.01953125,-36.1328125,5.37109375,0.0
1676922424.8173654,5.37109375,-94.7265625,-49.31640625,9.27734375,0.0
1676922424.8211102,-7.32421875,31.25,-26.85546875,-10.7421875,0.0
1676922424.8248549,-7.32421875,54.6875,-16.6015625,-4.8828125,0.0
1676922424.8285997,4.8828125,-53.7109375,-32.71484375,13.671875,0.0
1676922424.8323445,-6.8359375,-39.55078125,-41.9921875,3.90625,0.0
1676922424.8360894,-10.25390625,67.87109375,-33.203125,-21.97265625,0.0
1676922424.8398342,8.30078125,48.828125,-30.2734375,-20.99609375,0.0
1676922424.843579,13.671875,-14.6484375,-37.109375,-10.25390625,0.0
1676922424.847324,5.859375,-31.73828125,-38.0859375,-18.5546875,0.0
1676922424.851177,-6.34765625,-3.90625,-38.0859375,-41.50390625,0.0
1676922424.8550298,1.46484375,19.53125,-28.3203125,-58.59375,0.0
1676922424.858883,10.7421875,-36.62109375,-27.83203125,-48.828125,0.0
1676922424.862736,0.48828125,-7.8125,-27.34375,-49.31640625,0.0
1676922424.8665888,-2.44140625,29.296875,-26.3671875,-61.03515625,0.0
1676922424.870442,-7.8125,-20.5078125,-30.76171875,-57.12890625,0.0
1676922424.874295,-9.765625,-73.73046875,-33.69140625,-41.9921875,0.0
1676922424.8781478,-4.8828125,-4.8828125,-20.99609375,-48.828125,0.0
1676922424.882001,-11.23046875,61.5234375,-13.18359375,-67.3828125,0.0
1676922424.885854,-6.8359375,4.39453125,-16.11328125,-65.91796875,0.0
1676922424.8897069,-7.32421875,-8.30078125,-25.390625,-69.82421875,0.0
1676922424.89356,-12.20703125,27.83203125,-34.1796875,-76.171875,0.0
1676922424.897211,-2.44140625,41.015625,-21.97265625,-72.265625,0.0
1676922424.9008622,0.0,-1.46484375,-20.99609375,-61.03515625,0.0
1676922424.9045134,-3.41796875,-24.4140625,-26.85546875,-62.5,0.0
1676922424.9081645,-4.39453125,37.59765625,-10.7421875,-66.40625,0.0
1676922424.9118156,0.0,47.8515625,-9.27734375,-64.94140625,0.0
1676922424.9154668,0.0,-51.26953125,-28.80859375,-55.17578125,0.0
1676922424.919118,4.39453125,-108.88671875,-33.203125,-36.62109375,0.0
1676922424.922769,-1.46484375,38.57421875,-17.578125,-44.921875,0.0
1676922424.9264202,-2.9296875,84.47265625,-21.484375,-50.78125,0.0
1676922424.9300714,12.6953125,0.0,-29.78515625,-29.78515625,0.0
1676922424.9337225,15.625,24.90234375,-20.01953125,-24.90234375,0.0
1676922424.9373736,7.32421875,46.38671875,-24.4140625,-28.80859375,0.0
1676922424.9423735,1.953125,13.18359375,-38.0859375,-16.6015625,0.0
1676922424.9473734,-3.90625,-12.20703125,-41.50390625,-9.27734375,0.0
1676922424.9523733,4.8828125,20.01953125,-34.66796875,-7.32421875,0.0
1676922424.9573731,12.6953125,54.6875,-24.4140625,-7.32421875,0.0
1676922424.962373,7.8125,10.25390625,-29.296875,-3.41796875,0.0
1676922424.967373,7.8125,-39.0625,-40.0390625,6.8359375,0.0
1676922424.9723725,14.16015625,-20.99609375,-35.64453125,7.8125,0.0
1676922424.9773724,14.6484375,29.78515625,-28.80859375,-2.44140625,0.0
1676922424.9823723,19.53125,41.9921875,-29.296875,-1.46484375,0.0
1676922424.9873722,30.76171875,-70.3125,-39.0625,17.578125,0.0
1676922424.992372,25.390625,0.0,-25.87890625,14.16015625,0.0
1676922424.997372,17.578125,118.1640625,-7.8125,1.953125,0.0
1676922425.0011218,20.5078125,31.25,-15.625,12.6953125,0.0
1676922425.0048718,11.71875,12.6953125,-20.01953125,2.9296875,0.0
1676922425.0086217,-0.48828125,48.828125,-16.6015625,-4.8828125,0.0
1676922425.0123715,1.953125,38.0859375,-14.6484375,-2.9296875,0.0
1676922425.0161214,6.8359375,-11.23046875,-21.97265625,-1.953125,0.0
1676922425.0198712,11.71875,-37.109375,-24.90234375,10.25390625,0.0
1676922425.0236213,11.71875,31.73828125,-4.39453125,15.625,0.0
1676922425.0273712,6.8359375,67.3828125,7.8125,13.18359375,0.0
1676922425.031121,0.9765625,-36.62109375,-9.27734375,16.11328125,0.0
1676922425.034871,-3.41796875,-81.54296875,-29.78515625,8.7890625,0.0
1676922425.038621,-3.90625,63.4765625,-19.04296875,-7.8125,0.0
1676922425.0423708,0.0,72.75390625,-13.18359375,-11.71875,0.0
1676922425.0461023,-1.46484375,22.4609375,-21.484375,-11.23046875,0.0
1676922425.0498338,0.48828125,45.41015625,-12.20703125,4.39453125,0.0
1676922425.0535655,5.859375,56.15234375,-3.41796875,3.41796875,0.0
1676922425.057297,10.7421875,19.04296875,-13.18359375,-5.859375,0.0
1676922425.0610285,12.6953125,-11.23046875,-17.578125,-16.6015625,0.0
1676922425.06476,10.25390625,-14.16015625,-23.92578125,-11.23046875,0.0
1676922425.0684915,1.953125,24.4140625,-21.97265625,-12.6953125,0.0
1676922425.072223,-4.8828125,33.69140625,-12.20703125,-21.97265625,0.0
1676922425.0759544,1.953125,-63.4765625,-25.390625,-2.44140625,0.0
1676922425.0796862,-10.25390625,-1.953125,-18.06640625,-6.34765625,0.0
1676922425.0834177,-17.578125,60.546875,-10.25390625,-5.859375,0.0
1676922425.0871491,-18.5546875,-33.69140625,-32.71484375,7.32421875,0.0
1676922425.091132,-26.85546875,-26.3671875,-32.71484375,0.9765625,0.0
1676922425.0951145,-23.4375,32.71484375,-20.01953125,-17.578125,0.0
1676922425.0990973,-9.27734375,40.52734375,-12.6953125,-14.6484375,0.0
1676922425.1030798,-8.30078125,-22.4609375,-17.08984375,-6.34765625,0.0
1676922425.1070626,-16.11328125,-40.52734375,-27.83203125,-16.6015625,0.0
1676922425.1110454,-15.625,-15.625,-31.25,-23.4375,0.0
1676922425.115028,-10.7421875,18.06640625,-22.94921875,-33.203125,0.0
1676922425.1190107,-5.859375,-33.203125,-34.1796875,-35.15625,0.0
1676922425.1229932,-12.6953125,-71.77734375,-36.62109375,-36.1328125,0.0
1676922425.126976,-17.08984375,39.0625,-14.16015625,-44.921875,0.0
1676922425.1309586,-12.6953125,27.83203125,-15.625,-24.90234375,0.0
1676922425.1349413,-16.6015625,-44.43359375,-28.3203125,-16.6015625,0.0
1676922425.1385794,-20.99609375,-9.27734375,-30.76171875,-20.99609375,0.0
1676922425.1422172,-17.08984375,31.25,-24.90234375,-12.20703125,0.0
1676922425.1458552,-8.30078125,-23.92578125,-24.4140625,-4.8828125,0.0
1676922425.149493,-9.765625,-9.765625,-22.4609375,-7.8125,0.0
1676922425.153131,-14.16015625,34.1796875,-16.11328125,-16.6015625,0.0
1676922425.1567688,-6.8359375,-3.90625,-17.578125,-18.06640625,0.0
1676922425.1604068,-8.7890625,-16.11328125,-21.484375,-28.3203125,0.0
1676922425.1640449,-8.7890625,-86.9140625,-32.2265625,-20.99609375,0.0
1676922425.1676826,-15.13671875,-76.171875,-29.78515625,-23.92578125,0.0
1676922425.1713207,-18.06640625,104.00390625,-7.8125,-42.48046875,0.0
1676922425.1749585,0.9765625,65.91796875,-17.578125,-27.34375,0.0
1676922425.1785965,9.27734375,8.30078125,-34.1796875,-19.04296875,0.0
1676922425.1822402,5.859375,61.03515625,-32.2265625,-27.34375,0.0
1676922425.1858842,2.44140625,53.22265625,-31.25,-31.73828125,0.0
1676922425.189528,-1.953125,-9.765625,-43.9453125,-26.85546875,0.0
1676922425.1931717,-0.48828125,-3.41796875,-46.38671875,-17.578125,0.0
1676922425.1968157,0.9765625,33.203125,-41.50390625,-12.6953125,0.0
1676922425.2004595,3.41796875,14.6484375,-45.41015625,-8.7890625,0.0
1676922425.2041032,-3.41796875,-38.0859375,-52.734375,-9.27734375,0.0
1676922425.2077472,-13.671875,-74.70703125,-63.4765625,-3.41796875,0.0
1676922425.211391,-10.25390625,71.77734375,-39.0625,-7.8125,0.0
1676922425.2150347,2.44140625,96.19140625,-24.4140625,0.48828125,0.0
1676922425.2186787,-1.953125,18.06640625,-27.83203125,-1.46484375,0.0
1676922425.2223225,-2.9296875,47.8515625,-15.13671875,-12.20703125,0.0
1676922425.2260752,9.765625,72.265625,-9.27734375,-5.37109375,0.0
1676922425.229828,14.16015625,30.76171875,-10.7421875,-5.37109375,0.0
1676922425.2335806,7.8125,-4.39453125,-25.87890625,-17.08984375,0.0
