timestamps,TP9,Fp1,Fp2,TP10,stim
1676924564.2811925,16.6015625,145.01953125,-44.921875,59.5703125,0.0
1676924564.284938,31.25,134.765625,124.0234375,72.265625,0.0
1676924564.2886837,34.1796875,116.2109375,-123.046875,46.38671875,0.0
1676924564.2924292,23.4375,123.046875,-171.38671875,35.64453125,0.0
1676924564.2962847,15.13671875,115.72265625,-77.63671875,58.59375,0.0
1676924564.3001401,23.4375,89.35546875,-167.48046875,77.63671875,0.0
1676924564.3039956,23.92578125,80.56640625,-302.734375,65.4296875,0.0
1676924564.3078508,11.71875,94.7265625,-161.1328125,37.59765625,0.0
1676924564.3117063,25.390625,101.07421875,42.48046875,39.0625,0.0
1676924564.3155618,33.69140625,83.0078125,-128.41796875,71.77734375,0.0
1676924564.3194172,22.94921875,79.1015625,-480.46875,61.03515625,0.0
1676924564.3232727,23.4375,110.83984375,-281.25,32.2265625,0.0
1676924564.327128,19.04296875,126.953125,145.5078125,31.25,0.0
1676924564.3309834,19.04296875,104.98046875,12.20703125,66.40625,0.0
1676924564.3348389,31.25,106.93359375,-114.74609375,80.56640625,0.0
1676924564.3386943,17.08984375,129.8828125,20.99609375,37.59765625,0.0
1676924564.3423493,5.859375,138.18359375,111.81640625,16.11328125,0.0
1676924564.3460042,10.7421875,144.04296875,-68.84765625,40.52734375,0.0
1676924564.3496592,22.94921875,159.66796875,-128.90625,67.3828125,0.0
1676924564.3533142,37.109375,178.22265625,11.23046875,45.8984375,0.0
1676924564.356969,27.34375,179.19921875,-61.03515625,7.8125,0.0
1676924564.3606238,15.13671875,162.59765625,-386.71875,35.15625,0.0
1676924564.3642788,25.390625,170.8984375,-699.21875,67.87109375,0.0
1676924564.3679338,20.99609375,213.8671875,-213.8671875,24.90234375,0.0
1676924564.3715887,11.71875,195.80078125,92.7734375,-5.37109375,0.0
1676924564.3752437,5.859375,177.24609375,-115.72265625,-0.9765625,0.0
1676924564.3788986,4.8828125,181.15234375,-34.66796875,34.1796875,0.0
1676924564.3825536,2.44140625,168.9453125,121.09375,33.203125,0.0
1676924564.3875473,-14.16015625,160.15625,53.22265625,-20.99609375,0.0
1676924564.3925412,-22.94921875,161.1328125,-117.67578125,-41.015625,0.0
1676924564.3975348,-41.015625,175.78125,-95.21484375,-22.94921875,0.0
1676924564.4025288,-50.29296875,188.4765625,59.08203125,-34.1796875,0.0
1676924564.4075224,-53.7109375,189.453125,-23.4375,-78.125,0.0
1676924564.412516,-72.75390625,203.125,-323.73046875,-98.14453125,0.0
1676924564.41751,-94.7265625,247.0703125,-240.234375,-104.00390625,0.0
1676924564.4225037,-125.0,258.7890625,-58.59375,-111.328125,0.0
1676924564.4274976,-151.85546875,243.65234375,-164.55078125,-146.484375,0.0
1676924564.4324913,-179.6875,229.98046875,-559.5703125,-177.24609375,0.0
1676924564.4374852,-213.37890625,256.34765625,-409.1796875,-204.58984375,0.0
1676924564.442479,-251.953125,275.87890625,85.44921875,-246.09375,0.0
1676924564.4462852,-266.6015625,262.20703125,-86.9140625,-267.578125,0.0
1676924564.4500916,-293.9453125,268.06640625,-161.62109375,-303.7109375,0.0
1676924564.453898,-321.77734375,276.3671875,19.04296875,-334.9609375,0.0
1676924564.4577043,-327.1484375,270.01953125,52.734375,-317.3828125,0.0
1676924564.4615107,-329.1015625,253.41796875,-110.3515625,-319.82421875,0.0
1676924564.465317,-322.265625,232.91015625,-307.12890625,-350.09765625,0.0
1676924564.4691234,-330.078125,234.86328125,-196.2890625,-361.81640625,0.0
1676924564.4729297,-316.89453125,244.140625,65.91796875,-329.1015625,0.0
1676924564.476736,-298.33984375,209.9609375,-254.39453125,-284.1796875,0.0
1676924564.4805424,-293.9453125,199.70703125,-483.3984375,-285.64453125,0.0
1676924564.4843488,-271.484375,233.3984375,-25.87890625,-298.33984375,0.0
1676924564.4881551,-248.046875,214.84375,-73.73046875,-277.83203125,0.0
1676924564.4918792,-233.88671875,209.47265625,-233.3984375,-235.3515625,0.0
1676924564.4956033,-208.984375,219.7265625,-54.19921875,-221.19140625,0.0
1676924564.4993274,-194.82421875,214.84375,81.54296875,-242.1875,0.0
1676924564.5030515,-198.73046875,195.80078125,-7.32421875,-214.84375,0.0
1676924564.5067756,-172.8515625,172.8515625,-208.0078125,-149.4140625,0.0
1676924564.5104997,-145.99609375,160.64453125,-249.51171875,-141.6015625,0.0
1676924564.5142238,-144.53125,148.4375,-213.8671875,-165.0390625,0.0
1676924564.517948,-129.8828125,153.80859375,-110.83984375,-148.4375,0.0
1676924564.521672,-114.2578125,140.13671875,-459.9609375,-94.23828125,0.0
1676924564.525396,-107.91015625,171.38671875,-427.24609375,-73.2421875,0.0
1676924564.5291202,-90.33203125,199.70703125,101.5625,-93.75,0.0
1676924564.5328443,-73.2421875,180.6640625,-53.7109375,-88.37890625,0.0
1676924564.536544,-53.22265625,191.40625,-148.4375,-29.296875,0.0
1676924564.5402436,-30.76171875,240.234375,63.96484375,4.8828125,0.0
1676924564.5439434,-23.92578125,251.46484375,67.87109375,-19.04296875,0.0
1676924564.547643,-29.78515625,221.19140625,-278.3203125,-18.06640625,0.0
1676924564.5513427,-13.18359375,229.4921875,-327.63671875,20.5078125,0.0
1676924564.5550423,8.7890625,240.234375,-185.546875,53.7109375,0.0
1676924564.558742,12.6953125,257.32421875,-74.21875,47.36328125,0.0
1676924564.5624418,15.13671875,229.00390625,-262.6953125,41.015625,0.0
1676924564.5661414,2.9296875,217.7734375,-548.33984375,68.84765625,0.0
1676924564.5698411,7.32421875,251.953125,-36.62109375,102.5390625,0.0
1676924564.5735407,38.0859375,229.00390625,119.62890625,117.67578125,0.0
1676924564.5772405,42.96875,201.171875,-78.125,95.703125,0.0
1676924564.5810213,43.45703125,220.703125,-74.21875,97.16796875,0.0
1676924564.584802,51.7578125,247.0703125,77.63671875,138.18359375,0.0
1676924564.5885825,59.5703125,201.171875,63.96484375,152.83203125,0.0
1676924564.5923634,69.3359375,225.09765625,-63.96484375,133.30078125,0.0
1676924564.5961442,64.94140625,250.48828125,-9.765625,107.91015625,0.0
1676924564.5999248,70.80078125,218.26171875,-129.39453125,125.48828125,0.0
1676924564.6037054,88.37890625,266.11328125,-187.98828125,169.921875,0.0
1676924564.6074862,84.9609375,277.34375,-531.25,174.8046875,0.0
1676924564.611267,79.58984375,265.625,-500.0,138.18359375,0.0
1676924564.6150477,83.0078125,297.8515625,143.06640625,128.41796875,0.0
1676924564.6188283,84.9609375,263.671875,30.2734375,152.34375,0.0
1676924564.6226091,84.9609375,239.74609375,-90.33203125,136.23046875,0.0
1676924564.6263452,72.265625,291.9921875,97.16796875,109.86328125,0.0
1676924564.630081,66.40625,268.06640625,145.99609375,117.1875,0.0
1676924564.633817,69.82421875,214.84375,-50.78125,132.32421875,0.0
1676924564.6375527,59.5703125,241.2109375,-91.30859375,105.95703125,0.0
1676924564.6412888,59.08203125,255.37109375,20.01953125,70.3125,0.0
1676924564.6450248,61.5234375,229.98046875,-114.74609375,58.59375,0.0
1676924564.6487606,62.98828125,204.58984375,-433.59375,82.03125,0.0
1676924564.6524966,67.87109375,204.58984375,-494.140625,99.12109375,0.0
1676924564.6562324,72.75390625,208.49609375,0.0,74.70703125,0.0
1676924564.6599684,75.1953125,157.2265625,94.23828125,63.96484375,0.0
1676924564.6637042,64.94140625,158.203125,-185.546875,90.8203125,0.0
1676924564.6674402,66.40625,201.66015625,-81.54296875,106.93359375,0.0
1676924564.6712246,79.58984375,203.125,184.5703125,77.1484375,0.0
1676924564.6750088,68.84765625,176.26953125,86.42578125,69.82421875,0.0
1676924564.6787932,62.01171875,160.15625,-131.8359375,97.16796875,0.0
1676924564.6825774,64.94140625,182.12890625,-33.203125,113.76953125,0.0
1676924564.6863618,65.91796875,162.59765625,89.84375,98.6328125,0.0
1676924564.690146,70.3125,101.5625,-87.890625,77.63671875,0.0
1676924564.6939304,66.89453125,127.44140625,-430.6640625,85.44921875,0.0
1676924564.6977148,63.4765625,197.75390625,-286.1328125,95.703125,0.0
1676924564.701499,61.03515625,213.8671875,123.53515625,84.47265625,0.0
1676924564.7052834,57.12890625,187.01171875,5.37109375,63.96484375,0.0
1676924564.7090676,47.8515625,152.34375,-147.4609375,48.828125,0.0
1676924564.712852,44.921875,116.2109375,-44.921875,69.82421875,0.0
1676924564.7165775,46.875,73.2421875,104.98046875,81.54296875,0.0
1676924564.720303,31.25,86.42578125,-135.25390625,66.89453125,0.0
1676924564.7240286,14.6484375,125.9765625,-291.9921875,48.33984375,0.0
1676924564.727754,22.94921875,111.328125,20.99609375,49.8046875,0.0
1676924564.7314796,33.203125,93.75,159.66796875,72.75390625,0.0
1676924564.7352052,24.90234375,83.49609375,-246.58203125,73.73046875,0.0
1676924564.7389305,8.30078125,91.30859375,-744.62890625,48.33984375,0.0
1676924564.742656,1.953125,126.953125,-256.8359375,41.9921875,0.0
1676924564.7463815,2.44140625,102.5390625,153.80859375,66.40625,0.0
1676924564.750107,1.953125,54.6875,-69.3359375,66.89453125,0.0
1676924564.7538326,-2.9296875,45.41015625,-61.5234375,41.50390625,0.0
1676924564.757558,-4.39453125,47.36328125,74.21875,29.296875,0.0
1676924564.7625585,5.859375,30.76171875,24.90234375,48.33984375,0.0
1676924564.7675588,12.6953125,47.8515625,-34.66796875,46.38671875,0.0
1676924564.7725592,11.71875,71.2890625,-13.18359375,28.3203125,0.0
1676924564.7775598,6.34765625,95.21484375,69.82421875,26.85546875,0.0
1676924564.78256,18.06640625,107.91015625,-34.66796875,53.7109375,0.0
1676924564.7875605,33.203125,64.94140625,-300.78125,75.1953125,0.0
1676924564.7925608,13.18359375,17.08984375,-353.515625,52.24609375,0.0
1676924564.7975612,-1.953125,59.5703125,-146.97265625,20.5078125,0.0
1676924564.8025618,5.859375,91.30859375,-2.44140625,33.203125,0.0
1676924564.807562,1.953125,39.0625,-514.6484375,76.66015625,0.0
1676924564.8125625,0.48828125,100.09765625,-443.84765625,64.453125,0.0
1676924564.8175628,4.39453125,167.48046875,107.91015625,18.5546875,0.0
1676924564.8213003,1.953125,138.671875,-61.03515625,26.3671875,0.0
1676924564.825038,0.9765625,129.8828125,-132.8125,54.19921875,0.0
1676924564.8287754,5.859375,127.9296875,64.94140625,39.0625,0.0
1676924564.8325129,21.97265625,98.6328125,78.61328125,10.7421875,0.0
1676924564.8362503,20.99609375,74.70703125,-105.46875,29.296875,0.0
1676924564.8399878,19.04296875,63.96484375,-302.24609375,66.89453125,0.0
1676924564.8437254,21.484375,62.98828125,-173.33984375,65.91796875,0.0
1676924564.847463,22.4609375,46.38671875,114.2578125,27.34375,0.0
1676924564.8512003,15.13671875,-8.7890625,-291.015625,26.85546875,0.0
1676924564.854938,5.37109375,-11.71875,-603.02734375,51.7578125,0.0
1676924564.8586755,3.90625,-5.859375,-26.3671875,45.8984375,0.0
1676924564.862413,1.953125,-52.24609375,115.234375,21.484375,0.0
1676924564.8661735,-14.6484375,-33.69140625,-84.9609375,26.85546875,0.0
1676924564.869934,-17.08984375,49.8046875,-41.015625,59.5703125,0.0
1676924564.873695,0.0,101.07421875,148.92578125,77.63671875,0.0
1676924564.8774555,-2.44140625,111.328125,95.703125,60.546875,0.0
1676924564.881216,-24.4140625,98.6328125,-70.3125,25.87890625,0.0
1676924564.8849766,-16.6015625,92.28515625,-158.203125,30.76171875,0.0
1676924564.8887372,-4.39453125,102.05078125,-117.1875,53.22265625,0.0
1676924564.8924978,-15.13671875,73.2421875,-14.6484375,36.1328125,0.0
1676924564.8962584,-21.97265625,51.26953125,-353.02734375,9.765625,0.0
1676924564.9000192,-8.30078125,109.375,-264.16015625,0.9765625,0.0
1676924564.9037797,1.953125,119.62890625,125.0,21.484375,0.0
1676924564.9075403,0.9765625,58.10546875,-24.90234375,41.015625,0.0
1676924564.91136,-0.48828125,73.2421875,-241.69921875,19.53125,0.0
1676924564.9151797,-13.18359375,130.37109375,-171.38671875,-16.11328125,0.0
1676924564.9189992,-17.578125,142.08984375,62.5,-5.37109375,0.0
1676924564.922819,-7.32421875,128.90625,-97.65625,30.2734375,0.0
1676924564.9266386,-13.18359375,127.44140625,-327.63671875,12.6953125,0.0
1676924564.9304583,-33.69140625,126.953125,-249.51171875,-27.34375,0.0
1676924564.934278,-40.0390625,104.98046875,-188.96484375,-16.11328125,0.0
1676924564.9380977,-32.71484375,66.40625,-376.46484375,34.1796875,0.0
1676924564.9419174,-18.5546875,66.40625,-456.0546875,38.57421875,0.0
1676924564.945737,-29.296875,86.42578125,12.6953125,-5.37109375,0.0
1676924564.9495566,-29.296875,27.83203125,54.6875,-2.9296875,0.0
1676924564.9533763,-3.90625,34.1796875,-79.1015625,37.59765625,0.0
1676924564.9570522,0.48828125,78.125,-3.41796875,31.25,0.0
1676924564.9607284,-6.8359375,49.31640625,85.44921875,1.46484375,0.0
1676924564.9644043,-19.53125,24.4140625,17.08984375,-1.46484375,0.0
1676924564.9680803,-23.92578125,41.015625,-129.8828125,29.296875,0.0
1676924564.9717565,-10.7421875,26.85546875,-189.94140625,41.9921875,0.0
1676924564.9754324,-12.6953125,14.16015625,-251.46484375,9.27734375,0.0
1676924564.9791083,-19.53125,9.765625,-191.89453125,-9.27734375,0.0
1676924564.9827845,-17.08984375,4.8828125,-533.69140625,28.80859375,0.0
1676924564.9864604,-23.4375,49.31640625,-567.3828125,43.9453125,0.0
1676924564.9901364,-21.484375,69.3359375,92.28515625,17.578125,0.0
1676924564.9938126,-17.578125,66.89453125,44.921875,1.46484375,0.0
1676924564.9974885,-25.87890625,80.56640625,-118.65234375,-4.8828125,0.0
1676924565.002491,-22.4609375,76.171875,85.44921875,20.5078125,0.0
1676924565.0074933,-13.18359375,50.29296875,154.296875,28.80859375,0.0
1676924565.0124958,-16.6015625,32.2265625,-103.515625,6.8359375,0.0
1676924565.017498,-14.6484375,39.0625,-113.28125,6.34765625,0.0
1676924565.0225005,-16.11328125,38.0859375,86.42578125,34.66796875,0.0
1676924565.027503,-22.94921875,24.4140625,-41.015625,47.36328125,0.0
1676924565.0325053,-31.25,9.27734375,-372.0703125,18.06640625,0.0
1676924565.0375078,-40.0390625,11.23046875,-626.953125,-6.34765625,0.0
1676924565.04251,-33.203125,50.78125,-222.16796875,6.8359375,0.0
1676924565.0475125,-23.92578125,51.26953125,109.86328125,13.18359375,0.0
1676924565.0525148,-25.390625,52.24609375,-191.40625,-13.18359375,0.0
1676924565.0575173,-50.29296875,81.0546875,-220.703125,-38.57421875,0.0
1676924565.0600233,-65.91796875,80.56640625,78.61328125,-33.203125,0.0
1676924565.0625296,-62.01171875,51.7578125,67.3828125,-14.6484375,0.0
1676924565.0650358,-73.73046875,58.59375,-68.84765625,-29.296875,0.0
1676924565.0675418,-88.37890625,81.0546875,-21.484375,-75.68359375,0.0
1676924565.0700479,-99.609375,51.7578125,65.91796875,-91.30859375,0.0
1676924565.072554,-104.00390625,3.41796875,-177.24609375,-58.10546875,0.0
1676924565.0750604,-106.4453125,-2.9296875,-294.43359375,-67.87109375,0.0
1676924565.0775664,-124.51171875,11.71875,-64.453125,-131.34765625,0.0
1676924565.0800724,-141.11328125,3.41796875,93.26171875,-145.01953125,0.0
1676924565.0825787,-165.52734375,-20.01953125,-47.36328125,-137.20703125,0.0
1676924565.085085,-198.2421875,-37.109375,-471.19140625,-145.99609375,0.0
1676924565.087591,-212.890625,-17.08984375,-416.50390625,-185.546875,0.0
1676924565.0914326,-235.3515625,-9.27734375,-0.48828125,-229.00390625,0.0
1676924565.0952744,-269.04296875,-43.9453125,-116.2109375,-220.21484375,0.0
1676924565.099116,-270.5078125,-38.57421875,-274.4140625,-217.7734375,0.0
1676924565.1029577,-287.109375,-1.953125,16.6015625,-272.94921875,0.0
1676924565.1067994,-322.75390625,-6.34765625,78.125,-310.546875,0.0
1676924565.110641,-325.1953125,-40.0390625,-303.7109375,-272.94921875,0.0
1676924565.1144829,-299.8046875,-20.5078125,-429.19921875,-238.28125,0.0
1676924565.1183245,-292.48046875,16.6015625,55.6640625,-257.8125,0.0
1676924565.1221662,-301.26953125,-9.765625,107.421875,-277.34375,0.0
1676924565.126008,-291.015625,-20.01953125,-125.48828125,-263.671875,0.0
1676924565.1298497,-269.53125,-14.6484375,-127.9296875,-219.23828125,0.0
1676924565.1336913,-259.765625,-12.6953125,2.44140625,-208.0078125,0.0
1676924565.1386008,-249.51171875,-13.18359375,17.578125,-224.12109375,0.0
1676924565.1435103,-223.6328125,-14.16015625,-94.23828125,-192.87109375,0.0
1676924565.1484199,-217.28515625,-9.27734375,-121.58203125,-133.30078125,0.0
1676924565.1533296,-208.984375,24.4140625,-65.91796875,-117.1875,0.0
1676924565.1582391,-178.22265625,55.6640625,67.3828125,-139.16015625,0.0
1676924565.1631486,-162.109375,22.4609375,-464.84375,-123.046875,0.0
1676924565.1680582,-133.30078125,48.33984375,-537.59765625,-77.1484375,0.0
1676924565.1729677,-92.7734375,83.984375,94.23828125,-39.0625,0.0
1676924565.1778774,-75.1953125,61.03515625,-11.71875,-24.90234375,0.0
1676924565.182787,-74.70703125,43.9453125,-152.83203125,-24.4140625,0.0
1676924565.1876965,-61.03515625,47.36328125,2.44140625,-19.04296875,0.0
1676924565.192606,-37.59765625,36.62109375,128.41796875,15.13671875,0.0
1676924565.196343,-21.97265625,2.44140625,-47.36328125,33.203125,0.0
1676924565.2000802,-28.80859375,-1.46484375,-171.875,12.6953125,0.0
1676924565.2038171,-39.0625,11.23046875,22.94921875,11.71875,0.0
1676924565.207554,-11.71875,3.41796875,76.66015625,36.62109375,0.0
1676924565.2112913,-24.4140625,-18.5546875,-93.75,44.921875,0.0
1676924565.2150283,-70.80078125,-26.3671875,-312.01171875,36.1328125,0.0
1676924565.2187653,-56.640625,-21.484375,-342.28515625,31.73828125,0.0
1676924565.2225025,-27.83203125,-12.6953125,-113.28125,55.6640625,0.0
1676924565.2262394,-13.671875,-38.57421875,-245.1171875,95.703125,0.0
1676924565.2299764,-15.625,-38.0859375,-614.74609375,87.890625,0.0
1676924565.2337136,-47.36328125,11.23046875,-202.63671875,55.6640625,0.0
1676924565.2374506,-84.9609375,-13.671875,2.44140625,79.1015625,0.0
1676924565.241207,-88.8671875,-33.69140625,-110.83984375,109.86328125,0.0
1676924565.244963,-85.9375,-25.87890625,-23.92578125,107.91015625,0.0
1676924565.2487192,-82.03125,-25.390625,62.01171875,95.21484375,0.0
1676924565.2524753,-65.91796875,-33.69140625,1.953125,113.28125,0.0
1676924565.2562315,-56.15234375,-43.45703125,-110.3515625,143.5546875,0.0
1676924565.2599878,-59.08203125,-52.24609375,-199.70703125,138.671875,0.0
1676924565.2637439,-72.265625,-46.38671875,-156.25,115.234375,0.0
1676924565.2675002,-83.0078125,-38.57421875,-58.59375,108.3984375,0.0
1676924565.2712562,-80.078125,-44.921875,-387.20703125,151.85546875,0.0
1676924565.2750125,-65.4296875,-5.859375,-302.734375,158.69140625,0.0
1676924565.2787685,-76.171875,2.9296875,-58.59375,113.28125,0.0
1676924565.2825248,-78.125,-20.99609375,-248.046875,93.75,0.0
1676924565.2862866,-69.82421875,-29.78515625,-257.32421875,119.140625,0.0
1676924565.2900484,-59.5703125,-17.08984375,62.01171875,124.0234375,0.0
1676924565.2938101,-54.6875,-26.85546875,132.8125,108.88671875,0.0
1676924565.297572,-61.03515625,-40.0390625,-97.16796875,86.42578125,0.0
1676924565.3013337,-39.0625,-37.109375,-116.69921875,81.0546875,0.0
1676924565.3050957,-25.390625,-41.50390625,-137.20703125,94.7265625,0.0
1676924565.3088574,-23.4375,-36.1328125,-38.0859375,87.890625,0.0
1676924565.3126192,-14.16015625,-70.3125,-233.3984375,70.80078125,0.0
1676924565.316381,-17.08984375,-73.2421875,-505.37109375,78.61328125,0.0
1676924565.3201427,-22.94921875,-29.78515625,4.8828125,101.5625,0.0
1676924565.3239045,-13.671875,-50.29296875,154.78515625,101.07421875,0.0
1676924565.3276663,-7.32421875,-57.6171875,-22.4609375,77.63671875,0.0
1676924565.3313746,-16.6015625,-44.43359375,6.8359375,70.3125,0.0
1676924565.335083,-5.859375,-48.828125,5.859375,87.890625,0.0
1676924565.3387914,5.859375,-51.7578125,-124.51171875,90.33203125,0.0
1676924565.3424997,-8.7890625,-36.62109375,-233.88671875,54.19921875,0.0
1676924565.346208,-18.5546875,-34.1796875,-152.83203125,22.94921875,0.0
1676924565.3499165,-12.20703125,-47.36328125,-154.296875,53.7109375,0.0
1676924565.3536246,-13.18359375,-46.875,-262.20703125,72.265625,0.0
1676924565.357333,-15.13671875,-46.38671875,-448.73046875,56.15234375,0.0
1676924565.3610413,-20.5078125,-22.94921875,-282.71484375,39.55078125,0.0
1676924565.3647497,-32.71484375,-17.578125,125.9765625,30.76171875,0.0
1676924565.368458,-40.52734375,-28.80859375,-25.87890625,62.5,0.0
1676924565.3721664,-40.0390625,-23.4375,-148.92578125,56.640625,0.0
1676924565.3759434,-48.33984375,-16.11328125,40.0390625,27.34375,0.0
1676924565.3797202,-47.36328125,-20.5078125,130.859375,25.87890625,0.0
1676924565.3834972,-36.62109375,-35.64453125,-57.12890625,50.78125,0.0
1676924565.387274,-27.83203125,-19.53125,-104.00390625,62.5,0.0
1676924565.391051,-22.4609375,-4.39453125,6.8359375,45.41015625,0.0
1676924565.3948278,-25.87890625,-17.08984375,-99.609375,28.80859375,0.0
1676924565.3986049,-14.16015625,-26.3671875,-420.41015625,57.6171875,0.0
1676924565.402382,-15.625,15.625,-631.34765625,83.49609375,0.0
1676924565.4061587,-21.97265625,124.0234375,-115.234375,45.41015625,0.0
1676924565.4099357,-25.87890625,183.10546875,159.66796875,8.30078125,0.0
1676924565.4137125,-35.15625,185.05859375,-299.8046875,47.36328125,0.0
1676924565.4174895,-20.99609375,225.09765625,-331.0546875,93.75,0.0
1676924565.4212315,-7.8125,255.859375,131.34765625,57.12890625,0.0
1676924565.4249735,-8.7890625,184.5703125,87.890625,24.90234375,0.0
1676924565.4287155,-5.859375,178.22265625,-132.32421875,48.828125,0.0
1676924565.4324574,-2.44140625,224.609375,-72.75390625,67.3828125,0.0
1676924565.4361994,-7.32421875,227.05078125,69.82421875,40.0390625,0.0
1676924565.4399414,-18.06640625,177.24609375,-104.98046875,16.6015625,0.0
1676924565.4436836,-27.34375,91.796875,-493.65234375,36.1328125,0.0
1676924565.4474256,-28.80859375,72.75390625,-287.109375,50.29296875,0.0
1676924565.4511676,-19.53125,40.0390625,50.78125,41.015625,0.0
1676924565.4549096,-21.484375,-6.34765625,-178.7109375,19.53125,0.0
1676924565.4586515,-23.4375,-7.32421875,-253.41796875,13.18359375,0.0
1676924565.4623935,-19.53125,0.48828125,-18.5546875,29.296875,0.0
1676924565.466251,-3.90625,-18.06640625,123.53515625,45.8984375,0.0
1676924565.4701085,7.8125,-37.59765625,-79.58984375,46.875,0.0
1676924565.4739661,-4.8828125,-37.109375,-162.59765625,35.15625,0.0
1676924565.4778235,-1.46484375,35.15625,45.41015625,41.50390625,0.0
1676924565.4816809,-5.37109375,131.34765625,113.28125,52.734375,0.0
1676924565.4855385,-15.625,138.671875,-298.33984375,56.15234375,0.0
1676924565.489396,-4.8828125,175.78125,-518.06640625,34.66796875,0.0
1676924565.4932535,1.46484375,238.28125,-25.87890625,23.4375,0.0
1676924565.4971108,-5.859375,223.6328125,125.0,44.921875,0.0
1676924565.5009685,-4.39453125,212.40234375,-116.69921875,59.5703125,0.0
1676924565.504826,-20.99609375,229.98046875,-118.1640625,41.015625,0.0
1676924565.5086834,-46.38671875,157.2265625,37.59765625,14.16015625,0.0
1676924565.5135794,-49.8046875,104.00390625,-107.421875,33.203125,0.0
1676924565.5184753,-48.828125,171.38671875,-243.65234375,42.96875,0.0
1676924565.5233712,-45.41015625,212.890625,-57.6171875,15.13671875,0.0
1676924565.528267,-43.9453125,221.19140625,77.1484375,-17.578125,0.0
1676924565.5331628,-35.15625,211.42578125,11.23046875,11.71875,0.0
1676924565.5380588,-28.3203125,207.03125,-468.75,61.03515625,0.0
1676924565.5429547,-26.3671875,218.75,-471.19140625,41.50390625,0.0
1676924565.5478506,-31.25,176.26953125,41.9921875,11.71875,0.0
1676924565.5527463,-59.08203125,175.29296875,-25.87890625,36.62109375,0.0
1676924565.5576422,-76.66015625,215.33203125,-212.40234375,67.3828125,0.0
1676924565.5625381,-80.078125,235.83984375,-96.6796875,42.48046875,0.0
1676924565.567434,-85.9375,238.28125,28.80859375,7.32421875,0.0
1676924565.5711782,-91.30859375,229.4921875,-93.26171875,-3.41796875,0.0
1676924565.574922,-69.3359375,167.96875,-134.27734375,32.71484375,0.0
1676924565.5786662,-57.12890625,148.4375,52.734375,34.1796875,0.0
1676924565.5824103,-76.171875,181.640625,47.8515625,-8.30078125,0.0
1676924565.5861542,-89.35546875,155.2734375,-269.04296875,-12.20703125,0.0
1676924565.5898983,-83.984375,183.10546875,-449.21875,12.20703125,0.0
1676924565.5936425,-83.49609375,177.734375,-132.8125,14.16015625,0.0
1676924565.5973864,-87.40234375,107.421875,114.2578125,-24.90234375,0.0
1676924565.6011305,-78.125,116.69921875,-239.74609375,-38.57421875,0.0
1676924565.6048746,-61.03515625,166.9921875,-344.23828125,-4.39453125,0.0
1676924565.6086185,-55.17578125,187.5,94.23828125,27.83203125,0.0
1676924565.6123626,-61.5234375,93.75,142.08984375,0.48828125,0.0
1676924565.6161199,-72.75390625,52.734375,-304.19921875,-43.9453125,0.0
1676924565.6198773,-76.171875,130.37109375,-374.51171875,-25.390625,0.0
1676924565.6236346,-68.84765625,153.3203125,70.80078125,3.41796875,0.0
1676924565.6273918,-61.03515625,125.9765625,28.3203125,-4.8828125,0.0
1676924565.6311493,-78.61328125,123.53515625,-166.015625,-46.38671875,0.0
1676924565.6349065,-90.33203125,60.05859375,-240.72265625,-35.15625,0.0
1676924565.6386638,-89.35546875,25.390625,-167.48046875,1.46484375,0.0
1676924565.6424212,-105.95703125,73.73046875,-37.59765625,-7.32421875,0.0
1676924565.6461785,-132.8125,61.5234375,-567.87109375,-12.20703125,0.0
1676924565.6499357,-151.85546875,96.6796875,-583.0078125,-28.3203125,0.0
1676924565.6536932,-148.4375,124.51171875,80.56640625,-13.671875,0.0
1676924565.6574504,-146.484375,105.95703125,-29.78515625,13.671875,0.0
1676924565.661207,-154.296875,89.84375,-183.59375,-15.13671875,0.0
1676924565.6649632,-165.52734375,37.59765625,5.859375,-41.50390625,0.0
1676924565.6687198,-171.38671875,49.31640625,58.10546875,-18.5546875,0.0
1676924565.6724763,-159.66796875,63.96484375,-82.03125,15.625,0.0
1676924565.6762328,-148.4375,13.671875,-172.8515625,2.44140625,0.0
1676924565.6799893,-165.52734375,26.3671875,-259.765625,-25.390625,0.0
1676924565.6837456,-171.38671875,9.27734375,-210.44921875,-8.30078125,0.0
1676924565.6875021,-156.25,-77.1484375,-356.4453125,38.57421875,0.0
1676924565.6912587,-163.0859375,-28.80859375,-475.5859375,12.6953125,0.0
1676924565.695015,-162.109375,78.125,-7.8125,-21.97265625,0.0
1676924565.6987715,-159.66796875,20.01953125,56.15234375,0.0,0.0
1676924565.702528,-168.45703125,-32.71484375,-181.640625,26.3671875,0.0
1676924565.7063768,-163.57421875,35.64453125,-75.1953125,35.64453125,0.0
1676924565.7102256,-153.3203125,45.8984375,139.16015625,-6.8359375,0.0
1676924565.7140741,-153.3203125,-28.3203125,60.05859375,-23.92578125,0.0
1676924565.717923,-148.4375,-13.671875,-131.8359375,9.765625,0.0
1676924565.7217717,-146.97265625,0.0,-77.1484375,10.25390625,0.0
1676924565.7256203,-159.66796875,-39.55078125,-60.05859375,-13.18359375,0.0
1676924565.729469,-171.38671875,-4.39453125,-170.8984375,-22.94921875,0.0
1676924565.7333179,-167.96875,10.25390625,-458.0078125,-26.85546875,0.0
1676924565.7371666,-160.64453125,50.78125,-324.70703125,5.859375,0.0
1676924565.7410154,-167.96875,21.97265625,111.328125,-2.44140625,0.0
1676924565.744864,-171.38671875,-18.06640625,-42.48046875,-42.48046875,0.0
1676924565.7487128,-175.78125,26.3671875,-153.3203125,-41.015625,0.0
1676924565.752357,-171.38671875,65.91796875,34.66796875,-15.625,0.0
1676924565.756001,-145.99609375,25.390625,125.0,-6.8359375,0.0
1676924565.759645,-154.78515625,-36.62109375,-157.71484375,-19.53125,0.0
1676924565.7632892,-173.33984375,19.53125,-274.90234375,-13.671875,0.0
1676924565.7669334,-175.29296875,7.8125,2.44140625,5.859375,0.0
1676924565.7705774,-177.734375,-53.22265625,-74.70703125,5.859375,0.0
1676924565.7742214,-174.31640625,-18.06640625,-366.2109375,-9.27734375,0.0
1676924565.7778656,-173.828125,-24.4140625,-809.08203125,-18.5546875,0.0
1676924565.7815099,-173.828125,-8.30078125,-395.01953125,-3.90625,0.0
1676924565.7851539,-177.24609375,23.4375,146.484375,-3.41796875,0.0
1676924565.7887979,-179.6875,21.97265625,-90.33203125,-26.85546875,0.0
1676924565.792442,-182.12890625,3.90625,-116.2109375,-40.52734375,0.0
1676924565.79619,-173.828125,30.76171875,69.82421875,-20.5078125,0.0
1676924565.799938,-158.69140625,8.7890625,67.3828125,3.90625,0.0
1676924565.803686,-145.99609375,-12.20703125,-77.1484375,-16.6015625,0.0
1676924565.8074338,-155.2734375,20.01953125,-51.26953125,-37.59765625,0.0
1676924565.8111818,-164.0625,2.44140625,25.390625,-31.73828125,0.0
1676924565.8149297,-156.25,-3.90625,-104.4921875,-0.48828125,0.0
1676924565.8186777,-154.78515625,-23.92578125,-521.97265625,-2.9296875,0.0
1676924565.8224256,-144.53125,20.99609375,-446.77734375,-47.36328125,0.0
1676924565.8261735,-149.90234375,-6.8359375,85.44921875,-52.24609375,0.0
1676924565.8299215,-145.99609375,-107.421875,-8.7890625,-22.4609375,0.0
1676924565.8336694,-122.55859375,-150.87890625,-256.8359375,-17.08984375,0.0
1676924565.8374174,-132.32421875,-138.671875,-66.40625,-55.17578125,0.0
1676924565.841177,-151.85546875,-152.34375,68.84765625,-84.9609375,0.0
1676924565.8449368,-156.73828125,-178.7109375,-95.21484375,-70.3125,0.0
1676924565.8486965,-167.48046875,-173.33984375,-130.37109375,-57.12890625,0.0
1676924565.852456,-178.22265625,-169.921875,19.53125,-86.9140625,0.0
1676924565.8562157,-203.125,-177.734375,86.9140625,-136.71875,0.0
1676924565.8599753,-215.8203125,-196.77734375,-228.02734375,-131.34765625,0.0
1676924565.8637352,-227.5390625,-169.43359375,-406.25,-135.7421875,0.0
1676924565.8674948,-278.3203125,-122.0703125,0.0,-216.796875,0.0
1676924565.8712544,-328.61328125,-124.51171875,127.44140625,-268.06640625,0.0
1676924565.8750143,-367.1875,-144.53125,-269.04296875,-270.5078125,0.0
1676924565.878774,-395.01953125,-118.65234375,-366.2109375,-273.4375,0.0
1676924565.8825336,-408.203125,-88.8671875,49.31640625,-303.22265625,0.0
1676924565.8875818,-420.41015625,-104.98046875,113.76953125,-340.33203125,0.0
1676924565.89263,-418.9453125,-107.421875,-197.265625,-345.21484375,0.0
1676924565.8976784,-414.0625,-83.984375,-243.1640625,-309.08203125,0.0
1676924565.9027264,-402.83203125,-78.125,24.4140625,-302.734375,0.0
1676924565.9077747,-388.18359375,-87.890625,24.4140625,-312.98828125,0.0
1676924565.912823,-378.90625,-100.5859375,-274.90234375,-311.03515625,0.0
1676924565.9178712,-363.76953125,-86.9140625,-250.48828125,-289.0625,0.0
1676924565.9229195,-343.26171875,-68.84765625,31.73828125,-248.046875,0.0
1676924565.9279675,-335.44921875,-90.33203125,-17.08984375,-250.0,0.0
1676924565.9330158,-330.56640625,-102.05078125,-295.8984375,-243.65234375,0.0
1676924565.938064,-308.59375,-81.0546875,-143.06640625,-217.28515625,0.0
1676924565.9431124,-290.0390625,-78.61328125,123.046875,-192.87109375,0.0
1676924565.9469101,-285.64453125,-98.6328125,-64.94140625,-167.96875,0.0
1676924565.9507082,-269.53125,-94.23828125,-322.265625,-163.0859375,0.0
1676924565.954506,-254.8828125,-59.08203125,-148.92578125,-158.203125,0.0
1676924565.958304,-231.93359375,-49.31640625,119.140625,-99.609375,0.0
1676924565.9621017,-212.40234375,-93.26171875,-143.06640625,-59.5703125,0.0
1676924565.9658995,-209.47265625,-110.83984375,-500.48828125,-75.68359375,0.0
1676924565.9696975,-184.08203125,-72.75390625,-253.90625,-78.61328125,0.0
1676924565.9734952,-163.57421875,-72.75390625,96.19140625,-52.734375,0.0
1676924565.9772933,-144.53125,-127.9296875,-236.81640625,-14.16015625,0.0
1676924565.981091,-125.0,-117.1875,-530.76171875,-8.7890625,0.0
1676924565.984889,-111.81640625,-70.80078125,-102.05078125,-22.94921875,0.0
1676924565.9886868,-94.23828125,-100.09765625,-106.93359375,17.578125,0.0
1676924565.9923332,-62.98828125,-93.75,-226.5625,59.5703125,0.0
1676924565.9959793,-58.59375,-72.75390625,-55.6640625,54.6875,0.0
1676924565.9996257,-98.6328125,-72.75390625,89.35546875,23.4375,0.0
1676924566.003272,-113.76953125,-83.49609375,46.875,45.41015625,0.0
1676924566.0069182,-99.609375,-90.33203125,-210.44921875,93.75,0.0
1676924566.0105646,-91.796875,-85.9375,-310.05859375,82.03125,0.0
1676924566.014211,-90.33203125,-81.54296875,-236.328125,63.96484375,0.0
1676924566.017857,-87.890625,-76.66015625,-151.85546875,63.96484375,0.0
1676924566.0215034,-78.61328125,-114.2578125,-520.5078125,104.98046875,0.0
1676924566.0251498,-75.68359375,-101.07421875,-562.01171875,119.140625,0.0
1676924566.028796,-66.40625,-66.40625,47.8515625,78.61328125,0.0
1676924566.0324423,-60.546875,-101.5625,-7.8125,83.984375,0.0
1676924566.0362074,-57.6171875,-109.375,-138.18359375,116.2109375,0.0
1676924566.0399723,-38.57421875,-92.28515625,73.73046875,127.9296875,0.0
1676924566.0437374,-32.71484375,-103.515625,98.6328125,108.88671875,0.0
1676924566.0475023,-37.59765625,-113.76953125,-119.62890625,102.5390625,0.0
1676924566.0512674,-51.7578125,-104.4921875,-115.234375,109.375,0.0
1676924566.0550323,-42.96875,-108.88671875,-108.88671875,114.74609375,0.0
1676924566.0587974,-32.2265625,-113.76953125,-161.62109375,104.4921875,0.0
1676924566.0625625,-54.19921875,-131.8359375,-331.0546875,94.23828125,0.0
1676924566.0663273,-55.17578125,-125.0,-576.171875,100.09765625,0.0
1676924566.0700924,-42.48046875,-68.84765625,-142.578125,118.1640625,0.0
1676924566.0738573,-38.0859375,-44.43359375,151.3671875,113.76953125,0.0
1676924566.0776224,-42.48046875,-20.5078125,-149.4140625,85.44921875,0.0
1676924566.081357,-56.640625,19.04296875,-153.80859375,79.1015625,0.0
1676924566.0850916,-49.8046875,36.62109375,125.9765625,95.703125,0.0
1676924566.0888262,-39.55078125,28.3203125,87.890625,97.65625,0.0
1676924566.0925608,-39.55078125,38.57421875,8.30078125,67.87109375,0.0
1676924566.0962954,-40.0390625,41.50390625,42.96875,52.734375,0.0
1676924566.10003,-39.55078125,37.109375,-71.2890625,81.54296875,0.0
1676924566.1037648,-29.296875,39.55078125,-145.01953125,95.21484375,0.0
1676924566.1074994,-24.90234375,20.99609375,-394.04296875,86.42578125,0.0
1676924566.111234,-44.921875,39.55078125,-309.5703125,67.3828125,0.0
1676924566.1149685,-45.8984375,52.734375,112.79296875,74.70703125,0.0
1676924566.1187031,-37.59765625,22.94921875,-13.18359375,103.02734375,0.0
1676924566.1224377,-41.9921875,13.18359375,-102.05078125,92.7734375,0.0
1676924566.1275322,-50.29296875,20.01953125,-100.09765625,68.84765625,0.0
1676924566.1326268,-51.7578125,32.2265625,-1.953125,59.5703125,0.0
1676924566.1377213,-67.3828125,-6.8359375,-80.56640625,81.54296875,0.0
1676924566.1428158,-75.1953125,-19.53125,-333.0078125,102.05078125,0.0
1676924566.1479104,-73.2421875,17.08984375,-78.61328125,62.5,0.0
1676924566.1530051,-82.03125,-3.41796875,-79.1015625,49.8046875,0.0
1676924566.1580997,-79.1015625,-34.66796875,-363.76953125,97.16796875,0.0
1676924566.1631942,-84.9609375,-22.94921875,-320.80078125,93.26171875,0.0
1676924566.1682887,-88.37890625,4.8828125,68.359375,48.828125,0.0
1676924566.1733832,-91.796875,-4.39453125,118.1640625,40.52734375,0.0
1676924566.1784778,-87.890625,-28.80859375,-307.6171875,76.66015625,0.0
1676924566.1835723,-77.1484375,0.0,-352.5390625,91.30859375,0.0
1676924566.1859596,-64.94140625,37.59765625,97.16796875,73.2421875,0.0
1676924566.1883466,-58.59375,15.625,48.33984375,61.03515625,0.0
1676924566.190734,-63.4765625,3.41796875,-119.140625,43.45703125,0.0
1676924566.193121,-56.15234375,-4.39453125,-136.71875,62.5,0.0
1676924566.1955082,-51.26953125,-9.27734375,-77.63671875,50.78125,0.0
1676924566.1978955,-57.6171875,-18.5546875,-133.30078125,17.08984375,0.0
1676924566.2002826,-64.453125,-24.4140625,-345.703125,22.94921875,0.0
1676924566.2026699,-42.48046875,2.44140625,-140.13671875,49.31640625,0.0
1676924566.205057,-12.6953125,9.765625,134.27734375,42.48046875,0.0
1676924566.2074442,-1.953125,-17.578125,62.98828125,13.18359375,0.0
1676924566.2098312,-6.34765625,-62.01171875,-539.55078125,26.85546875,0.0
1676924566.2122185,11.23046875,-20.5078125,-539.0625,55.17578125,0.0
1676924566.2159948,36.62109375,11.23046875,109.375,62.01171875,0.0
1676924566.2197711,42.48046875,-30.2734375,-15.13671875,49.31640625,0.0
1676924566.2235475,47.36328125,-26.3671875,-151.85546875,27.83203125,0.0
1676924566.227324,57.6171875,4.39453125,51.26953125,42.96875,0.0
1676924566.2311003,56.15234375,3.90625,154.296875,60.546875,0.0
1676924566.2348766,55.6640625,-33.203125,-188.96484375,39.0625,0.0
1676924566.238653,44.921875,-27.83203125,-406.73828125,5.859375,0.0
1676924566.2424293,30.2734375,5.37109375,-171.875,6.34765625,0.0
1676924566.2462058,36.1328125,12.20703125,28.80859375,33.69140625,0.0
1676924566.249982,43.9453125,-24.90234375,-229.4921875,33.203125,0.0
1676924566.2537584,55.17578125,-34.1796875,-463.8671875,21.484375,0.0
1676924566.2575347,57.6171875,11.71875,-20.5078125,8.7890625,0.0
1676924566.2625308,51.7578125,2.9296875,26.3671875,26.85546875,0.0
1676924566.267527,62.98828125,-1.953125,-83.49609375,30.2734375,0.0
1676924566.2725234,82.03125,4.39453125,-13.671875,15.13671875,0.0
1676924566.2775195,83.0078125,-0.9765625,79.1015625,8.30078125,0.0
1676924566.2825155,80.078125,-11.71875,3.41796875,20.5078125,0.0
1676924566.2875118,82.03125,-22.4609375,-268.5546875,33.69140625,0.0
1676924566.2925081,76.171875,0.9765625,-241.2109375,15.625,0.0
1676924566.2975042,61.03515625,17.578125,37.59765625,-13.18359375,0.0
1676924566.3025002,62.98828125,-4.39453125,13.671875,1.953125,0.0
1676924566.3074965,72.75390625,-14.16015625,-273.4375,30.76171875,0.0
1676924566.3124928,74.21875,-3.41796875,-207.51953125,9.27734375,0.0
1676924566.317489,47.8515625,-14.6484375,-49.8046875,-19.04296875,0.0
1676924566.3212423,18.06640625,-46.875,-176.7578125,-7.8125,0.0
1676924566.3249955,25.390625,-53.22265625,-270.5078125,23.4375,0.0
1676924566.3287487,33.203125,-22.4609375,-7.32421875,16.6015625,0.0
1676924566.3325021,14.16015625,-27.83203125,77.1484375,-2.9296875,0.0
1676924566.3362556,-10.25390625,-58.10546875,-110.3515625,-14.6484375,0.0
1676924566.3400087,-10.7421875,-82.03125,-291.50390625,8.30078125,0.0
1676924566.343762,-9.765625,-59.5703125,-159.1796875,23.92578125,0.0
1676924566.3475153,-6.34765625,-42.48046875,92.7734375,1.46484375,0.0
1676924566.3512688,6.8359375,-84.9609375,-276.85546875,4.8828125,0.0
1676924566.355022,11.23046875,-82.51953125,-519.53125,20.5078125,0.0
1676924566.3587751,14.6484375,-44.43359375,17.578125,13.18359375,0.0
1676924566.3625286,14.16015625,-80.56640625,97.16796875,-1.46484375,0.0
1676924566.3662574,12.20703125,-87.890625,-141.11328125,-17.578125,0.0
1676924566.3699863,7.32421875,-63.96484375,-93.75,-7.32421875,0.0
1676924566.373715,9.765625,-72.75390625,-84.9609375,18.06640625,0.0
1676924566.3774438,13.18359375,-73.73046875,-193.359375,12.20703125,0.0
1676924566.3811727,-0.48828125,-67.3828125,-321.77734375,-8.30078125,0.0
1676924566.3849015,-17.578125,-71.2890625,-389.6484375,3.41796875,0.0
1676924566.3886304,-20.01953125,-59.08203125,-167.96875,27.34375,0.0
1676924566.3923593,-12.6953125,-69.3359375,-40.0390625,20.01953125,0.0
1676924566.3960881,-9.27734375,-84.9609375,-404.296875,0.48828125,0.0
1676924566.3998168,-9.27734375,-43.45703125,-294.43359375,-24.90234375,0.0
1676924566.4035456,-2.44140625,-40.52734375,83.49609375,-7.8125,0.0
1676924566.4072745,4.39453125,-59.08203125,-105.46875,31.25,0.0
1676924566.4110427,5.859375,-42.48046875,-155.76171875,7.8125,0.0
1676924566.4148107,-0.9765625,-38.57421875,29.296875,-18.5546875,0.0
1676924566.4185789,0.48828125,-51.26953125,111.328125,-5.37109375,0.0
1676924566.422347,10.7421875,-61.03515625,-40.52734375,9.27734375,0.0
1676924566.4261153,6.34765625,-60.05859375,-133.7890625,-8.30078125,0.0
1676924566.4298835,-2.9296875,-55.6640625,-196.2890625,-24.4140625,0.0
1676924566.4336514,-2.9296875,-36.62109375,-257.32421875,8.7890625,0.0
1676924566.4374197,11.71875,-58.10546875,-391.11328125,45.41015625,0.0
1676924566.4411879,10.7421875,-61.5234375,-621.09375,39.55078125,0.0
1676924566.4449558,-4.39453125,-7.8125,-158.69140625,-1.953125,0.0
1676924566.448724,8.7890625,-25.87890625,47.8515625,-10.25390625,0.0
1676924566.4524922,20.99609375,-52.24609375,-119.140625,24.90234375,0.0
1676924566.4562492,19.53125,-52.24609375,1.953125,34.1796875,0.0
1676924566.4600062,30.76171875,-60.05859375,77.1484375,11.23046875,0.0
1676924566.4637632,33.203125,-80.078125,-21.484375,-7.32421875,0.0
1676924566.4675205,20.5078125,-82.03125,-148.92578125,5.859375,0.0
1676924566.4712775,23.92578125,-72.265625,-87.890625,22.94921875,0.0
1676924566.4750345,25.87890625,-77.1484375,-137.20703125,10.7421875,0.0
1676924566.4787915,3.90625,-73.73046875,-177.734375,-3.41796875,0.0
1676924566.4825485,-9.27734375,-87.890625,-414.55078125,6.8359375,0.0
1676924566.4863057,-7.8125,-68.359375,-301.26953125,9.765625,0.0
1676924566.4900627,-1.953125,-64.453125,24.90234375,-19.04296875,0.0
1676924566.4938197,-11.71875,-98.6328125,-205.078125,-37.59765625,0.0
1676924566.4975767,-22.4609375,-87.40234375,-294.921875,-24.4140625,0.0
1676924566.5013156,-18.5546875,-56.640625,-32.2265625,-0.48828125,0.0
1676924566.5050547,-19.53125,-56.15234375,129.8828125,-9.27734375,0.0
1676924566.5087936,-19.53125,-68.359375,-85.44921875,-24.90234375,0.0
1676924566.5125327,-18.5546875,-48.33984375,-130.37109375,-19.04296875,0.0
1676924566.5162716,-5.37109375,-46.875,19.04296875,-7.32421875,0.0
1676924566.5200105,-6.34765625,-72.75390625,-89.35546875,-2.9296875,0.0
1676924566.5237496,-16.6015625,-77.63671875,-393.5546875,-14.16015625,0.0
1676924566.5274885,-20.5078125,-45.41015625,-536.1328125,-28.80859375,0.0
1676924566.5312276,-17.578125,3.90625,-78.125,-25.390625,0.0
1676924566.5349665,-13.671875,-22.4609375,101.07421875,-23.92578125,0.0
1676924566.5387056,-14.16015625,-41.015625,-94.23828125,-40.52734375,0.0
1676924566.5424445,-24.4140625,-28.3203125,-91.796875,-52.24609375,0.0
1676924566.5463247,-19.04296875,-20.01953125,45.41015625,-38.0859375,0.0
1676924566.5502052,-9.27734375,-27.34375,-69.82421875,-18.5546875,0.0
1676924566.5540857,-8.30078125,-20.5078125,-267.08984375,-29.78515625,0.0
1676924566.557966,-6.8359375,-7.8125,-154.78515625,-48.828125,0.0
1676924566.5618463,-22.94921875,-9.765625,23.92578125,-41.015625,0.0
1676924566.5657268,-24.4140625,-25.87890625,-98.14453125,-13.671875,0.0
1676924566.5696073,-12.20703125,-30.76171875,-492.1875,-7.32421875,0.0
1676924566.5734875,-15.13671875,7.8125,-351.07421875,-27.83203125,0.0
1676924566.5773678,-25.390625,9.765625,115.72265625,-31.73828125,0.0
1676924566.5812483,-33.203125,-7.32421875,20.99609375,5.37109375,0.0
1676924566.5851288,-28.80859375,3.90625,-133.7890625,13.18359375,0.0
1676924566.589009,-27.83203125,18.5546875,-33.69140625,-6.8359375,0.0
1676924566.592637,-28.80859375,36.1328125,80.078125,-10.25390625,0.0
1676924566.596265,-32.71484375,38.0859375,-73.73046875,10.7421875,0.0
1676924566.599893,-28.3203125,25.87890625,-160.15625,25.390625,0.0
1676924566.603521,-32.2265625,20.01953125,13.18359375,-7.32421875,0.0
1676924566.6071491,-35.64453125,-3.90625,-29.296875,-38.0859375,0.0
1676924566.610777,-29.296875,-9.27734375,-355.95703125,-19.53125,0.0
1676924566.614405,-32.2265625,84.9609375,-561.5234375,13.18359375,0.0
1676924566.618033,-29.78515625,206.0546875,-242.67578125,1.46484375,0.0
1676924566.621661,-34.1796875,241.69921875,87.890625,-33.69140625,0.0
1676924566.625289,-34.66796875,216.796875,-264.16015625,-30.76171875,0.0
1676924566.628917,-17.08984375,244.140625,-372.55859375,1.46484375,0.0
1676924566.632545,-6.8359375,294.921875,131.8359375,-6.8359375,0.0
1676924566.6375406,-21.484375,205.078125,132.32421875,-37.59765625,0.0
1676924566.6425362,-19.53125,111.81640625,-21.97265625,-53.22265625,0.0
1676924566.6475315,-9.765625,85.44921875,-40.0390625,-33.203125,0.0
1676924566.652527,-5.37109375,59.08203125,46.875,-21.484375,0.0
1676924566.6575227,-4.39453125,28.80859375,30.76171875,-40.52734375,0.0
1676924566.6625183,-18.5546875,-0.48828125,-288.57421875,-56.640625,0.0
1676924566.6675138,-9.765625,16.6015625,-275.87890625,-40.52734375,0.0
1676924566.6725094,0.0,24.4140625,29.78515625,-20.99609375,0.0
1676924566.677505,5.37109375,-7.8125,-83.984375,-27.83203125,0.0
1676924566.6825004,7.8125,-20.5078125,-263.18359375,-49.8046875,0.0
1676924566.687496,9.27734375,0.48828125,-83.984375,-44.43359375,0.0
1676924566.6924915,10.7421875,10.25390625,94.7265625,-9.765625,0.0
1676924566.6962693,0.0,0.9765625,-45.41015625,-7.8125,0.0
1676924566.700047,-5.859375,-2.9296875,-542.96875,-23.92578125,0.0
1676924566.7038245,-9.27734375,32.71484375,-338.8671875,-31.25,0.0
1676924566.7076023,-7.8125,21.484375,97.65625,-18.5546875,0.0
1676924566.71138,-4.8828125,-17.08984375,-62.5,-11.71875,0.0
1676924566.7151577,3.41796875,-31.25,-308.59375,-15.625,0.0
1676924566.7189355,-6.34765625,-9.27734375,-207.03125,-24.4140625,0.0
1676924566.7227132,-5.859375,5.37109375,112.79296875,-17.08984375,0.0
1676924566.726491,-0.9765625,-34.1796875,-233.3984375,0.9765625,0.0
1676924566.7302685,-6.8359375,-26.85546875,-526.85546875,-23.92578125,0.0
1676924566.7340462,0.0,19.53125,-19.04296875,-41.50390625,0.0
1676924566.737824,0.0,0.9765625,17.08984375,-4.8828125,0.0
1676924566.7415774,-2.44140625,-9.765625,-219.7265625,30.2734375,0.0
1676924566.7453308,7.8125,3.90625,-111.328125,21.97265625,0.0
1676924566.7490842,1.46484375,7.8125,51.7578125,-10.25390625,0.0
1676924566.7528377,-1.953125,-3.41796875,2.9296875,4.39453125,0.0
1676924566.756591,-2.44140625,-7.8125,-150.390625,41.50390625,0.0
1676924566.7603445,0.0,-2.44140625,-255.37109375,37.109375,0.0
1676924566.764098,-3.90625,4.8828125,-217.28515625,0.9765625,0.0
1676924566.7678514,-6.8359375,8.7890625,-73.73046875,-18.5546875,0.0
1676924566.7716048,-1.46484375,-14.16015625,-476.5625,25.390625,0.0
1676924566.7753582,-5.859375,17.578125,-473.14453125,45.41015625,0.0
1676924566.7791116,-7.8125,32.2265625,57.6171875,10.25390625,0.0
1676924566.782865,-13.18359375,-12.20703125,-60.05859375,-3.90625,0.0
1676924566.786584,-0.48828125,-15.625,-125.0,26.3671875,0.0
1676924566.790303,13.18359375,1.953125,68.84765625,53.7109375,0.0
1676924566.794022,4.39453125,-3.90625,66.40625,21.97265625,0.0
1676924566.797741,-16.6015625,-30.76171875,-216.30859375,-4.39453125,0.0
1676924566.8014598,-27.34375,-25.87890625,-249.0234375,5.37109375,0.0
1676924566.8051789,-22.4609375,-5.37109375,-125.48828125,35.64453125,0.0
1676924566.808898,-13.671875,9.27734375,-120.60546875,24.90234375,0.0
1676924566.8126168,-9.765625,-16.11328125,-317.87109375,1.46484375,0.0
1676924566.8163357,-16.6015625,-6.8359375,-588.8671875,14.6484375,0.0
1676924566.8200548,-21.97265625,45.41015625,-74.70703125,23.92578125,0.0
1676924566.8237739,-2.44140625,12.20703125,145.99609375,34.1796875,0.0
1676924566.8274927,7.32421875,7.32421875,-78.61328125,5.859375,0.0
1676924566.8312428,3.41796875,28.80859375,0.0,-11.23046875,0.0
1676924566.8349926,9.765625,14.6484375,99.12109375,22.4609375,0.0
1676924566.8387427,15.13671875,-6.34765625,50.29296875,41.50390625,0.0
1676924566.8424928,27.83203125,7.32421875,-54.19921875,14.16015625,0.0
1676924566.8462427,16.11328125,27.34375,-21.97265625,-19.04296875,0.0
1676924566.8499928,8.30078125,17.08984375,-106.93359375,5.859375,0.0
1676924566.8537428,21.97265625,27.83203125,-142.08984375,31.25,0.0
1676924566.8574927,11.23046875,5.859375,-500.0,12.6953125,0.0
1676924566.8612428,-9.27734375,38.57421875,-565.91796875,-22.4609375,0.0
1676924566.8649929,-6.34765625,66.89453125,74.21875,-35.64453125,0.0
1676924566.8687427,-1.953125,-7.8125,64.453125,-13.18359375,0.0
1676924566.8724928,6.8359375,-27.83203125,-92.28515625,-19.53125,0.0
1676924566.876254,13.18359375,-19.53125,52.24609375,-33.203125,0.0
1676924566.8800154,1.953125,-27.83203125,158.69140625,-38.57421875,0.0
1676924566.8837767,2.9296875,-45.41015625,-51.7578125,-17.578125,0.0
1676924566.887538,4.8828125,-45.41015625,-131.34765625,-20.5078125,0.0
1676924566.8912992,4.39453125,-32.2265625,-16.6015625,-47.8515625,0.0
1676924566.8950605,3.41796875,-19.53125,-137.20703125,-55.6640625,0.0
1676924566.8988218,4.8828125,-23.92578125,-413.0859375,-32.71484375,0.0
1676924566.9025831,18.5546875,-0.9765625,-509.27734375,-15.13671875,0.0
1676924566.9063444,16.11328125,69.3359375,-52.734375,-30.2734375,0.0
1676924566.9101057,6.8359375,70.80078125,74.70703125,-39.0625,0.0
1676924566.913867,6.8359375,53.7109375,-207.03125,-21.484375,0.0
1676924566.9176283,13.18359375,79.58984375,-185.546875,-0.48828125,0.0
1676924566.9214418,17.578125,98.14453125,63.4765625,-15.625,0.0
1676924566.9252553,6.34765625,79.58984375,37.109375,-41.50390625,0.0
1676924566.9290686,-9.27734375,65.91796875,-273.4375,-45.8984375,0.0
1676924566.932882,-3.90625,94.7265625,-233.88671875,-25.87890625,0.0
1676924566.9366956,9.765625,107.91015625,21.97265625,-19.04296875,0.0
1676924566.9405088,5.37109375,89.84375,-122.0703125,-28.3203125,0.0
1676924566.9443223,-10.7421875,80.078125,-526.3671875,-18.5546875,0.0
1676924566.9481359,-7.8125,109.375,-371.09375,6.8359375,0.0
1676924566.9519494,-7.32421875,115.72265625,78.61328125,17.578125,0.0
1676924566.9557629,-19.04296875,79.1015625,-54.6875,2.44140625,0.0
1676924566.9595761,-31.73828125,83.0078125,-142.08984375,-9.765625,0.0
1676924566.9633896,-35.64453125,100.5859375,67.3828125,21.484375,0.0
1676924566.9670684,-32.2265625,88.8671875,187.5,47.36328125,0.0
1676924566.9707475,-41.015625,54.6875,-20.5078125,19.53125,0.0
1676924566.9744263,-49.31640625,43.45703125,-296.875,-7.32421875,0.0
1676924566.9781053,-44.43359375,69.82421875,-136.23046875,4.39453125,0.0
1676924566.981784,-46.875,72.75390625,129.8828125,22.4609375,0.0
1676924566.9854631,-48.828125,17.578125,-165.52734375,20.99609375,0.0
1676924566.989142,-55.6640625,-10.25390625,-705.078125,8.30078125,0.0
1676924566.9928207,-54.19921875,44.43359375,-333.0078125,-4.39453125,0.0
1676924566.9964998,-38.57421875,39.55078125,113.76953125,16.6015625,0.0
1676924567.0001786,-39.55078125,10.7421875,-50.78125,20.01953125,0.0
1676924567.0038576,-51.7578125,20.99609375,-20.5078125,-10.25390625,0.0
1676924567.0075364,-60.546875,18.5546875,121.58203125,-8.7890625,0.0
1676924567.0137825,-55.6640625,-3.41796875,21.484375,19.04296875,0.0
1676924567.0200288,-39.55078125,-14.16015625,-76.66015625,19.53125,0.0
1676924567.0262752,-42.48046875,-14.6484375,-41.9921875,-8.30078125,0.0
1676924567.0325212,-51.7578125,-13.18359375,53.7109375,-16.11328125,0.0
1676924567.0387673,-43.45703125,-28.80859375,0.9765625,16.6015625,0.0
1676924567.0450137,-30.2734375,-43.9453125,-224.12109375,57.6171875,0.0
1676924567.05126,-34.1796875,-23.92578125,-298.33984375,37.59765625,0.0
1676924567.057506,-41.9921875,-3.90625,-245.1171875,-3.41796875,0.0
1676924567.0637522,-44.921875,0.48828125,-74.21875,8.7890625,0.0
1676924567.0699985,-48.828125,-35.15625,-498.53515625,46.875,0.0
1676924567.0762448,-44.921875,9.765625,-526.3671875,37.109375,0.0
1676924567.082491,-46.38671875,54.6875,117.67578125,-4.8828125,0.0
1676924567.0850294,-56.640625,26.3671875,10.25390625,-11.71875,0.0
1676924567.087568,-53.7109375,35.15625,-107.91015625,18.5546875,0.0
1676924567.0901065,-45.41015625,62.5,63.4765625,30.2734375,0.0
1676924567.092645,-47.8515625,68.359375,74.21875,0.48828125,0.0
1676924567.0951836,-49.8046875,66.89453125,-135.7421875,-8.7890625,0.0
1676924567.097722,-54.19921875,67.87109375,-309.08203125,23.92578125,0.0
1676924567.1002605,-56.15234375,90.33203125,-135.25390625,31.73828125,0.0
1676924567.1027992,-55.6640625,91.796875,68.359375,8.7890625,0.0
1676924567.1053376,-62.5,66.40625,-156.73828125,3.41796875,0.0
1676924567.107876,-65.91796875,73.2421875,-303.7109375,12.20703125,0.0
1676924567.1104147,-49.8046875,97.65625,-90.8203125,21.97265625,0.0
1676924567.1129532,-45.41015625,120.60546875,144.04296875,11.23046875,0.0
1676924567.1166286,-56.15234375,84.47265625,-272.94921875,-10.7421875,0.0
1676924567.120304,-52.734375,96.6796875,-647.4609375,2.9296875,0.0
1676924567.1239798,-37.109375,157.71484375,-88.8671875,29.78515625,0.0
1676924567.1276553,-22.4609375,134.765625,100.5859375,23.4375,0.0
1676924567.1313307,-23.4375,112.79296875,-74.70703125,8.7890625,0.0
1676924567.1350064,-20.5078125,113.76953125,-172.36328125,13.671875,0.0
1676924567.138682,-22.4609375,127.9296875,-109.86328125,31.25,0.0
1676924567.1423573,-18.5546875,115.234375,59.08203125,28.80859375,0.0
1676924567.1460328,-18.06640625,74.70703125,-379.8828125,-2.9296875,0.0
1676924567.1497083,-23.92578125,112.79296875,-356.4453125,-23.4375,0.0
1676924567.153384,-14.6484375,136.71875,136.23046875,-1.46484375,0.0
1676924567.1570594,-1.46484375,96.19140625,15.625,20.01953125,0.0
1676924567.1609259,13.18359375,88.37890625,-151.3671875,7.8125,0.0
1676924567.164792,9.765625,109.86328125,-128.41796875,-7.32421875,0.0
1676924567.1686585,5.859375,124.0234375,58.59375,-0.48828125,0.0
1676924567.172525,16.6015625,90.8203125,-85.9375,22.94921875,0.0
1676924567.1763914,16.11328125,87.40234375,-261.23046875,14.6484375,0.0
1676924567.1802578,7.32421875,102.05078125,-126.953125,-8.7890625,0.0
1676924567.184124,3.90625,103.02734375,-110.3515625,-3.41796875,0.0
1676924567.1879904,12.20703125,85.44921875,-267.578125,21.484375,0.0
1676924567.1918569,15.13671875,89.35546875,-378.41796875,23.4375,0.0
1676924567.195723,7.8125,145.01953125,53.7109375,-29.78515625,0.0
1676924567.1995895,-1.953125,127.9296875,110.83984375,-49.31640625,0.0
1676924567.203456,-11.71875,114.74609375,-81.54296875,-16.6015625,0.0
1676924567.2071147,-19.53125,123.53515625,29.296875,-23.4375,0.0
1676924567.2107735,-37.109375,119.140625,115.72265625,-69.3359375,0.0
1676924567.2144325,-43.45703125,104.98046875,17.578125,-96.6796875,0.0
1676924567.2180912,-44.43359375,102.05078125,-75.1953125,-77.1484375,0.0
1676924567.22175,-57.12890625,109.86328125,-97.16796875,-66.89453125,0.0
1676924567.225409,-79.58984375,102.5390625,-157.2265625,-106.93359375,0.0
1676924567.2290678,-95.21484375,106.4453125,-161.62109375,-136.23046875,0.0
1676924567.2327266,-106.93359375,77.63671875,-538.0859375,-107.421875,0.0
1676924567.2363853,-121.09375,96.6796875,-562.98828125,-112.3046875,0.0
1676924567.240044,-151.85546875,130.859375,69.3359375,-171.38671875,0.0
1676924567.2437031,-191.40625,79.1015625,-3.41796875,-211.9140625,0.0
1676924567.247362,-198.2421875,77.63671875,-157.71484375,-214.35546875,0.0
1676924567.252373,-208.984375,103.515625,55.17578125,-210.44921875,0.0
1676924567.257384,-229.4921875,82.51953125,145.01953125,-245.60546875,0.0
1676924567.2623951,-239.74609375,55.6640625,-25.390625,-289.55078125,0.0
1676924567.2674062,-255.37109375,62.01171875,-103.02734375,-314.94140625,0.0
1676924567.2724173,-258.7890625,76.171875,46.875,-308.10546875,0.0
1676924567.2774286,-260.25390625,63.4765625,-24.90234375,-299.31640625,0.0
1676924567.2824397,-257.32421875,35.64453125,-323.2421875,-302.24609375,0.0
1676924567.2874508,-255.859375,46.38671875,-492.1875,-295.8984375,0.0
1676924567.2924619,-237.79296875,83.0078125,-214.35546875,-274.90234375,0.0
1676924567.297473,-213.37890625,71.77734375,52.734375,-248.53515625,0.0
1676924567.302484,-206.0546875,55.17578125,-155.76171875,-236.81640625,0.0
1676924567.307495,-184.5703125,76.66015625,-215.33203125,-244.62890625,0.0
1676924567.309997,-179.6875,96.19140625,56.640625,-233.3984375,0.0
1676924567.3124988,-163.0859375,72.75390625,49.31640625,-173.828125,0.0
1676924567.3150008,-133.30078125,55.17578125,-47.8515625,-155.76171875,0.0
1676924567.3175025,-137.6953125,69.82421875,4.8828125,-171.875,0.0
1676924567.3200045,-130.37109375,63.96484375,119.62890625,-156.73828125,0.0
1676924567.3225064,-97.16796875,32.71484375,-82.03125,-99.609375,0.0
1676924567.3250082,-71.77734375,30.2734375,-241.69921875,-72.265625,0.0
1676924567.32751,-67.3828125,42.48046875,-55.6640625,-83.984375,0.0
1676924567.3300118,-69.82421875,55.17578125,112.3046875,-86.42578125,0.0
1676924567.3325138,-63.96484375,38.0859375,14.16015625,-58.59375,0.0
1676924567.3350155,-53.22265625,21.97265625,-392.08984375,-18.5546875,0.0
1676924567.3375175,-44.43359375,53.7109375,-317.87109375,-12.20703125,0.0
1676924567.341359,-34.66796875,58.59375,-62.98828125,-27.34375,0.0
1676924567.3452005,-26.3671875,42.48046875,-177.24609375,13.671875,0.0
1676924567.349042,-12.6953125,45.8984375,-260.7421875,56.15234375,0.0
1676924567.3528836,1.46484375,67.87109375,37.59765625,40.52734375,0.0
1676924567.356725,9.27734375,38.57421875,114.74609375,15.13671875,0.0
1676924567.3605666,17.578125,0.48828125,-296.875,36.1328125,0.0
1676924567.364408,32.2265625,18.5546875,-367.1875,70.80078125,0.0
1676924567.3682494,37.59765625,48.33984375,9.765625,73.2421875,0.0
1676924567.372091,45.41015625,29.78515625,131.8359375,67.87109375,0.0
1676924567.3759325,50.29296875,-5.37109375,-285.64453125,81.54296875,0.0
1676924567.379774,52.734375,26.3671875,-387.20703125,102.5390625,0.0
1676924567.3836155,51.7578125,72.265625,122.55859375,91.796875,0.0
1676924567.3897753,45.8984375,50.78125,104.4921875,64.453125,0.0
1676924567.395935,49.8046875,50.29296875,-76.66015625,54.6875,0.0
1676924567.4020948,55.17578125,61.03515625,-2.44140625,87.890625,0.0
1676924567.4082546,66.40625,42.48046875,-21.484375,103.02734375,0.0
1676924567.4144144,68.359375,31.73828125,-41.50390625,77.63671875,0.0
1676924567.4205742,58.59375,0.0,-432.6171875,66.40625,0.0
1676924567.4267342,61.03515625,20.99609375,-498.046875,88.8671875,0.0
1676924567.432894,88.37890625,67.3828125,80.078125,104.4921875,0.0
1676924567.4390538,84.9609375,44.921875,24.90234375,86.9140625,0.0
1676924567.4452136,70.3125,32.71484375,-210.44921875,70.80078125,0.0
1676924567.4513733,83.49609375,53.7109375,-75.68359375,96.6796875,0.0
1676924567.4575331,96.19140625,47.8515625,139.16015625,125.0,0.0
1676924567.46003,98.6328125,18.5546875,-17.08984375,118.1640625,0.0
1676924567.4625268,94.23828125,33.203125,-130.37109375,92.7734375,0.0
1676924567.4650235,94.7265625,57.12890625,41.015625,80.56640625,0.0
1676924567.4675205,96.6796875,37.59765625,85.44921875,109.375,0.0
1676924567.4700174,83.0078125,13.18359375,-70.80078125,111.328125,0.0
1676924567.4725142,75.68359375,20.01953125,-281.73828125,89.84375,0.0
1676924567.4750109,73.73046875,50.29296875,-256.34765625,71.77734375,0.0
1676924567.4775078,76.66015625,50.78125,-179.6875,82.51953125,0.0
1676924567.4800048,79.58984375,40.0390625,-306.15234375,99.12109375,0.0
1676924567.4825015,77.1484375,64.94140625,-188.96484375,83.984375,0.0
1676924567.4849982,85.9375,88.37890625,73.2421875,65.4296875,0.0
1676924567.4874952,81.0546875,76.66015625,126.953125,60.546875,0.0
1676924567.4912803,82.51953125,24.90234375,-273.4375,102.05078125,0.0
1676924567.4950655,80.078125,38.0859375,-594.23828125,92.28515625,0.0
1676924567.4988508,69.3359375,98.14453125,-85.44921875,41.9921875,0.0
1676924567.502636,71.2890625,76.171875,86.42578125,61.5234375,0.0
1676924567.506421,78.61328125,62.01171875,-93.75,105.46875,0.0
1676924567.5102062,80.078125,69.82421875,-175.78125,93.75,0.0
1676924567.5139914,74.70703125,89.84375,-112.79296875,57.12890625,0.0
1676924567.5177765,79.58984375,86.42578125,-1.46484375,52.24609375,0.0
1676924567.5215616,85.9375,61.5234375,-372.55859375,78.125,0.0
1676924567.525347,83.49609375,98.6328125,-322.265625,84.9609375,0.0
1676924567.5291321,74.21875,100.09765625,3.90625,48.828125,0.0
1676924567.5329173,51.26953125,66.40625,-206.0546875,36.62109375,0.0
1676924567.536635,48.828125,79.58984375,-252.44140625,60.05859375,0.0
1676924567.5403523,62.5,110.83984375,27.83203125,80.56640625,0.0
1676924567.54407,62.98828125,109.86328125,166.50390625,67.3828125,0.0
1676924567.5477877,50.29296875,93.26171875,-28.80859375,49.8046875,0.0
1676924567.5515053,41.015625,86.9140625,-100.5859375,60.546875,0.0
1676924567.555223,38.57421875,80.56640625,-156.73828125,84.9609375,0.0
1676924567.5589404,39.55078125,98.14453125,-67.3828125,63.4765625,0.0
1676924567.562658,20.99609375,71.77734375,-180.6640625,39.55078125,0.0
1676924567.5663757,3.90625,63.4765625,-522.4609375,51.26953125,0.0
1676924567.5700932,20.01953125,124.51171875,-52.24609375,61.03515625,0.0
1676924567.5738108,10.7421875,116.2109375,170.8984375,61.03515625,0.0
1676924567.5775285,0.9765625,109.375,-59.08203125,38.0859375,0.0
1676924567.581276,2.9296875,127.9296875,-71.77734375,6.34765625,0.0
1676924567.5850234,6.34765625,115.72265625,26.85546875,23.92578125,0.0
1676924567.5887709,16.11328125,80.078125,-118.1640625,48.828125,0.0
1676924567.592518,15.13671875,74.21875,-300.29296875,24.90234375,0.0
1676924567.5962656,2.9296875,80.078125,-187.98828125,3.90625,0.0
1676924567.600013,-2.9296875,56.640625,-143.5546875,20.01953125,0.0
1676924567.6037605,4.8828125,41.50390625,-181.15234375,40.0390625,0.0
1676924567.607508,-2.44140625,29.296875,-420.8984375,34.66796875,0.0
1676924567.6112552,-8.7890625,57.6171875,-336.42578125,14.6484375,0.0
1676924567.6150026,0.9765625,73.73046875,127.44140625,18.5546875,0.0
1676924567.61875,11.71875,41.015625,19.53125,41.9921875,0.0
1676924567.6224976,3.90625,35.15625,-101.5625,32.2265625,0.0
1676924567.626247,-6.8359375,45.8984375,52.24609375,0.0,0.0
1676924567.6299963,-10.7421875,34.1796875,153.80859375,-14.16015625,0.0
1676924567.6337457,-17.578125,13.18359375,-31.25,19.53125,0.0
1676924567.6374948,-7.32421875,21.97265625,-86.42578125,24.90234375,0.0
1676924567.6412442,-6.8359375,20.5078125,13.18359375,4.39453125,0.0
1676924567.6449935,-19.04296875,-3.41796875,-159.66796875,-6.34765625,0.0
1676924567.648743,-13.671875,-33.69140625,-393.06640625,26.85546875,0.0
1676924567.6524923,-6.8359375,-37.59765625,-655.2734375,57.6171875,0.0
1676924567.6562414,-11.23046875,16.6015625,-219.23828125,13.18359375,0.0
1676924567.6599908,-12.6953125,-3.90625,145.5078125,-23.92578125,0.0
1676924567.6637402,-8.30078125,-38.57421875,-100.5859375,2.9296875,0.0
1676924567.6674895,4.8828125,-22.94921875,-62.01171875,30.76171875,0.0
1676924567.6712396,11.23046875,-4.39453125,210.9375,7.32421875,0.0
1676924567.67499,2.9296875,-17.578125,197.75390625,-8.30078125,0.0
1676924567.67874,-3.90625,-25.390625,-74.70703125,-5.37109375,0.0
1676924567.68249,-5.859375,-2.44140625,-48.33984375,16.11328125,0.0
1676924567.6862404,-0.48828125,11.71875,117.1875,12.20703125,0.0
1676924567.6899905,1.46484375,-1.46484375,-40.0390625,-8.30078125,0.0
1676924567.6937406,0.9765625,-19.53125,-471.19140625,16.6015625,0.0
1676924567.697491,16.6015625,20.5078125,-364.74609375,35.15625,0.0
1676924567.701241,18.06640625,48.828125,118.65234375,20.01953125,0.0
1676924567.704991,1.46484375,13.18359375,-75.68359375,13.671875,0.0
1676924567.7087414,3.90625,5.37109375,-287.109375,1.953125,0.0
1676924567.7124915,14.6484375,24.90234375,-9.765625,18.06640625,0.0
1676924567.716272,7.32421875,16.11328125,168.45703125,36.1328125,0.0
1676924567.7200527,8.7890625,-2.9296875,-43.9453125,2.9296875,0.0
1676924567.7238336,-1.953125,-9.27734375,-180.6640625,-23.92578125,0.0
1676924567.7276142,-8.7890625,1.953125,44.43359375,0.9765625,0.0
1676924567.7313948,1.46484375,-12.6953125,135.7421875,23.92578125,0.0
1676924567.7351754,-0.48828125,-60.05859375,-259.765625,10.7421875,0.0
1676924567.738956,-10.25390625,-49.31640625,-463.37890625,-12.6953125,0.0
1676924567.7427366,-8.7890625,-16.11328125,-77.1484375,-17.578125,0.0
1676924567.7465172,4.39453125,-37.59765625,87.890625,-0.48828125,0.0
1676924567.750298,1.953125,-45.41015625,-99.12109375,-0.9765625,0.0
1676924567.7540786,-13.671875,-28.3203125,-96.19140625,-21.484375,0.0
1676924567.7578592,-13.671875,-27.34375,91.30859375,-35.15625,0.0
1676924567.762857,-10.7421875,-60.546875,-17.578125,-19.53125,0.0
1676924567.7678547,-30.76171875,-71.77734375,-270.01953125,-15.13671875,0.0
1676924567.7728524,-33.69140625,-51.7578125,-193.359375,-43.45703125,0.0
1676924567.7778502,-25.390625,-40.0390625,2.44140625,-60.05859375,0.0
1676924567.782848,-25.390625,-41.015625,23.4375,-37.59765625,0.0
1676924567.7878456,-36.1328125,-58.59375,-377.9296875,-13.18359375,0.0
1676924567.7928433,-45.41015625,-29.296875,-436.03515625,-36.1328125,0.0
1676924567.797841,-45.41015625,-15.625,0.48828125,-79.1015625,0.0
1676924567.8028388,-55.6640625,-45.41015625,-58.10546875,-80.078125,0.0
1676924567.8078365,-63.4765625,-37.109375,-264.16015625,-62.01171875,0.0
1676924567.8128343,-79.58984375,-14.16015625,-133.7890625,-81.0546875,0.0
1676924567.817832,-118.1640625,-18.5546875,34.66796875,-123.53515625,0.0
1676924567.821554,-140.13671875,-34.1796875,-119.62890625,-138.671875,0.0
1676924567.8252757,-154.296875,-55.17578125,-190.91796875,-129.39453125,0.0
1676924567.8289976,-167.96875,-51.26953125,17.578125,-152.34375,0.0
1676924567.8327196,-210.9375,-56.15234375,41.9921875,-224.12109375,0.0
1676924567.8364413,-260.7421875,-68.84765625,-261.23046875,-277.34375,0.0
1676924567.8401632,-259.765625,-48.828125,-434.08203125,-259.27734375,0.0
1676924567.8438852,-276.3671875,-21.484375,-292.96875,-275.390625,0.0
1676924567.847607,-312.5,1.953125,-15.625,-347.16796875,0.0
1676924567.8513288,-326.66015625,-46.38671875,-273.92578125,-359.86328125,0.0
1676924567.8550508,-329.1015625,-51.26953125,-680.17578125,-329.1015625,0.0
1676924567.8587725,-314.453125,24.4140625,-146.97265625,-320.3125,0.0
1676924567.8624945,-312.98828125,0.0,79.58984375,-336.9140625,0.0
1676924567.8662448,-312.01171875,-11.23046875,-107.91015625,-343.75,0.0
1676924567.869995,-297.36328125,12.20703125,-57.12890625,-311.03515625,0.0
1676924567.8737454,-284.66796875,6.34765625,42.96875,-270.5078125,0.0
1676924567.8774955,-260.7421875,-22.4609375,12.20703125,-268.06640625,0.0
1676924567.8812459,-250.48828125,-37.109375,-191.40625,-283.69140625,0.0
1676924567.8849962,-245.1171875,-31.25,-299.31640625,-264.6484375,0.0
1676924567.8887465,-221.19140625,-22.4609375,-242.1875,-217.28515625,0.0
1676924567.8924968,-182.6171875,-15.13671875,-108.3984375,-192.3828125,0.0
1676924567.896247,-155.2734375,-54.19921875,-541.015625,-167.96875,0.0
1676924567.8999972,-139.16015625,-15.13671875,-625.0,-155.2734375,0.0
1676924567.9037476,-122.55859375,40.0390625,61.03515625,-135.7421875,0.0
1676924567.907498,-95.21484375,0.9765625,37.109375,-97.16796875,0.0
1676924567.9112496,-73.2421875,-10.7421875,-141.11328125,-92.7734375,0.0
1676924567.9150014,-72.75390625,10.25390625,0.9765625,-94.7265625,0.0
1676924567.9187531,-60.546875,7.8125,107.91015625,-59.5703125,0.0
1676924567.922505,-30.76171875,-18.5546875,-44.921875,-7.32421875,0.0
1676924567.9262567,-11.71875,-30.2734375,-133.30078125,-1.953125,0.0
1676924567.9300084,-3.41796875,-44.43359375,-191.89453125,-11.71875,0.0
1676924567.93376,11.23046875,-30.2734375,-132.32421875,13.671875,0.0
1676924567.9375117,33.203125,-59.08203125,-258.7890625,57.12890625,0.0
1676924567.9412634,41.9921875,-73.73046875,-486.81640625,66.40625,0.0
1676924567.9450152,36.62109375,-31.25,-58.10546875,32.71484375,0.0
1676924567.948767,48.828125,-50.78125,80.078125,32.2265625,0.0
1676924567.9525187,73.2421875,-61.03515625,-127.44140625,81.0546875,0.0
1676924567.9563599,85.44921875,-50.78125,-130.859375,108.3984375,0.0
1676924567.9602013,88.8671875,-61.03515625,64.94140625,85.9375,0.0
1676924567.9640427,89.84375,-104.00390625,35.64453125,68.84765625,0.0
1676924567.9678838,82.03125,-130.37109375,-245.60546875,105.46875,0.0
1676924567.971725,90.8203125,-121.09375,-218.26171875,133.7890625,0.0
1676924567.9755664,98.6328125,-125.0,-110.83984375,108.88671875,0.0
1676924567.9794078,91.796875,-142.08984375,-235.3515625,89.35546875,0.0
1676924567.983249,102.05078125,-140.13671875,-221.19140625,119.140625,0.0
1676924567.98709,100.5859375,-117.67578125,-30.76171875,129.39453125,0.0
1676924567.9909315,94.7265625,-107.421875,111.328125,102.05078125,0.0
1676924567.994773,101.5625,-118.1640625,-24.90234375,86.42578125,0.0
1676924567.998614,95.21484375,-122.0703125,-276.85546875,95.703125,0.0
1676924568.0022707,103.02734375,-80.56640625,-135.7421875,106.4453125,0.0
1676924568.0059273,100.09765625,-62.98828125,128.41796875,111.328125,0.0
1676924568.009584,84.9609375,-99.609375,-66.40625,100.5859375,0.0
1676924568.0132406,85.9375,-102.5390625,-386.23046875,94.7265625,0.0
1676924568.0168972,96.6796875,-59.5703125,-127.9296875,112.3046875,0.0
1676924568.020554,97.65625,-65.4296875,-37.59765625,132.32421875,0.0
1676924568.0242107,91.796875,-94.7265625,-326.66015625,120.60546875,0.0
1676924568.0278673,90.33203125,-86.42578125,-666.50390625,106.4453125,0.0
1676924568.031524,93.26171875,-7.32421875,-236.328125,120.1171875,0.0
1676924568.0351806,94.23828125,-17.578125,193.84765625,113.76953125,0.0
1676924568.0388372,95.21484375,-31.73828125,-4.39453125,86.42578125,0.0
1676924568.0424938,90.33203125,-6.34765625,-6.34765625,65.91796875,0.0
1676924568.0462394,85.9375,-17.08984375,101.07421875,79.58984375,0.0
1676924568.049985,86.42578125,-40.52734375,40.52734375,104.00390625,0.0
1676924568.0537305,90.8203125,-33.69140625,-55.6640625,86.9140625,0.0
1676924568.057476,92.28515625,-16.6015625,12.6953125,71.77734375,0.0
1676924568.0612216,89.84375,-34.66796875,108.3984375,75.1953125,0.0
1676924568.0649672,77.1484375,-55.6640625,-21.484375,105.95703125,0.0
1676924568.068713,81.0546875,-69.82421875,-490.72265625,125.9765625,0.0
1676924568.0724585,86.9140625,-26.85546875,-454.58984375,91.30859375,0.0
1676924568.076204,83.0078125,7.8125,71.77734375,66.89453125,0.0
1676924568.0799496,86.9140625,-32.2265625,64.453125,90.33203125,0.0
1676924568.0836952,74.21875,-51.26953125,-284.66796875,102.5390625,0.0
1676924568.0874407,57.12890625,-12.6953125,-187.5,83.984375,0.0
1676924568.0911965,52.24609375,-3.41796875,165.0390625,63.4765625,0.0
1676924568.0949523,62.01171875,-42.96875,-26.3671875,74.70703125,0.0
1676924568.0987082,65.4296875,-44.43359375,-154.296875,91.796875,0.0
1676924568.1024637,62.01171875,-8.7890625,78.61328125,69.3359375,0.0
1676924568.1062195,59.5703125,-24.90234375,73.73046875,41.9921875,0.0
1676924568.1099753,55.17578125,-64.94140625,-328.61328125,63.96484375,0.0
1676924568.1137311,57.6171875,-32.2265625,-400.87890625,90.33203125,0.0
1676924568.117487,53.22265625,26.85546875,22.94921875,63.4765625,0.0
1676924568.1212425,45.41015625,17.578125,121.58203125,28.3203125,0.0
1676924568.1249983,28.80859375,-11.71875,-214.35546875,35.64453125,0.0
1676924568.1287541,20.01953125,3.41796875,-416.9921875,64.453125,0.0
1676924568.13251,22.4609375,39.0625,-64.453125,56.15234375,0.0
1676924568.1375182,12.20703125,27.83203125,85.9375,41.50390625,0.0
1676924568.1425261,9.27734375,14.6484375,-234.375,48.828125,0.0
1676924568.1475344,0.48828125,28.3203125,-239.74609375,58.59375,0.0
1676924568.1525424,-29.296875,28.80859375,79.1015625,57.12890625,0.0
1676924568.1575506,-42.96875,4.8828125,96.19140625,32.2265625,0.0
1676924568.1625586,-45.8984375,-13.18359375,-192.87109375,6.8359375,0.0
1676924568.1675668,-44.921875,16.11328125,-209.47265625,16.6015625,0.0
1676924568.172575,-31.25,38.0859375,65.4296875,51.7578125,0.0
1676924568.177583,-29.78515625,9.765625,-6.8359375,48.828125,0.0
1676924568.1825912,-31.73828125,-2.44140625,-320.80078125,40.52734375,0.0
1676924568.1875992,-24.4140625,36.1328125,-157.2265625,58.10546875,0.0
1676924568.1926074,-21.484375,44.43359375,145.5078125,69.82421875,0.0
1676924568.196346,-22.4609375,30.76171875,-16.11328125,75.1953125,0.0
1676924568.2000847,-30.76171875,21.97265625,-208.49609375,64.94140625,0.0
1676924568.2038233,-32.2265625,27.83203125,-171.38671875,52.734375,0.0
1676924568.207562,-26.85546875,36.62109375,44.921875,69.3359375,0.0
1676924568.2113006,-25.390625,-11.23046875,-66.40625,83.49609375,0.0
1676924568.2150393,-32.71484375,-25.87890625,-383.7890625,55.17578125,0.0
1676924568.218778,-40.0390625,26.85546875,-218.75,27.83203125,0.0
1676924568.2225165,-26.85546875,52.24609375,99.12109375,35.64453125,0.0
1676924568.2262552,-18.06640625,14.6484375,-168.45703125,55.6640625,0.0
1676924568.2299938,-32.2265625,17.08984375,-454.58984375,53.7109375,0.0
1676924568.2337325,-41.50390625,68.84765625,16.11328125,17.578125,0.0
1676924568.237471,-31.25,35.64453125,96.6796875,25.87890625,0.0
1676924568.2412188,-23.92578125,28.80859375,-56.15234375,56.640625,0.0
1676924568.2449667,-24.90234375,49.31640625,50.78125,48.828125,0.0
1676924568.2487144,-20.99609375,51.26953125,140.625,28.3203125,0.0
1676924568.2524624,-31.73828125,31.73828125,80.078125,32.71484375,0.0
1676924568.25621,-15.625,16.6015625,-63.96484375,67.3828125,0.0
1676924568.2599578,1.953125,19.04296875,-152.34375,69.82421875,0.0
1676924568.2637057,-13.671875,21.484375,-191.89453125,33.69140625,0.0
1676924568.2674534,-14.16015625,28.80859375,-126.46484375,28.80859375,0.0
1676924568.2712014,-5.37109375,-10.25390625,-486.328125,78.125,0.0
1676924568.274949,-2.9296875,11.23046875,-532.2265625,76.171875,0.0
1676924568.278697,-6.8359375,62.01171875,87.40234375,21.484375,0.0
1676924568.2824447,-16.6015625,23.92578125,20.01953125,3.90625,0.0
1676924568.2862022,-25.87890625,16.11328125,-99.609375,21.484375,0.0
1676924568.28996,-19.53125,35.64453125,95.21484375,41.50390625,0.0
1676924568.2937174,-19.53125,28.3203125,186.5234375,35.15625,0.0
1676924568.297475,-28.3203125,7.32421875,-1.46484375,9.27734375,0.0
1676924568.3012326,-21.484375,1.953125,-104.00390625,5.37109375,0.0
1676924568.3049903,-10.7421875,-1.953125,-105.46875,31.25,0.0
1676924568.3087478,-18.5546875,-6.34765625,-122.55859375,28.80859375,0.0
1676924568.3125052,-26.3671875,-35.15625,-267.578125,3.41796875,0.0
1676924568.316263,-12.20703125,-42.96875,-483.88671875,5.859375,0.0
1676924568.3200204,-2.9296875,2.9296875,-175.78125,28.3203125,0.0
1676924568.3237782,-0.9765625,5.859375,137.6953125,20.01953125,0.0
1676924568.3275356,0.9765625,-16.11328125,-132.8125,6.8359375,0.0
1676924568.3312824,-15.13671875,7.32421875,-170.41015625,-2.9296875,0.0
1676924568.335029,-12.6953125,24.4140625,127.9296875,1.46484375,0.0
1676924568.3387756,-11.71875,5.37109375,57.12890625,8.7890625,0.0
1676924568.3425224,-31.73828125,5.37109375,-49.31640625,-8.7890625,0.0
1676924568.346269,-33.69140625,3.41796875,-44.921875,-25.87890625,0.0
1676924568.3500156,-26.85546875,-19.04296875,-111.328125,-11.23046875,0.0
1676924568.3537624,-22.4609375,-20.01953125,-123.53515625,18.5546875,0.0
1676924568.357509,-31.73828125,-39.55078125,-391.6015625,15.625,0.0
1676924568.3612556,-28.3203125,-10.25390625,-341.30859375,-18.06640625,0.0
1676924568.3650024,-16.11328125,6.8359375,133.7890625,-12.6953125,0.0
1676924568.368749,-18.5546875,-37.59765625,26.3671875,27.34375,0.0
1676924568.3724957,-22.94921875,-48.828125,-77.1484375,23.92578125,0.0
1676924568.3763373,-28.80859375,-62.01171875,-90.8203125,-10.25390625,0.0
1676924568.380179,-27.83203125,-52.24609375,-71.2890625,-17.578125,0.0
1676924568.3840206,-25.87890625,-66.89453125,-135.7421875,1.953125,0.0
1676924568.3878622,-27.34375,-78.61328125,-275.390625,12.20703125,0.0
1676924568.3917038,-38.57421875,-49.31640625,-32.71484375,-10.25390625,0.0
1676924568.3955455,-44.43359375,-71.2890625,-97.16796875,-26.85546875,0.0
1676924568.3993871,-49.31640625,-92.28515625,-407.71484375,-5.37109375,0.0
1676924568.4032288,-39.0625,-78.125,-476.07421875,25.390625,0.0
1676924568.4070704,-31.25,-21.97265625,-26.85546875,2.44140625,0.0
1676924568.410912,-48.33984375,-31.73828125,99.12109375,-17.578125,0.0
1676924568.4147537,-57.12890625,-40.0390625,-123.53515625,17.08984375,0.0
1676924568.4185953,-38.57421875,-21.484375,-56.640625,24.90234375,0.0
1676924568.4222565,-26.3671875,-11.23046875,133.7890625,7.8125,0.0
1676924568.4259176,-43.45703125,-12.20703125,81.54296875,-0.9765625,0.0
1676924568.4295788,-56.15234375,-7.32421875,-90.33203125,-2.9296875,0.0
1676924568.43324,-42.96875,5.859375,-37.59765625,13.671875,0.0
1676924568.436901,-42.48046875,-5.859375,-39.0625,17.08984375,0.0
1676924568.4405622,-52.24609375,-2.44140625,-141.6015625,-14.16015625,0.0
1676924568.4442234,-46.38671875,-31.25,-555.17578125,-9.27734375,0.0
1676924568.4478846,-47.8515625,-7.8125,-597.65625,28.80859375,0.0
1676924568.4515457,-37.59765625,35.15625,69.3359375,25.390625,0.0
1676924568.4552069,-39.55078125,-4.39453125,71.77734375,0.48828125,0.0
1676924568.458868,-56.640625,-21.484375,-78.61328125,-16.6015625,0.0
1676924568.4625292,-49.8046875,-8.30078125,67.3828125,6.34765625,0.0
1676924568.4662805,-42.48046875,1.46484375,203.125,21.97265625,0.0
1676924568.4700315,-41.50390625,-28.3203125,6.8359375,9.765625,0.0
1676924568.4737828,-41.015625,-32.2265625,-137.6953125,-20.01953125,0.0
1676924568.477534,-40.0390625,-8.30078125,66.40625,-23.92578125,0.0
1676924568.481285,-58.10546875,-21.484375,135.25390625,-4.8828125,0.0
1676924568.4850364,-60.05859375,-62.5,-278.3203125,0.48828125,0.0
1676924568.4887877,-48.33984375,-37.59765625,-469.7265625,-6.34765625,0.0
1676924568.4925387,-53.7109375,12.20703125,-113.76953125,-23.92578125,0.0
1676924568.49629,-46.38671875,5.859375,-49.8046875,0.0,0.0
1676924568.5000412,-39.0625,-6.34765625,-307.12890625,10.7421875,0.0
1676924568.5037923,-41.50390625,15.625,-406.25,-7.8125,0.0
1676924568.5075436,-49.8046875,63.96484375,-23.92578125,-23.92578125,0.0
1676924568.5125394,-42.96875,58.59375,92.28515625,-3.90625,0.0
1676924568.517535,-31.73828125,49.8046875,-76.66015625,10.7421875,0.0
1676924568.5225308,-30.76171875,64.94140625,-29.78515625,-3.41796875,0.0
1676924568.5275266,-16.6015625,77.1484375,122.55859375,-5.37109375,0.0
1676924568.5325222,-13.18359375,60.546875,57.6171875,23.4375,0.0
1676924568.537518,-18.5546875,44.921875,-204.58984375,25.390625,0.0
1676924568.5425138,-23.4375,67.87109375,-220.21484375,-6.8359375,0.0
1676924568.5475094,-27.83203125,83.984375,67.87109375,-13.671875,0.0
1676924568.5525053,-24.90234375,55.17578125,59.5703125,-1.953125,0.0
1676924568.557501,-11.23046875,31.25,-294.43359375,27.83203125,0.0
1676924568.5624967,-9.765625,61.03515625,-187.01171875,7.8125,0.0
1676924568.5674925,-22.94921875,40.0390625,-47.36328125,-30.2734375,0.0
1676924568.5712419,-14.6484375,4.39453125,-298.33984375,-29.296875,0.0
1676924568.574991,2.44140625,28.80859375,-309.5703125,1.46484375,0.0
1676924568.5787404,-1.46484375,58.10546875,-39.0625,9.27734375,0.0
1676924568.5824897,-12.6953125,35.15625,54.6875,-21.97265625,0.0
1676924568.5862389,-18.06640625,4.8828125,-115.72265625,-29.78515625,0.0
1676924568.5899882,-11.71875,-4.8828125,-298.828125,6.34765625,0.0
1676924568.5937376,-1.953125,13.671875,-182.12890625,10.25390625,0.0
1676924568.5974867,-5.37109375,41.015625,94.7265625,-22.94921875,0.0
1676924568.601236,-14.6484375,3.41796875,-250.0,-20.5078125,0.0
1676924568.6049855,-22.94921875,16.11328125,-576.66015625,5.37109375,0.0
1676924568.6087346,-12.20703125,88.37890625,-42.48046875,11.23046875,0.0
1676924568.612484,-6.34765625,63.96484375,115.234375,-1.953125,0.0
1676924568.6162355,0.9765625,58.10546875,-114.74609375,-23.92578125,0.0
1676924568.6199872,0.48828125,83.984375,-64.94140625,-11.71875,0.0
1676924568.6237388,-6.8359375,65.91796875,54.19921875,3.41796875,0.0
1676924568.6274905,-9.27734375,34.1796875,-76.66015625,-8.30078125,0.0
1676924568.631242,-12.20703125,32.71484375,-300.78125,-15.13671875,0.0
1676924568.6349936,-16.11328125,27.34375,-333.984375,-27.83203125,0.0
1676924568.6387453,-14.16015625,31.73828125,-139.16015625,-8.30078125,0.0
1676924568.6424968,-11.23046875,20.99609375,-28.3203125,-4.8828125,0.0
1676924568.6462486,-15.13671875,-21.97265625,-387.20703125,-10.25390625,0.0
1676924568.65,-12.20703125,7.32421875,-307.6171875,-8.30078125,0.0
1676924568.6537519,-2.9296875,26.85546875,126.953125,6.34765625,0.0
1676924568.6575034,5.859375,-8.30078125,10.7421875,37.109375,0.0
1676924568.6612527,2.44140625,-13.18359375,-131.8359375,10.25390625,0.0
1676924568.6650019,-11.71875,7.32421875,-32.71484375,-33.203125,0.0
1676924568.6687512,-16.11328125,13.18359375,94.7265625,-22.4609375,0.0
1676924568.6725004,7.32421875,11.71875,0.9765625,10.25390625,0.0
1676924568.6762497,9.765625,10.7421875,-97.65625,-0.48828125,0.0
1676924568.6799989,-12.6953125,14.6484375,-161.1328125,-36.1328125,0.0
1676924568.6837482,-4.39453125,30.76171875,-222.16796875,-27.34375,0.0
1676924568.6874976,-3.41796875,8.7890625,-348.6328125,6.8359375,0.0
1676924568.6912467,-7.8125,10.7421875,-653.80859375,17.578125,0.0
1676924568.694996,-1.953125,80.078125,-214.84375,-15.625,0.0
1676924568.6987453,-7.8125,70.3125,104.4921875,-34.1796875,0.0
1676924568.7024946,-7.32421875,52.734375,-89.84375,-5.859375,0.0
1676924568.7062614,-9.765625,60.546875,-9.765625,4.39453125,0.0
1676924568.7100282,-8.7890625,55.6640625,146.484375,-17.578125,0.0
1676924568.713795,-7.8125,46.875,67.87109375,-21.97265625,0.0
1676924568.7175617,0.48828125,30.76171875,-78.125,5.37109375,0.0
1676924568.7213285,3.90625,26.3671875,-57.12890625,25.390625,0.0
1676924568.7250953,-1.953125,14.6484375,-136.23046875,8.7890625,0.0
1676924568.728862,-8.7890625,0.9765625,-224.609375,-12.20703125,0.0
1676924568.7326288,-9.765625,-6.8359375,-493.65234375,7.8125,0.0
1676924568.7363956,0.0,36.62109375,-353.02734375,30.2734375,0.0
1676924568.7401624,-4.8828125,53.22265625,123.046875,6.8359375,0.0
1676924568.7439291,-17.578125,13.18359375,-86.42578125,-18.5546875,0.0
1676924568.747696,-24.90234375,21.484375,-272.94921875,-9.27734375,0.0
1676924568.7514298,-18.5546875,62.98828125,-5.859375,10.25390625,0.0
1676924568.7551637,-10.7421875,56.15234375,176.7578125,4.8828125,0.0
1676924568.7588978,-18.06640625,25.87890625,-40.52734375,-19.04296875,0.0
1676924568.7626317,-22.94921875,39.55078125,-139.6484375,-16.11328125,0.0
1676924568.7663655,-25.390625,53.7109375,20.01953125,7.32421875,0.0
1676924568.7700994,-8.7890625,38.57421875,-62.98828125,5.859375,0.0
1676924568.7738333,0.9765625,15.13671875,-367.1875,-1.46484375,0.0
1676924568.7775671,-29.296875,20.01953125,-451.66015625,-10.7421875,0.0
1676924568.781301,-41.50390625,62.5,-37.109375,-14.6484375,0.0
1676924568.7850351,-29.296875,41.015625,141.11328125,-4.8828125,0.0
1676924568.788769,-43.45703125,4.39453125,-196.77734375,-23.92578125,0.0
1676924568.7925029,-58.10546875,35.64453125,-303.22265625,-42.48046875,0.0
1676924568.7962484,-42.96875,69.82421875,19.53125,-21.97265625,0.0
1676924568.799994,-23.4375,40.0390625,-32.71484375,7.32421875,0.0
1676924568.8037393,-25.390625,32.71484375,-308.59375,13.671875,0.0
1676924568.8074849,-31.25,69.3359375,-206.54296875,0.9765625,0.0
1676924568.8112304,-22.4609375,80.56640625,64.453125,-2.9296875,0.0
1676924568.8149757,-17.578125,55.17578125,-64.94140625,17.578125,0.0
1676924568.8187213,-6.34765625,38.0859375,-520.01953125,28.80859375,0.0
1676924568.8224669,-10.25390625,84.9609375,-384.765625,-4.39453125,0.0
1676924568.8262124,-12.20703125,102.5390625,94.7265625,-19.04296875,0.0
1676924568.829958,5.859375,59.08203125,-1.46484375,18.5546875,0.0
1676924568.8337033,1.46484375,49.31640625,-104.4921875,26.85546875,0.0
1676924568.8374488,-5.859375,62.01171875,-8.7890625,-7.32421875,0.0
1676924568.8412015,-5.859375,66.40625,67.3828125,-18.06640625,0.0
1676924568.844954,-16.11328125,51.7578125,-65.4296875,-1.953125,0.0
1676924568.8487067,-11.23046875,56.15234375,-149.90234375,11.23046875,0.0
1676924568.8524592,-11.71875,76.171875,36.62109375,-9.27734375,0.0
1676924568.856212,-27.34375,61.03515625,8.7890625,-34.66796875,0.0
1676924568.8599644,-28.3203125,29.296875,-310.05859375,-1.953125,0.0
1676924568.863717,-26.85546875,43.45703125,-476.5625,19.53125,0.0
1676924568.8674698,-27.34375,96.19140625,-198.73046875,0.9765625,0.0
1676924568.8712223,-36.1328125,114.74609375,112.3046875,-29.296875,0.0
1676924568.874975,-42.48046875,71.2890625,-246.58203125,-35.15625,0.0
1676924568.8787274,-41.50390625,90.8203125,-532.71484375,-7.32421875,0.0
1676924568.8824801,-53.22265625,159.1796875,6.8359375,-27.83203125,0.0
1676924568.8874815,-67.3828125,123.046875,110.83984375,-62.98828125,0.0
1676924568.8924828,-85.44921875,103.515625,-83.0078125,-81.54296875,0.0
1676924568.897484,-104.98046875,119.62890625,-62.5,-77.1484375,0.0
1676924568.9024854,-128.41796875,123.046875,41.50390625,-87.40234375,0.0
1676924568.9074867,-157.2265625,110.3515625,54.19921875,-130.37109375,0.0
1676924568.912488,-187.5,95.21484375,-197.75390625,-168.9453125,0.0
1676924568.917489,-218.26171875,120.1171875,-215.33203125,-191.40625,0.0
1676924568.9224904,-244.140625,138.671875,57.6171875,-199.21875,0.0
1676924568.9274917,-276.3671875,121.09375,57.12890625,-234.86328125,0.0
1676924568.932493,-306.15234375,78.125,-531.25,-280.2734375,0.0
1676924568.9374943,-344.7265625,110.3515625,-636.23046875,-317.3828125,0.0
1676924568.9424956,-376.953125,152.83203125,-50.29296875,-343.26171875,0.0
1676924568.9462416,-384.765625,122.55859375,-38.57421875,-362.3046875,0.0
1676924568.9499874,-395.01953125,117.67578125,-165.52734375,-397.94921875,0.0
1676924568.9537334,-399.4140625,141.6015625,-47.36328125,-404.78515625,0.0
1676924568.9574795,-394.53125,147.4609375,64.94140625,-372.0703125,0.0
1676924568.9612255,-384.765625,120.60546875,-80.078125,-358.88671875,0.0
1676924568.9649715,-372.0703125,102.5390625,-311.5234375,-359.86328125,0.0
1676924568.9687173,-355.95703125,127.44140625,-214.35546875,-351.07421875,0.0
1676924568.9724634,-337.890625,146.97265625,84.47265625,-328.125,0.0
1676924568.9762094,-323.73046875,87.890625,-181.15234375,-291.50390625,0.0
1676924568.9799552,-305.17578125,81.0546875,-468.75,-279.296875,0.0
1676924568.9837012,-284.1796875,146.97265625,-6.34765625,-287.59765625,0.0
1676924568.9874473,-256.34765625,125.0,128.90625,-256.34765625,0.0
1676924568.9912786,-230.46875,98.14453125,-136.71875,-196.77734375,0.0
1676924568.9951098,-199.21875,119.140625,-112.79296875,-164.55078125,0.0
1676924568.9989412,-156.25,133.7890625,101.07421875,-163.0859375,0.0
1676924569.0027726,-136.23046875,115.234375,76.66015625,-157.71484375,0.0
1676924569.0066037,-126.46484375,97.16796875,-187.01171875,-103.515625,0.0
1676924569.010435,-92.28515625,113.28125,-325.1953125,-57.6171875,0.0
1676924569.0142665,-74.70703125,145.99609375,-145.99609375,-71.77734375,0.0
1676924569.0180976,-60.05859375,140.13671875,5.859375,-51.7578125,0.0
1676924569.021929,-42.96875,113.28125,-248.046875,12.20703125,0.0
1676924569.0257604,-10.7421875,142.578125,-158.69140625,32.71484375,0.0
1676924569.0295916,11.23046875,149.90234375,151.3671875,15.625,0.0
1676924569.033423,20.99609375,109.375,-8.7890625,23.4375,0.0
1676924569.0370972,42.96875,108.3984375,-236.328125,71.2890625,0.0
1676924569.0407715,53.22265625,150.390625,-16.11328125,99.12109375,0.0
1676924569.044446,57.12890625,125.48828125,192.3828125,77.1484375,0.0
1676924569.0481203,58.59375,109.375,-53.7109375,80.56640625,0.0
1676924569.0517945,67.87109375,143.06640625,-244.140625,104.00390625,0.0
1676924569.055469,67.3828125,167.96875,-215.8203125,99.609375,0.0
1676924569.0591433,67.87109375,208.984375,-14.16015625,83.49609375,0.0
1676924569.0628176,82.03125,189.453125,-78.61328125,72.75390625,0.0
1676924569.0664918,96.19140625,169.43359375,-581.54296875,89.35546875,0.0
1676924569.070166,88.8671875,211.42578125,-195.80078125,107.91015625,0.0
1676924569.0738406,78.61328125,160.64453125,220.21484375,110.83984375,0.0
1676924569.077515,82.51953125,117.67578125,22.94921875,99.12109375,0.0
1676924569.081267,88.37890625,113.28125,49.31640625,95.21484375,0.0
1676924569.085019,92.7734375,102.05078125,155.2734375,115.234375,0.0
1676924569.0887713,86.42578125,78.61328125,89.35546875,121.09375,0.0
1676924569.0925233,82.03125,66.89453125,16.6015625,104.00390625,0.0
1676924569.0962756,72.75390625,70.80078125,1.953125,96.6796875,0.0
1676924569.1000276,67.3828125,59.08203125,-106.4453125,113.76953125,0.0
1676924569.1037798,65.4296875,57.6171875,-82.03125,110.83984375,0.0
1676924569.107532,67.3828125,18.5546875,-399.90234375,116.69921875,0.0
1676924569.111284,50.78125,34.1796875,-448.73046875,94.7265625,0.0
1676924569.1150362,38.0859375,63.96484375,153.3203125,78.125,0.0
1676924569.1187882,43.45703125,17.08984375,104.00390625,111.328125,0.0
1676924569.1225405,45.41015625,11.71875,-43.45703125,121.09375,0.0
1676924569.1262865,49.8046875,33.203125,122.55859375,91.30859375,0.0
1676924569.1300323,48.828125,42.48046875,215.8203125,87.40234375,0.0
1676924569.1337783,54.19921875,14.6484375,0.0,131.34765625,0.0
1676924569.1375241,57.12890625,11.23046875,-53.22265625,135.7421875,0.0
1676924569.1412702,52.734375,30.76171875,134.765625,110.3515625,0.0
1676924569.1450162,42.96875,14.16015625,-58.10546875,107.91015625,0.0
1676924569.148762,45.41015625,-7.8125,-392.08984375,137.20703125,0.0
1676924569.152508,56.640625,9.765625,-460.44921875,152.34375,0.0
1676924569.1562538,33.203125,53.22265625,-22.4609375,113.76953125,0.0
1676924569.1599998,23.4375,29.296875,156.25,85.44921875,0.0
1676924569.1637456,27.34375,5.37109375,-11.23046875,100.09765625,0.0
1676924569.1674917,30.2734375,-17.08984375,-175.29296875,120.60546875,0.0
1676924569.1713462,32.2265625,-5.37109375,-59.5703125,91.796875,0.0
1676924569.175201,23.4375,3.41796875,80.56640625,63.4765625,0.0
1676924569.1790555,23.92578125,-5.859375,-207.51953125,81.0546875,0.0
1676924569.1829102,27.83203125,30.76171875,-202.1484375,99.609375,0.0
1676924569.1867647,23.4375,33.203125,55.17578125,65.91796875,0.0
1676924569.1906195,16.6015625,0.9765625,-42.96875,41.50390625,0.0
1676924569.194474,5.859375,-19.53125,-504.8828125,56.15234375,0.0
1676924569.1983285,-2.44140625,16.11328125,-381.34765625,72.265625,0.0
1676924569.2021832,1.46484375,16.6015625,119.62890625,60.546875,0.0
1676924569.2060378,-1.46484375,-37.59765625,-21.97265625,30.76171875,0.0
1676924569.2098925,-16.11328125,-46.875,-125.48828125,16.6015625,0.0
1676924569.213747,-9.765625,-29.296875,16.11328125,39.55078125,0.0
1676924569.2173967,2.9296875,-27.34375,76.171875,55.17578125,0.0
1676924569.2210467,-4.39453125,-51.26953125,-42.48046875,37.59765625,0.0
1676924569.2246964,-17.578125,-77.1484375,-242.67578125,19.04296875,0.0
1676924569.228346,-25.87890625,-62.01171875,-173.828125,28.3203125,0.0
1676924569.231996,-14.16015625,-52.734375,24.4140625,55.17578125,0.0
1676924569.2356458,-0.48828125,-95.21484375,-241.2109375,60.546875,0.0
1676924569.2392955,-9.765625,-80.078125,-725.09765625,43.9453125,0.0
1676924569.2429454,-9.765625,6.8359375,-363.76953125,31.25,0.0
1676924569.2465951,0.0,6.34765625,83.0078125,54.6875,0.0
1676924569.2502449,-4.39453125,-20.5078125,-63.4765625,59.08203125,0.0
1676924569.2538948,-7.32421875,0.0,-92.28515625,38.0859375,0.0
1676924569.2575445,-17.08984375,14.16015625,88.37890625,39.0625,0.0
1676924569.2625394,-20.01953125,-14.16015625,77.63671875,68.359375,0.0
1676924569.2675343,-21.484375,-19.04296875,-75.1953125,75.1953125,0.0
1676924569.2725291,-36.1328125,-7.8125,-39.55078125,38.0859375,0.0
1676924569.277524,-32.71484375,-18.5546875,44.921875,26.85546875,0.0
1676924569.2825189,-24.4140625,-20.01953125,15.625,41.9921875,0.0
1676924569.2875137,-34.1796875,-22.4609375,-238.28125,49.8046875,0.0
1676924569.2925088,-39.0625,-4.8828125,-339.84375,38.57421875,0.0
1676924569.2975037,-32.2265625,32.71484375,-156.25,10.25390625,0.0
1676924569.3024986,-39.0625,43.9453125,7.8125,6.8359375,0.0
1676924569.3074934,-24.90234375,5.859375,-446.77734375,51.26953125,0.0
1676924569.3124883,-16.11328125,56.15234375,-479.98046875,53.22265625,0.0
1676924569.3174832,-28.3203125,87.40234375,59.5703125,1.953125,0.0
1676924569.3212352,-26.3671875,37.109375,-58.59375,-4.8828125,0.0
1676924569.3249874,-21.484375,33.69140625,-128.41796875,35.64453125,0.0
1676924569.3287394,-11.71875,53.7109375,64.453125,40.52734375,0.0
1676924569.3324916,-19.53125,51.26953125,109.86328125,20.01953125,0.0
1676924569.3362436,-19.53125,33.203125,-90.8203125,26.3671875,0.0
1676924569.3399959,3.90625,31.73828125,-322.265625,60.546875,0.0
1676924569.3437479,13.18359375,68.84765625,-175.78125,66.89453125,0.0
1676924569.3474998,-3.41796875,82.03125,87.890625,17.578125,0.0
1676924569.351252,-10.25390625,40.0390625,-217.28515625,13.671875,0.0
1676924569.355004,-16.11328125,55.6640625,-542.48046875,45.8984375,0.0
1676924569.3587563,-25.390625,105.95703125,-254.39453125,54.6875,0.0
1676924569.3625083,-6.8359375,92.7734375,-58.10546875,45.8984375,0.0
1676924569.3662622,0.9765625,61.03515625,-248.046875,34.1796875,0.0
1676924569.370016,-6.8359375,65.91796875,-261.71875,47.36328125,0.0
1676924569.3737698,-5.37109375,79.58984375,40.0390625,64.453125,0.0
1676924569.3775237,-4.39453125,61.5234375,10.25390625,39.0625,0.0
1676924569.3812776,-1.46484375,55.6640625,-83.0078125,3.90625,0.0
1676924569.3850315,-3.41796875,56.15234375,-216.796875,20.01953125,0.0
1676924569.3887854,-6.8359375,77.1484375,-200.68359375,43.9453125,0.0
1676924569.3925393,-4.8828125,73.73046875,-35.15625,36.1328125,0.0
1676924569.3962932,-1.46484375,37.59765625,-387.20703125,33.69140625,0.0
1676924569.4000468,-11.71875,62.5,-332.51953125,18.06640625,0.0
1676924569.4038007,-18.5546875,68.84765625,97.65625,20.99609375,0.0
1676924569.4075546,-12.20703125,33.203125,-46.875,45.8984375,0.0
1676924569.4113,-12.20703125,14.6484375,-127.44140625,29.296875,0.0
1676924569.415045,-25.87890625,-1.46484375,-113.76953125,-8.30078125,0.0
1676924569.4187903,-28.3203125,-6.34765625,-71.77734375,-2.9296875,0.0
1676924569.4225357,-17.578125,-32.2265625,-105.46875,27.83203125,0.0
1676924569.4262807,-13.671875,-57.12890625,-259.27734375,22.4609375,0.0
1676924569.430026,-5.859375,-38.57421875,-218.26171875,-0.48828125,0.0
1676924569.4337714,-8.30078125,-29.78515625,-104.98046875,-6.34765625,0.0
1676924569.4375165,-8.30078125,-65.4296875,-205.078125,26.85546875,0.0
1676924569.4412618,-7.32421875,-72.75390625,-435.05859375,36.62109375,0.0
1676924569.445007,-14.6484375,-13.18359375,-37.59765625,-11.23046875,0.0
1676924569.4487522,-14.6484375,-38.0859375,97.65625,-5.37109375,0.0
1676924569.4524975,-20.01953125,-62.01171875,-89.84375,26.85546875,0.0
1676924569.456248,-13.18359375,-48.33984375,-61.03515625,15.625,0.0
1676924569.4599986,-21.97265625,-42.48046875,74.70703125,-20.01953125,0.0
1676924569.4637492,-18.5546875,-51.7578125,17.578125,-34.66796875,0.0
1676924569.4674997,-7.8125,-47.36328125,-94.23828125,-12.20703125,0.0
1676924569.4712503,-11.23046875,-26.3671875,-83.0078125,16.11328125,0.0
1676924569.4750009,-14.6484375,-19.53125,-157.71484375,9.27734375,0.0
1676924569.4787512,-21.97265625,-11.71875,-180.6640625,-10.7421875,0.0
1676924569.4825017,-20.01953125,-41.50390625,-546.38671875,6.8359375,0.0
1676924569.4862523,-12.20703125,-1.46484375,-578.125,29.296875,0.0
1676924569.4900029,-7.32421875,57.12890625,48.33984375,8.30078125,0.0
1676924569.4937534,-1.953125,13.671875,-7.32421875,-13.18359375,0.0
1676924569.497504,-2.44140625,0.0,-89.84375,-10.7421875,0.0
1676924569.5012543,1.953125,11.23046875,72.265625,0.9765625,0.0
1676924569.5050044,10.7421875,10.7421875,137.20703125,-1.953125,0.0
1676924569.5087547,7.8125,-4.8828125,-47.36328125,-25.390625,0.0
1676924569.512505,-8.7890625,7.32421875,-135.25390625,-41.50390625,0.0
1676924569.5162554,-0.9765625,21.97265625,61.5234375,-11.71875,0.0
1676924569.5200057,-10.7421875,-7.32421875,-7.32421875,-6.34765625,0.0
1676924569.5237558,-30.2734375,-50.29296875,-327.63671875,-34.1796875,0.0
1676924569.527506,-41.9921875,-24.4140625,-439.453125,-45.8984375,0.0
1676924569.5312564,-39.0625,13.671875,-138.18359375,-30.76171875,0.0
1676924569.5350065,-15.625,-25.390625,-80.56640625,-0.9765625,0.0
1676924569.5387568,-25.390625,-44.43359375,-270.99609375,3.90625,0.0
1676924569.5425072,-28.3203125,-27.83203125,-211.42578125,-14.16015625,0.0
1676924569.5462606,-18.06640625,-7.32421875,90.33203125,-7.8125,0.0
1676924569.550014,-14.6484375,-34.66796875,62.01171875,19.04296875,0.0
1676924569.5537674,-3.90625,-32.2265625,-46.875,12.6953125,0.0
1676924569.5575209,-10.7421875,5.37109375,-22.4609375,0.48828125,0.0
1676924569.5612743,-19.53125,0.48828125,19.04296875,1.953125,0.0
1676924569.5650277,-25.390625,-27.83203125,-75.1953125,23.4375,0.0
1676924569.5687811,-40.0390625,-40.52734375,-536.62109375,42.96875,0.0
1676924569.5725346,-40.52734375,18.5546875,-481.93359375,12.20703125,0.0
1676924569.576288,-38.57421875,54.6875,76.66015625,-4.8828125,0.0
1676924569.5800414,-42.96875,11.23046875,16.11328125,14.6484375,0.0
1676924569.5837948,-42.96875,13.18359375,-88.8671875,5.859375,0.0
1676924569.5875483,-39.55078125,61.5234375,7.32421875,-11.23046875,0.0
1676924569.5913925,-47.36328125,72.265625,-57.6171875,-31.73828125,0.0
1676924569.5952365,-50.78125,49.8046875,-277.83203125,-16.11328125,0.0
1676924569.5990808,-33.203125,63.4765625,-276.85546875,30.2734375,0.0
1676924569.602925,-21.484375,105.95703125,37.109375,20.99609375,0.0
1676924569.606769,-23.92578125,91.30859375,75.1953125,-14.16015625,0.0
1676924569.6106133,-21.97265625,62.01171875,-294.921875,-0.48828125,0.0
1676924569.6144576,-19.53125,81.54296875,-336.9140625,27.34375,0.0
1676924569.6183016,-21.97265625,105.46875,36.62109375,18.06640625,0.0
1676924569.622146,-18.5546875,98.6328125,134.27734375,-6.34765625,0.0
1676924569.6259902,-28.80859375,54.19921875,-262.20703125,-5.859375,0.0
1676924569.6298342,-36.62109375,67.87109375,-446.2890625,22.94921875,0.0
1676924569.6336784,-23.92578125,120.1171875,30.2734375,41.015625,0.0
1676924569.6385803,-29.296875,80.56640625,97.16796875,14.6484375,0.0
1676924569.6434822,-34.1796875,67.87109375,-83.0078125,-8.30078125,0.0
1676924569.648384,-20.99609375,83.984375,-2.9296875,21.97265625,0.0
1676924569.653286,-22.4609375,74.70703125,39.55078125,42.96875,0.0
1676924569.6581879,-24.4140625,68.359375,-73.73046875,10.7421875,0.0
1676924569.6630898,-22.94921875,33.69140625,-538.57421875,-3.90625,0.0
1676924569.6679919,-30.2734375,60.546875,-582.03125,16.6015625,0.0
1676924569.6728938,-25.87890625,110.3515625,74.21875,22.4609375,0.0
1676924569.6777956,-16.11328125,64.94140625,53.7109375,2.9296875,0.0
1676924569.6826975,-18.5546875,64.453125,-139.16015625,-17.578125,0.0
1676924569.6875994,-25.87890625,89.84375,0.0,-4.39453125,0.0
1676924569.6925013,-20.99609375,87.890625,120.60546875,18.5546875,0.0
1676924569.6962514,-21.97265625,65.91796875,-29.296875,15.625,0.0
1676924569.7000015,-29.296875,60.05859375,-189.94140625,-5.37109375,0.0
1676924569.7037516,-18.5546875,86.42578125,-57.6171875,-9.765625,0.0
1676924569.7075016,-15.13671875,89.35546875,61.03515625,19.04296875,0.0
1676924569.7112517,-11.71875,55.6640625,-87.890625,35.15625,0.0
1676924569.7150018,-4.8828125,39.55078125,-332.03125,20.99609375,0.0
1676924569.718752,-4.39453125,70.80078125,-245.1171875,9.765625,0.0
1676924569.722502,-0.48828125,84.47265625,-113.28125,24.4140625,0.0
1676924569.726252,-4.39453125,43.45703125,-363.28125,47.8515625,0.0
1676924569.7300022,-16.11328125,45.8984375,-639.16015625,38.0859375,0.0
1676924569.7337523,-21.484375,112.79296875,-196.77734375,-0.9765625,0.0
1676924569.7375023,-16.11328125,99.12109375,81.0546875,-3.41796875,0.0
1676924569.7412322,-14.16015625,75.1953125,-98.6328125,21.97265625,0.0
1676924569.7449622,-13.671875,89.35546875,-24.90234375,8.30078125,0.0
1676924569.748692,-15.13671875,101.07421875,104.4921875,-29.78515625,0.0
1676924569.7524219,-15.625,84.47265625,17.578125,-24.4140625,0.0
1676924569.756152,-18.5546875,74.70703125,-127.9296875,-0.9765625,0.0
1676924569.7598817,-19.53125,79.58984375,-205.56640625,-2.9296875,0.0
1676924569.7636116,-24.90234375,88.8671875,-173.33984375,-29.296875,0.0
1676924569.7673416,-42.96875,79.58984375,-35.64453125,-51.26953125,0.0
1676924569.7710714,-30.2734375,58.59375,-336.42578125,-16.6015625,0.0
1676924569.7748013,-20.99609375,102.05078125,-236.328125,2.44140625,0.0
1676924569.7785313,-38.0859375,108.3984375,91.796875,-33.69140625,0.0
1676924569.7822611,-44.43359375,69.82421875,-162.109375,-45.8984375,0.0
1676924569.7860358,-37.109375,80.078125,-461.9140625,-17.08984375,0.0
1676924569.7898102,-23.92578125,122.0703125,-202.1484375,-3.41796875,0.0
1676924569.7935848,-31.73828125,109.375,166.015625,-17.578125,0.0
1676924569.7973595,-46.38671875,74.21875,-8.30078125,-39.55078125,0.0
1676924569.8011339,-54.6875,67.87109375,-108.88671875,-48.828125,0.0
1676924569.8049085,-56.15234375,68.84765625,-123.046875,-20.01953125,0.0
1676924569.8086832,-35.64453125,85.9375,-46.875,-24.4140625,0.0
1676924569.8124576,-30.76171875,54.6875,-186.5234375,-52.24609375,0.0
1676924569.8162322,-51.26953125,46.875,-485.3515625,-52.24609375,0.0
1676924569.8200068,-46.875,105.95703125,-68.359375,-42.96875,0.0
1676924569.8237813,-32.2265625,93.75,123.53515625,-28.3203125,0.0
1676924569.827556,-41.50390625,86.42578125,-87.890625,-39.55078125,0.0
1676924569.8313012,-48.828125,97.16796875,-64.453125,-49.31640625,0.0
1676924569.8350465,-43.45703125,99.609375,80.56640625,-26.3671875,0.0
1676924569.8387918,-38.57421875,87.40234375,-47.8515625,-5.37109375,0.0
1676924569.8425372,-41.9921875,87.40234375,-312.5,-22.4609375,0.0
1676924569.8462825,-53.22265625,99.609375,-217.7734375,-48.828125,0.0
1676924569.8500276,-48.33984375,86.42578125,-148.92578125,-27.83203125,0.0
1676924569.8537729,-41.015625,82.51953125,-163.0859375,4.8828125,0.0
1676924569.8575182,-31.73828125,64.453125,-400.87890625,8.30078125,0.0
1676924569.8612635,-37.59765625,95.21484375,-317.3828125,-7.32421875,0.0
1676924569.8650088,-42.48046875,109.86328125,121.09375,5.859375,0.0
1676924569.8687541,-21.97265625,77.63671875,21.97265625,37.109375,0.0
1676924569.8724995,-39.0625,90.8203125,-82.51953125,5.859375,0.0
1676924569.8762407,-56.640625,98.14453125,-36.1328125,-35.64453125,0.0
1676924569.8799822,-52.734375,88.8671875,44.921875,-52.734375,0.0
1676924569.8837235,-42.96875,66.89453125,-70.3125,-27.34375,0.0
1676924569.8874648,-32.71484375,70.80078125,-129.39453125,-13.671875,0.0
1676924569.8912063,-54.19921875,87.40234375,36.1328125,-67.3828125,0.0
1676924569.8949475,-58.59375,78.61328125,-119.62890625,-73.2421875,0.0
1676924569.8986888,-46.38671875,63.4765625,-415.0390625,-25.390625,0.0
1676924569.9024303,-43.45703125,76.66015625,-686.03515625,9.765625,0.0
1676924569.9061716,-43.45703125,144.04296875,-250.9765625,-15.625,0.0
1676924569.9099128,-43.45703125,124.0234375,139.16015625,-31.25,0.0
1676924569.9136543,-32.2265625,81.54296875,-69.3359375,-14.6484375,0.0
1676924569.9173956,-32.2265625,91.796875,-71.77734375,7.32421875,0.0
1676924569.9211545,-39.55078125,107.91015625,141.6015625,16.11328125,0.0
1676924569.9249132,-34.66796875,90.8203125,108.3984375,-2.44140625,0.0
1676924569.9286718,-34.1796875,78.61328125,-81.54296875,-6.8359375,0.0
1676924569.9324307,-29.296875,88.8671875,-55.17578125,17.578125,0.0
1676924569.9361897,-19.53125,72.265625,39.55078125,11.71875,0.0
1676924569.9399483,-28.80859375,46.38671875,-64.94140625,-12.6953125,0.0
1676924569.943707,-24.90234375,20.5078125,-529.296875,0.48828125,0.0
1676924569.947466,-8.30078125,66.40625,-485.83984375,20.01953125,0.0
1676924569.9512248,-13.18359375,89.84375,35.64453125,16.11328125,0.0
1676924569.9549835,-15.13671875,36.1328125,-64.453125,-5.859375,0.0
1676924569.9587421,-14.16015625,39.55078125,-240.72265625,-22.94921875,0.0
1676924569.962501,-17.08984375,73.73046875,-48.33984375,-9.27734375,0.0
1676924569.9662762,-18.06640625,86.42578125,145.01953125,-1.46484375,0.0
1676924569.970051,-17.578125,63.4765625,-39.0625,-22.94921875,0.0
1676924569.973826,-21.484375,60.05859375,-240.72265625,-43.9453125,0.0
1676924569.977601,-20.99609375,95.703125,-42.96875,-38.0859375,0.0
1676924569.9813762,-12.20703125,87.890625,69.3359375,-14.16015625,0.0
1676924569.985151,-17.08984375,52.24609375,-270.99609375,-9.27734375,0.0
1676924569.988926,-24.90234375,79.1015625,-532.2265625,-40.52734375,0.0
1676924569.992701,-28.80859375,139.16015625,-160.15625,-58.59375,0.0
1676924569.9964762,-29.296875,127.9296875,59.08203125,-29.296875,0.0
1676924570.000251,-45.8984375,106.4453125,-134.27734375,-15.13671875,0.0
1676924570.004026,-56.640625,117.1875,-166.9921875,-41.9921875,0.0
1676924570.007801,-71.77734375,125.9765625,35.15625,-69.3359375,0.0
1676924570.0128539,-80.078125,98.6328125,27.34375,-62.5,0.0
1676924570.0179067,-83.0078125,90.8203125,-237.3046875,-48.33984375,0.0
1676924570.0229595,-113.76953125,117.1875,-219.23828125,-91.30859375,0.0
1676924570.0280123,-134.765625,125.48828125,27.83203125,-134.765625,0.0
1676924570.033065,-141.11328125,119.62890625,33.69140625,-131.34765625,0.0
1676924570.038118,-158.69140625,96.6796875,-382.32421875,-108.3984375,0.0
1676924570.0431705,-177.734375,126.953125,-421.875,-140.625,0.0
1676924570.0482233,-197.265625,165.52734375,34.1796875,-208.49609375,0.0
1676924570.053276,-215.33203125,137.20703125,-9.765625,-226.5625,0.0
1676924570.0583289,-228.02734375,131.8359375,-227.5390625,-220.21484375,0.0
1676924570.0633817,-253.90625,168.45703125,-85.44921875,-247.55859375,0.0
1676924570.0684345,-300.29296875,169.921875,84.47265625,-316.89453125,0.0
1676924570.0721018,-320.80078125,147.94921875,-82.51953125,-343.26171875,0.0
1676924570.075769,-310.546875,159.66796875,-156.25,-312.01171875,0.0
1676924570.0794363,-322.75390625,187.98828125,21.484375,-329.1015625,0.0
1676924570.0831037,-335.44921875,172.8515625,52.734375,-359.86328125,0.0
1676924570.086771,-331.54296875,142.08984375,-162.59765625,-344.23828125,0.0
1676924570.0904384,-342.28515625,135.7421875,-338.37890625,-335.44921875,0.0
1676924570.0941055,-332.51953125,137.6953125,-289.0625,-316.89453125,0.0
1676924570.0977728,-301.26953125,156.73828125,-83.984375,-312.98828125,0.0
1676924570.1014402,-305.6640625,113.76953125,-242.1875,-315.91796875,0.0
1676924570.1051073,-298.828125,94.23828125,-726.07421875,-251.953125,0.0
1676924570.1087747,-275.390625,165.52734375,-260.25390625,-216.30859375,0.0
1676924570.112442,-270.01953125,139.16015625,145.99609375,-225.09765625,0.0
1676924570.1161952,-247.55859375,113.28125,-72.75390625,-217.7734375,0.0
1676924570.1199486,-234.375,126.46484375,-30.2734375,-192.3828125,0.0
1676924570.123702,-208.984375,125.9765625,99.12109375,-143.5546875,0.0
1676924570.1274552,-179.19921875,111.81640625,23.4375,-141.11328125,0.0
1676924570.1312084,-165.52734375,97.65625,-54.19921875,-153.3203125,0.0
1676924570.1349618,-153.80859375,87.890625,-173.33984375,-124.0234375,0.0
1676924570.1387153,-134.765625,99.609375,-173.828125,-86.9140625,0.0
1676924570.1424685,-110.83984375,109.375,52.24609375,-61.03515625,0.0
1676924570.1462216,-92.7734375,57.6171875,-434.5703125,-59.5703125,0.0
1676924570.149975,-76.171875,97.16796875,-542.48046875,-58.59375,0.0
1676924570.1537285,-48.828125,145.99609375,104.4921875,-25.87890625,0.0
1676924570.1574817,-23.4375,98.6328125,18.06640625,10.25390625,0.0
1676924570.1612332,-23.92578125,113.76953125,-153.80859375,11.71875,0.0
1676924570.1649845,-25.390625,168.9453125,-38.57421875,-8.30078125,0.0
1676924570.168736,0.9765625,171.38671875,84.9609375,21.97265625,0.0
1676924570.1724875,14.16015625,157.71484375,-23.4375,64.453125,0.0
1676924570.1762388,18.06640625,159.1796875,-142.08984375,48.828125,0.0
1676924570.1799903,33.69140625,153.80859375,-206.0546875,35.15625,0.0
1676924570.1837418,42.48046875,170.41015625,-127.44140625,47.36328125,0.0
1676924570.187493,40.0390625,138.18359375,-220.21484375,84.47265625,0.0
1676924570.1912446,46.38671875,116.2109375,-463.8671875,103.02734375,0.0
1676924570.194996,59.08203125,167.48046875,-39.0625,78.125,0.0
1676924570.1987474,50.29296875,141.11328125,47.8515625,69.82421875,0.0
1676924570.202499,48.828125,126.953125,-171.38671875,88.37890625,0.0
1676924570.2063766,57.12890625,139.6484375,-182.6171875,99.12109375,0.0
1676924570.210254,54.6875,152.34375,-0.9765625,89.84375,0.0
1676924570.2141314,50.29296875,136.71875,51.26953125,74.21875,0.0
1676924570.218009,43.9453125,121.58203125,-213.8671875,86.9140625,0.0
1676924570.2218866,42.48046875,141.11328125,-172.36328125,116.69921875,0.0
1676924570.225764,46.875,130.37109375,-117.1875,98.14453125,0.0
1676924570.2296414,47.8515625,116.2109375,-185.546875,66.40625,0.0
1676924570.233519,44.43359375,91.796875,-489.2578125,89.84375,0.0
1676924570.2373967,46.875,118.1640625,-363.76953125,113.28125,0.0
1676924570.241274,58.10546875,133.7890625,148.4375,100.09765625,0.0
1676924570.2451515,52.734375,93.75,-29.78515625,82.03125,0.0
1676924570.2490292,43.45703125,95.21484375,-141.6015625,86.9140625,0.0
1676924570.2526474,44.921875,105.95703125,21.97265625,115.72265625,0.0
1676924570.2562656,44.43359375,101.07421875,126.953125,122.55859375,0.0
1676924570.2598839,37.59765625,79.58984375,-28.3203125,88.37890625,0.0
1676924570.2635021,19.04296875,63.96484375,-240.234375,67.87109375,0.0
1676924570.2671204,19.04296875,84.47265625,-127.9296875,94.7265625,0.0
1676924570.2707386,23.92578125,86.42578125,-89.84375,98.6328125,0.0
1676924570.2743568,18.06640625,50.29296875,-288.0859375,65.4296875,0.0
1676924570.277975,17.08984375,34.66796875,-646.484375,58.59375,0.0
1676924570.2815933,21.484375,92.7734375,-350.5859375,68.84765625,0.0
1676924570.2852116,32.71484375,100.5859375,116.2109375,84.9609375,0.0
1676924570.2888298,20.01953125,88.8671875,5.37109375,79.1015625,0.0
1676924570.292448,8.7890625,97.65625,-34.66796875,50.78125,0.0
1676924570.2962027,1.953125,97.65625,75.68359375,47.36328125,0.0
1676924570.2999575,12.20703125,82.51953125,29.296875,75.1953125,0.0
1676924570.3037121,18.5546875,79.58984375,-104.4921875,76.171875,0.0
1676924570.3074667,12.20703125,104.00390625,-25.390625,46.38671875,0.0
1676924570.3112216,9.765625,105.95703125,54.19921875,45.8984375,0.0
1676924570.3149762,-2.44140625,96.6796875,-52.734375,68.84765625,0.0
1676924570.3187308,-4.39453125,56.640625,-515.625,72.265625,0.0
1676924570.3224857,-6.8359375,63.96484375,-681.640625,50.29296875,0.0
1676924570.3262403,-13.671875,109.86328125,-85.44921875,28.80859375,0.0
1676924570.329995,-7.32421875,73.2421875,55.17578125,50.29296875,0.0
1676924570.3337498,1.46484375,57.6171875,-253.41796875,64.453125,0.0
1676924570.3375044,-9.27734375,89.35546875,-143.06640625,35.15625,0.0
1676924570.3412578,-24.4140625,88.8671875,83.49609375,7.8125,0.0
1676924570.345011,-20.5078125,67.3828125,-91.30859375,24.4140625,0.0
1676924570.3487644,-19.04296875,74.21875,-196.2890625,58.59375,0.0
1676924570.3525176,-28.80859375,96.19140625,23.92578125,41.9921875,0.0
1676924570.356271,-41.50390625,90.8203125,99.12109375,9.27734375,0.0
1676924570.3600245,-48.828125,61.5234375,-316.40625,29.78515625,0.0
1676924570.3637776,-42.96875,91.30859375,-502.44140625,71.77734375,0.0
1676924570.367531,-34.1796875,145.01953125,1.953125,50.78125,0.0
1676924570.3712842,-38.57421875,120.60546875,128.90625,5.859375,0.0
1676924570.3750377,-42.96875,104.4921875,-150.390625,24.90234375,0.0
1676924570.3787909,-40.0390625,133.30078125,-195.3125,60.546875,0.0
1676924570.3825443,-44.43359375,159.1796875,-103.02734375,56.640625,0.0
1676924570.3875325,-48.828125,159.66796875,-10.25390625,41.9921875,0.0
1676924570.3925207,-54.19921875,139.16015625,-233.3984375,20.01953125,0.0
1676924570.3975089,-50.29296875,155.2734375,-259.765625,37.109375,0.0
1676924570.402497,-36.62109375,160.15625,56.640625,55.17578125,0.0
1676924570.4074852,-38.0859375,131.34765625,72.75390625,45.41015625,0.0
1676924570.4124734,-44.43359375,118.1640625,-162.109375,41.50390625,0.0
1676924570.4174616,-40.0390625,128.90625,-278.80859375,42.96875,0.0
1676924570.4224498,-20.5078125,139.6484375,12.20703125,63.4765625,0.0
1676924570.427438,-19.04296875,118.65234375,60.546875,65.4296875,0.0
1676924570.4324262,-30.76171875,115.234375,-322.265625,46.38671875,0.0
1676924570.4374144,-25.87890625,155.76171875,-173.33984375,42.48046875,0.0
1676924570.4424026,-27.83203125,150.390625,158.69140625,55.6640625,0.0
1676924570.4461606,-33.203125,111.328125,-19.04296875,52.734375,0.0
1676924570.4499187,-44.921875,104.98046875,-133.30078125,28.80859375,0.0
1676924570.4536767,-62.01171875,116.2109375,-105.46875,11.23046875,0.0
1676924570.4574347,-48.828125,132.32421875,-22.94921875,31.25,0.0
1676924570.4611926,-53.22265625,104.4921875,-47.8515625,41.015625,0.0
1676924570.4649506,-65.91796875,65.4296875,-354.4921875,19.04296875,0.0
1676924570.4687088,-61.5234375,96.19140625,-221.6796875,-0.48828125,0.0
1676924570.4724667,-59.5703125,108.88671875,119.62890625,15.13671875,0.0
1676924570.4762247,-54.19921875,59.08203125,-120.60546875,41.015625,0.0
1676924570.4799829,-55.6640625,56.640625,-425.78125,40.52734375,0.0
1676924570.4837408,-66.40625,111.81640625,-11.23046875,5.859375,0.0
1676924570.4874988,-71.77734375,75.68359375,113.28125,-3.41796875,0.0
1676924570.4912586,-61.03515625,58.59375,-81.0546875,26.85546875,0.0
1676924570.4950187,-55.17578125,82.51953125,-18.06640625,22.4609375,0.0
1676924570.4987788,-68.359375,80.078125,134.27734375,-6.34765625,0.0
1676924570.5025387,-79.58984375,61.5234375,60.546875,-6.34765625,0.0
1676924570.5062985,-70.80078125,54.19921875,-57.12890625,29.296875,0.0
1676924570.5100586,-65.4296875,46.875,-113.76953125,41.50390625,0.0
1676924570.5138187,-61.03515625,35.15625,-164.0625,9.27734375,0.0
1676924570.5175786,-58.10546875,48.33984375,-142.578125,-2.44140625,0.0
1676924570.5213385,-59.5703125,17.578125,-541.015625,41.9921875,0.0
1676924570.5250986,-62.01171875,52.734375,-563.4765625,58.59375,0.0
1676924570.5288587,-59.5703125,110.3515625,60.05859375,25.87890625,0.0
1676924570.5326185,-47.36328125,62.01171875,-14.16015625,9.27734375,0.0
1676924570.536357,-49.31640625,49.31640625,-86.42578125,15.625,0.0
1676924570.5400953,-57.12890625,69.82421875,130.37109375,29.296875,0.0
1676924570.5438335,-61.03515625,65.91796875,222.16796875,14.6484375,0.0
1676924570.547572,-70.80078125,44.43359375,4.39453125,-7.32421875,0.0
1676924570.5513103,-75.1953125,47.36328125,-113.28125,0.48828125,0.0
1676924570.5550485,-63.96484375,52.24609375,-116.2109375,33.203125,0.0
1676924570.5587869,-58.59375,81.54296875,-34.1796875,34.66796875,0.0
1676924570.5625253,-66.40625,52.24609375,-150.390625,-2.9296875,0.0
1676924570.5662637,-71.77734375,37.109375,-537.59765625,-4.39453125,0.0
1676924570.570002,-71.2890625,98.14453125,-250.9765625,26.3671875,0.0
1676924570.5737402,-62.01171875,90.8203125,17.578125,17.578125,0.0
1676924570.5774786,-56.15234375,66.89453125,-170.8984375,8.30078125,0.0
1676924570.5812325,-74.70703125,89.84375,-198.2421875,2.9296875,0.0
1676924570.5849867,-67.87109375,119.140625,115.72265625,3.41796875,0.0
1676924570.5887406,-50.78125,91.796875,83.49609375,24.4140625,0.0
1676924570.5924945,-45.41015625,94.23828125,-29.78515625,23.4375,0.0
1676924570.5962484,-41.9921875,108.3984375,28.3203125,13.18359375,0.0
1676924570.6000023,-52.734375,92.7734375,-65.4296875,16.6015625,0.0
1676924570.6037564,-47.36328125,99.12109375,-109.375,41.50390625,0.0
1676924570.6075103,-35.64453125,89.35546875,-382.32421875,43.45703125,0.0
1676924570.6112642,-46.875,110.83984375,-371.09375,21.484375,0.0
1676924570.6150184,-52.734375,127.44140625,143.06640625,16.11328125,0.0
1676924570.6187723,-37.59765625,84.47265625,66.40625,41.50390625,0.0
1676924570.6225262,-34.1796875,82.51953125,-66.40625,42.48046875,0.0
1676924570.626348,-45.41015625,104.4921875,45.8984375,14.16015625,0.0
1676924570.6301699,-55.6640625,96.6796875,-42.96875,9.765625,0.0
1676924570.6339915,-49.31640625,75.1953125,-219.23828125,37.59765625,0.0
1676924570.6378133,-41.50390625,73.2421875,-220.703125,44.921875,0.0
1676924570.6416352,-44.43359375,81.54296875,47.36328125,6.8359375,0.0
1676924570.6454568,-50.78125,36.62109375,-13.18359375,-10.25390625,0.0
1676924570.6492786,-48.828125,1.953125,-314.94140625,37.109375,0.0
1676924570.6531005,-44.43359375,25.390625,-381.8359375,62.01171875,0.0
1676924570.6569223,-38.0859375,72.75390625,6.8359375,16.11328125,0.0
1676924570.6607442,-44.43359375,51.7578125,157.2265625,-13.671875,0.0
1676924570.6645658,-48.828125,38.57421875,-55.17578125,-0.9765625,0.0
1676924570.6683877,-37.59765625,55.6640625,-14.6484375,21.97265625,0.0
1676924570.6720371,-41.50390625,68.359375,189.94140625,12.20703125,0.0
1676924570.6756864,-60.05859375,62.5,134.765625,-20.5078125,0.0
1676924570.6793356,-65.91796875,68.359375,-53.22265625,-12.20703125,0.0
1676924570.682985,-60.05859375,83.49609375,-10.7421875,18.06640625,0.0
1676924570.6866345,-64.453125,68.359375,10.25390625,7.8125,0.0
1676924570.6902838,-70.80078125,62.5,-99.609375,-13.18359375,0.0
1676924570.693933,-85.44921875,24.90234375,-541.015625,-9.27734375,0.0
1676924570.6975825,-73.73046875,53.22265625,-633.30078125,5.859375,0.0
1676924570.701232,-50.29296875,107.91015625,61.5234375,12.6953125,0.0
1676924570.7048812,-50.78125,58.10546875,83.0078125,0.48828125,0.0
1676924570.7085304,-57.6171875,53.22265625,-104.4921875,-29.296875,0.0
1676924570.71218,-56.15234375,84.47265625,74.21875,-14.6484375,0.0
1676924570.7159588,-50.29296875,73.2421875,161.1328125,25.390625,0.0
1676924570.7197375,-49.31640625,45.41015625,-13.671875,16.11328125,0.0
1676924570.7235165,-57.12890625,57.6171875,-164.55078125,-11.23046875,0.0
1676924570.7272952,-51.26953125,81.0546875,-14.6484375,10.7421875,0.0
1676924570.731074,-36.1328125,70.3125,78.125,45.41015625,0.0
1676924570.7348528,-39.0625,17.578125,-265.625,41.50390625,0.0
1676924570.7386317,-51.7578125,53.22265625,-446.77734375,25.390625,0.0
1676924570.7424107,-47.8515625,132.32421875,-75.68359375,12.20703125,0.0
1676924570.7461894,-49.8046875,95.21484375,-13.671875,20.01953125,0.0
1676924570.7499683,-71.77734375,39.55078125,-355.46875,14.6484375,0.0
1676924570.753747,-89.35546875,51.7578125,-390.13671875,-21.97265625,0.0
1676924570.757526,-86.42578125,101.07421875,85.44921875,-38.57421875,0.0
1676924570.7625139,-81.54296875,58.59375,114.74609375,-8.7890625,0.0
1676924570.7675018,-84.47265625,36.1328125,-97.65625,12.20703125,0.0
1676924570.7724898,-85.44921875,56.640625,-22.94921875,-6.8359375,0.0
1676924570.7774777,-78.61328125,40.52734375,79.58984375,-34.66796875,0.0
1676924570.7824657,-72.75390625,19.53125,35.15625,-10.7421875,0.0
1676924570.7874537,-70.80078125,-2.9296875,-175.78125,22.4609375,0.0
1676924570.7924414,-72.75390625,-0.9765625,-194.3359375,5.37109375,0.0
1676924570.7974293,-79.58984375,16.6015625,84.47265625,-12.6953125,0.0
1676924570.8024173,-77.1484375,-7.32421875,43.45703125,-10.25390625,0.0
1676924570.8074052,-69.3359375,-28.3203125,-321.2890625,20.01953125,0.0
1676924570.8123932,-62.98828125,3.41796875,-185.546875,17.578125,0.0
1676924570.8173811,-66.40625,0.48828125,70.80078125,-16.6015625,0.0
1676924570.8211405,-65.91796875,-21.484375,-196.2890625,-19.53125,0.0
1676924570.8249002,-49.31640625,0.9765625,-303.7109375,8.7890625,0.0
1676924570.8286595,-26.85546875,16.6015625,-20.01953125,19.04296875,0.0
1676924570.832419,-31.25,-7.8125,129.39453125,-1.46484375,0.0
1676924570.8361785,-31.73828125,-30.2734375,-77.1484375,-5.859375,0.0
1676924570.839938,-18.06640625,-27.34375,-307.6171875,28.80859375,0.0
1676924570.8436973,-19.04296875,-6.8359375,-268.5546875,44.43359375,0.0
1676924570.847457,-17.08984375,28.3203125,19.04296875,12.20703125,0.0
1676924570.8512163,-24.90234375,-5.37109375,-156.73828125,-0.48828125,0.0
1676924570.8549757,-16.6015625,-13.18359375,-534.66796875,30.76171875,0.0
1676924570.8587353,-4.39453125,56.640625,-72.265625,55.17578125,0.0
1676924570.8624947,0.0,45.8984375,134.765625,24.4140625,0.0
1676924570.866235,-6.8359375,36.62109375,-118.65234375,-10.25390625,0.0
1676924570.8699753,-35.64453125,69.82421875,-82.51953125,-5.37109375,0.0
1676924570.8737156,-38.0859375,85.9375,82.03125,10.7421875,0.0
1676924570.877456,-32.2265625,67.87109375,12.20703125,9.765625,0.0
1676924570.8811963,-41.015625,47.36328125,-377.9296875,-3.41796875,0.0
1676924570.8849366,-41.50390625,68.359375,-472.16796875,5.859375,0.0
1676924570.888677,-32.71484375,92.28515625,-97.16796875,9.765625,0.0
1676924570.8924172,-16.11328125,79.58984375,92.7734375,-3.41796875,0.0
1676924570.8961575,-25.390625,53.7109375,-312.01171875,-6.34765625,0.0
1676924570.8998978,-27.34375,101.5625,-329.1015625,-20.5078125,0.0
1676924570.9036381,-13.671875,125.48828125,129.39453125,-13.671875,0.0
1676924570.9073784,-8.7890625,89.84375,61.5234375,17.08984375,0.0
1676924570.9111373,-3.41796875,92.7734375,-50.29296875,3.41796875,0.0
1676924570.9148965,-13.18359375,114.74609375,-1.46484375,-29.296875,0.0
1676924570.9186554,-10.7421875,112.79296875,62.98828125,-13.18359375,0.0
1676924570.9224143,4.8828125,99.609375,-49.31640625,8.7890625,0.0
1676924570.9261734,0.9765625,96.19140625,-174.31640625,-19.04296875,0.0
1676924570.9299324,-24.4140625,98.6328125,-251.953125,-41.015625,0.0
1676924570.9336913,-35.64453125,115.234375,-213.8671875,-41.50390625,0.0
1676924570.9374504,-26.3671875,80.56640625,-271.484375,-8.7890625,0.0
1676924570.9412093,-34.66796875,59.5703125,-663.0859375,-0.9765625,0.0
1676924570.9449682,-48.33984375,133.30078125,-255.37109375,-40.52734375,0.0
1676924570.9487274,-49.8046875,124.0234375,115.234375,-48.828125,0.0
1676924570.9524863,-54.19921875,89.35546875,-100.5859375,-20.99609375,0.0
1676924570.9562452,-60.05859375,84.9609375,-65.91796875,-7.32421875,0.0
1676924570.9600043,-69.3359375,64.453125,136.71875,-30.2734375,0.0
1676924570.9637632,-79.58984375,38.0859375,77.1484375,-52.24609375,0.0
1676924570.9675224,-66.89453125,46.875,-86.42578125,-14.6484375,0.0
1676924570.9712813,-62.5,57.12890625,-68.359375,19.53125,0.0
1676924570.9750404,-63.96484375,49.8046875,-162.59765625,-10.25390625,0.0
1676924570.9787993,-57.6171875,60.546875,-196.77734375,-31.25,0.0
1676924570.9825583,-56.15234375,29.296875,-520.99609375,-0.48828125,0.0
1676924570.9863174,-44.43359375,56.640625,-512.6953125,17.578125,0.0
1676924570.9900763,-51.7578125,92.28515625,78.125,-12.6953125,0.0
1676924570.9938354,-70.3125,52.24609375,-18.06640625,-33.69140625,0.0
1676924570.9975944,-80.078125,52.734375,-194.3359375,-32.71484375,0.0
1676924571.001366,-91.30859375,82.51953125,-29.78515625,-26.85546875,0.0
1676924571.0051372,-106.4453125,87.40234375,125.9765625,-39.55078125,0.0
1676924571.0089087,-117.1875,58.10546875,-63.4765625,-59.5703125,0.0
1676924571.01268,-135.25390625,63.96484375,-232.421875,-85.9375,0.0
1676924571.0164516,-153.3203125,88.37890625,-5.859375,-81.54296875,0.0
