timestamps,TP9,Fp1,Fp2,TP10,stim
1676924159.719781,-1.953125,-57.6171875,-71.77734375,-73.73046875,0.0
1676924159.7235315,-11.23046875,-62.01171875,-74.21875,-71.2890625,0.0
1676924159.7272823,-83.984375,-56.640625,-69.3359375,-62.01171875,0.0
1676924159.731033,-124.51171875,-54.19921875,-67.3828125,-53.7109375,0.0
1676924159.7348843,-55.17578125,-55.6640625,-72.75390625,-60.05859375,0.0
1676924159.7387357,-14.16015625,-51.26953125,-74.21875,-51.26953125,0.0
1676924159.7425869,-73.2421875,-46.38671875,-64.453125,-29.296875,0.0
1676924159.746438,-97.65625,-47.8515625,-58.59375,-42.48046875,0.0
1676924159.7502894,-26.3671875,-48.33984375,-62.5,-36.62109375,0.0
1676924159.7541406,9.27734375,-48.828125,-63.96484375,-39.0625,0.0
1676924159.7579918,-45.41015625,-43.9453125,-65.4296875,-57.12890625,0.0
1676924159.7618432,-89.35546875,-47.36328125,-76.66015625,-54.19921875,0.0
1676924159.7656944,-41.50390625,-55.17578125,-74.70703125,-73.2421875,0.0
1676924159.7695456,18.06640625,-45.8984375,-58.59375,-69.3359375,0.0
1676924159.773397,1.46484375,-45.8984375,-53.22265625,-50.29296875,0.0
1676924159.7772481,-57.6171875,-47.8515625,-60.05859375,-49.31640625,0.0
1676924159.7809038,-49.8046875,-26.85546875,-60.05859375,-49.31640625,0.0
1676924159.7845592,15.625,-28.3203125,-59.5703125,-49.31640625,0.0
1676924159.788215,9.27734375,-42.48046875,-62.98828125,-44.43359375,0.0
1676924159.7918706,-67.87109375,-44.43359375,-63.4765625,-31.25,0.0
1676924159.795526,-90.8203125,-35.64453125,-59.08203125,-17.578125,0.0
1676924159.7991817,-21.97265625,-30.76171875,-53.22265625,-17.578125,0.0
1676924159.8028374,17.578125,-41.50390625,-48.33984375,-19.04296875,0.0
1676924159.8064928,-29.78515625,-53.7109375,-48.828125,-41.50390625,0.0
1676924159.8101485,-85.9375,-42.48046875,-60.546875,-63.4765625,0.0
1676924159.8138041,-44.921875,-27.34375,-66.89453125,-58.10546875,0.0
1676924159.8174596,20.01953125,-39.0625,-64.94140625,-62.5,0.0
1676924159.8211153,-25.390625,-55.17578125,-58.10546875,-48.33984375,0.0
1676924159.8261049,-82.51953125,-58.10546875,-52.734375,-27.34375,0.0
1676924159.8310945,-57.12890625,-44.921875,-55.6640625,-46.38671875,0.0
1676924159.8360841,-0.9765625,-30.76171875,-67.87109375,-61.03515625,0.0
1676924159.8410738,-22.4609375,-45.41015625,-73.73046875,-60.546875,0.0
1676924159.8460634,-91.796875,-77.63671875,-73.2421875,-69.3359375,0.0
1676924159.8510528,-73.73046875,-56.640625,-67.3828125,-57.12890625,0.0
1676924159.8560424,-3.41796875,-25.87890625,-58.59375,-37.109375,0.0
1676924159.861032,7.8125,-38.0859375,-65.4296875,-60.546875,0.0
1676924159.8660216,-53.22265625,-46.38671875,-70.3125,-69.3359375,0.0
1676924159.8710113,-95.21484375,-38.0859375,-79.58984375,-40.0390625,0.0
1676924159.876001,-48.828125,-44.43359375,-86.42578125,-48.828125,0.0
1676924159.8809905,-7.32421875,-59.08203125,-86.9140625,-78.61328125,0.0
1676924159.8847275,-52.734375,-43.9453125,-78.125,-55.6640625,0.0
1676924159.8884645,-92.7734375,-32.2265625,-70.80078125,-53.22265625,0.0
1676924159.8922014,-47.36328125,-56.15234375,-77.1484375,-51.7578125,0.0
1676924159.8959382,6.8359375,-62.98828125,-84.47265625,-40.0390625,0.0
1676924159.8996751,-22.94921875,-49.8046875,-84.47265625,-52.734375,0.0
1676924159.903412,-91.30859375,-27.34375,-76.66015625,-50.29296875,0.0
1676924159.907149,-66.89453125,-29.78515625,-75.68359375,-31.73828125,0.0
1676924159.910886,3.41796875,-44.921875,-74.70703125,-23.4375,0.0
1676924159.9146228,-5.37109375,-27.83203125,-76.171875,-13.671875,0.0
1676924159.9183598,-74.70703125,-36.1328125,-79.58984375,-47.36328125,0.0
1676924159.9220967,-83.49609375,-41.015625,-79.1015625,-69.82421875,0.0
1676924159.9258337,-15.625,-32.2265625,-77.1484375,-38.0859375,0.0
1676924159.929614,12.6953125,-41.50390625,-65.4296875,-12.20703125,0.0
1676924159.9333944,-47.36328125,-36.1328125,-60.546875,-14.16015625,0.0
1676924159.9371748,-98.14453125,-35.15625,-73.73046875,-61.5234375,0.0
1676924159.940955,-43.45703125,-54.6875,-89.35546875,-71.77734375,0.0
1676924159.9447353,-2.44140625,-62.01171875,-92.7734375,-29.296875,0.0
1676924159.9485157,-39.55078125,-47.8515625,-83.0078125,-26.3671875,0.0
1676924159.952296,-92.7734375,-37.59765625,-75.68359375,-60.05859375,0.0
1676924159.9560764,-64.453125,-40.0390625,-68.359375,-53.22265625,0.0
1676924159.9598565,-3.41796875,-56.640625,-62.5,-35.15625,0.0
1676924159.9636369,-20.01953125,-66.40625,-74.70703125,-54.19921875,0.0
1676924159.9674172,-67.87109375,-39.0625,-79.1015625,-57.6171875,0.0
1676924159.9711976,-59.5703125,-20.5078125,-79.58984375,-48.828125,0.0
1676924159.9750051,-18.06640625,-30.76171875,-86.9140625,-64.453125,0.0
1676924159.9788127,-1.46484375,-36.1328125,-82.03125,-93.75,0.0
1676924159.9826202,-68.359375,-35.64453125,-81.0546875,-73.2421875,0.0
1676924159.9864278,-116.2109375,-39.55078125,-83.49609375,-33.69140625,0.0
1676924159.9902353,-51.26953125,-41.9921875,-77.63671875,-32.2265625,0.0
1676924159.9940429,-4.8828125,-41.9921875,-78.125,-62.98828125,0.0
1676924159.9978507,-56.15234375,-46.875,-75.1953125,-62.5,0.0
1676924160.0016582,-107.91015625,-45.8984375,-78.61328125,-35.64453125,0.0
1676924160.0054657,-49.8046875,-35.64453125,-96.6796875,-65.91796875,0.0
1676924160.0092733,15.625,-34.66796875,-87.40234375,-83.984375,0.0
1676924160.0130808,-33.69140625,-40.0390625,-65.91796875,-56.640625,0.0
1676924160.0168884,-111.81640625,-34.66796875,-67.87109375,-43.45703125,0.0
1676924160.0205488,-75.68359375,-34.1796875,-69.3359375,-38.57421875,0.0
1676924160.024209,-6.34765625,-50.29296875,-70.80078125,-71.2890625,0.0
1676924160.0278695,-19.04296875,-43.45703125,-78.125,-81.0546875,0.0
1676924160.03153,-79.1015625,-36.1328125,-79.58984375,-47.8515625,0.0
1676924160.03519,-92.7734375,-52.24609375,-83.984375,-49.8046875,0.0
1676924160.0388505,-23.4375,-43.45703125,-84.9609375,-67.3828125,0.0
1676924160.042511,-10.25390625,-40.0390625,-82.03125,-71.77734375,0.0
1676924160.0461712,-67.87109375,-52.24609375,-78.125,-73.73046875,0.0
1676924160.0498316,-80.078125,-48.33984375,-69.82421875,-63.96484375,0.0
1676924160.053492,-12.6953125,-50.78125,-65.91796875,-43.45703125,0.0
1676924160.0571523,20.5078125,-47.36328125,-67.87109375,-48.33984375,0.0
1676924160.0608127,-49.8046875,-36.62109375,-64.94140625,-63.96484375,0.0
1676924160.0645692,-83.984375,-38.0859375,-57.12890625,-64.94140625,0.0
1676924160.0683258,-41.015625,-39.55078125,-56.640625,-49.8046875,0.0
1676924160.0720823,0.9765625,-39.0625,-63.4765625,-45.8984375,0.0
1676924160.0758388,-23.92578125,-47.8515625,-65.4296875,-18.06640625,0.0
1676924160.0795953,-97.16796875,-58.59375,-60.546875,-11.71875,0.0
1676924160.083352,-65.4296875,-44.43359375,-55.17578125,-51.26953125,0.0
1676924160.0871086,7.32421875,-26.3671875,-52.734375,-56.15234375,0.0
1676924160.0908651,-3.90625,-28.3203125,-55.6640625,-69.3359375,0.0
1676924160.0946217,-75.68359375,-38.0859375,-65.4296875,-81.0546875,0.0
1676924160.0983782,-89.35546875,-42.48046875,-64.94140625,-72.265625,0.0
1676924160.1021347,-28.80859375,-36.62109375,-46.38671875,-62.5,0.0
1676924160.1058912,-13.18359375,-53.7109375,-41.015625,-43.9453125,0.0
1676924160.1096563,-70.3125,-66.89453125,-48.33984375,-45.41015625,0.0
1676924160.1134214,-106.93359375,-45.8984375,-48.33984375,-62.5,0.0
1676924160.1171868,-37.109375,-27.34375,-43.45703125,-71.2890625,0.0
1676924160.120952,9.765625,-21.484375,-39.0625,-78.61328125,0.0
1676924160.124717,-54.19921875,-46.38671875,-42.48046875,-67.87109375,0.0
1676924160.1284823,-116.69921875,-71.77734375,-47.8515625,-79.1015625,0.0
1676924160.1322474,-92.28515625,-52.24609375,-48.828125,-60.546875,0.0
1676924160.1360126,-22.4609375,-41.015625,-48.828125,-58.10546875,0.0
1676924160.1397777,-31.73828125,-36.1328125,-41.9921875,-73.2421875,0.0
1676924160.1435428,-86.9140625,-41.50390625,-34.66796875,-49.8046875,0.0
1676924160.147308,-64.453125,-67.3828125,-41.015625,-39.0625,0.0
1676924160.1510732,3.41796875,-74.70703125,-34.1796875,-43.45703125,0.0
1676924160.1549067,-7.8125,-56.15234375,-33.69140625,-75.1953125,0.0
1676924160.1587403,-86.9140625,-27.83203125,-44.921875,-65.4296875,0.0
1676924160.1625738,-99.609375,-28.3203125,-43.45703125,-57.12890625,0.0
1676924160.1664076,-20.5078125,-38.0859375,-36.1328125,-64.94140625,0.0
1676924160.170241,15.625,-30.2734375,-27.83203125,-54.19921875,0.0
1676924160.1740746,-45.8984375,-39.0625,-30.2734375,-31.25,0.0
1676924160.1779082,-83.984375,-41.9921875,-36.62109375,-25.87890625,0.0
1676924160.1817417,-26.85546875,-50.78125,-42.48046875,-72.75390625,0.0
1676924160.1855755,17.578125,-66.89453125,-39.55078125,-73.73046875,0.0
1676924160.189409,-26.85546875,-63.4765625,-34.66796875,-55.6640625,0.0
1676924160.1932425,-78.125,-55.17578125,-38.0859375,-43.9453125,0.0
1676924160.197076,-39.55078125,-42.96875,-35.15625,-42.48046875,0.0
1676924160.2021306,21.97265625,-14.16015625,-26.3671875,-43.9453125,0.0
1676924160.2071848,-5.859375,-13.671875,-29.296875,-45.41015625,0.0
1676924160.2122393,-83.49609375,-41.50390625,-38.0859375,-60.546875,0.0
1676924160.2172937,-75.68359375,-43.45703125,-38.57421875,-70.80078125,0.0
1676924160.2223482,3.90625,-38.57421875,-35.15625,-46.38671875,0.0
1676924160.2274027,16.11328125,-36.62109375,-33.69140625,-37.109375,0.0
1676924160.232457,-53.22265625,-29.296875,-34.66796875,-41.015625,0.0
1676924160.2375114,-88.8671875,-32.71484375,-41.015625,-21.97265625,0.0
1676924160.2425659,-20.5078125,-44.43359375,-46.875,-50.29296875,0.0
1676924160.24762,18.5546875,-71.77734375,-47.36328125,-70.3125,0.0
1676924160.2526746,-41.9921875,-63.4765625,-47.8515625,-61.5234375,0.0
1676924160.257729,-71.77734375,-45.41015625,-48.33984375,-61.03515625,0.0
1676924160.2613707,-34.1796875,-56.15234375,-48.828125,-39.0625,0.0
1676924160.2650123,12.20703125,-37.59765625,-51.7578125,-34.1796875,0.0
1676924160.2686539,-20.99609375,-35.15625,-50.29296875,-52.734375,0.0
1676924160.2722955,-73.73046875,-47.36328125,-47.36328125,-70.80078125,0.0
1676924160.275937,-56.15234375,-42.48046875,-48.33984375,-55.17578125,0.0
1676924160.2795787,-19.53125,-43.9453125,-52.734375,-55.6640625,0.0
1676924160.2832205,-27.83203125,-45.41015625,-43.45703125,-63.96484375,0.0
1676924160.2868621,-90.8203125,-38.57421875,-33.203125,-54.6875,0.0
1676924160.2905037,-98.6328125,-37.109375,-42.96875,-39.0625,0.0
1676924160.2941453,-37.109375,-56.15234375,-49.8046875,-28.80859375,0.0
1676924160.297787,-13.671875,-57.12890625,-49.31640625,-44.921875,0.0
1676924160.3014286,-59.08203125,-24.4140625,-48.828125,-32.2265625,0.0
1676924160.3051305,-89.35546875,-20.99609375,-44.921875,-51.7578125,0.0
1676924160.3088326,-37.59765625,-33.203125,-54.6875,-62.5,0.0
1676924160.3125346,16.11328125,-35.64453125,-69.82421875,-57.12890625,0.0
1676924160.3162365,-44.921875,-51.7578125,-65.4296875,-66.40625,0.0
1676924160.3199384,-117.67578125,-64.94140625,-65.4296875,-55.17578125,0.0
1676924160.3236403,-45.8984375,-62.5,-67.3828125,-52.24609375,0.0
1676924160.3273425,19.04296875,-64.94140625,-65.91796875,-46.38671875,0.0
1676924160.3310444,-23.4375,-51.7578125,-57.6171875,-9.27734375,0.0
1676924160.3347464,-82.51953125,-28.80859375,-52.734375,-14.6484375,0.0
1676924160.3384485,-75.1953125,-32.71484375,-57.6171875,-65.91796875,0.0
1676924160.3421504,-20.5078125,-35.15625,-62.5,-84.9609375,0.0
1676924160.3458524,-24.4140625,-32.2265625,-62.01171875,-77.63671875,0.0
1676924160.3496215,-90.8203125,-39.0625,-66.40625,-65.4296875,0.0
1676924160.3533907,-95.703125,-44.921875,-60.05859375,-42.48046875,0.0
1676924160.3571596,-18.5546875,-46.38671875,-55.6640625,-52.734375,0.0
1676924160.3609288,-4.8828125,-49.31640625,-74.70703125,-71.2890625,0.0
1676924160.364698,-74.21875,-58.10546875,-84.47265625,-72.75390625,0.0
1676924160.3684669,-110.3515625,-61.5234375,-76.171875,-77.1484375,0.0
1676924160.372236,-57.6171875,-58.10546875,-62.01171875,-83.984375,0.0
1676924160.3760052,-9.765625,-56.15234375,-56.640625,-66.40625,0.0
1676924160.3797743,-59.08203125,-53.22265625,-56.640625,-42.96875,0.0
1676924160.3835435,-119.62890625,-55.6640625,-62.5,-62.5,0.0
1676924160.3873124,-88.8671875,-59.08203125,-70.80078125,-85.9375,0.0
1676924160.3910816,-24.90234375,-38.57421875,-69.82421875,-84.9609375,0.0
1676924160.394861,-41.015625,-25.87890625,-64.453125,-51.7578125,0.0
1676924160.3986404,-116.2109375,-29.296875,-69.82421875,-49.31640625,0.0
1676924160.4024198,-106.4453125,-40.0390625,-72.75390625,-40.52734375,0.0
1676924160.4061992,-30.76171875,-65.4296875,-65.4296875,-41.9921875,0.0
1676924160.4099786,-27.34375,-66.40625,-69.3359375,-75.1953125,0.0
1676924160.413758,-90.33203125,-50.29296875,-70.80078125,-96.19140625,0.0
1676924160.4175375,-99.609375,-58.59375,-59.5703125,-97.16796875,0.0
1676924160.4213169,-27.34375,-64.94140625,-58.59375,-69.3359375,0.0
1676924160.4250963,1.46484375,-64.453125,-57.6171875,-20.01953125,0.0
1676924160.4288757,-55.6640625,-34.66796875,-50.29296875,-29.78515625,0.0
1676924160.432655,-80.078125,0.48828125,-48.828125,-53.22265625,0.0
1676924160.4364345,-39.0625,-19.53125,-58.10546875,-60.546875,0.0
1676924160.4401503,-5.37109375,-58.10546875,-67.87109375,-62.5,0.0
1676924160.4438663,-58.10546875,-56.640625,-62.5,-74.21875,0.0
1676924160.447582,-128.90625,-40.52734375,-61.03515625,-77.1484375,0.0
1676924160.4512978,-93.26171875,-42.96875,-65.4296875,-62.98828125,0.0
1676924160.4550138,-7.32421875,-49.31640625,-63.4765625,-57.6171875,0.0
1676924160.4587295,-3.90625,-55.17578125,-57.6171875,-53.7109375,0.0
1676924160.4624453,-67.87109375,-53.22265625,-55.17578125,-60.546875,0.0
1676924160.4661613,-91.30859375,-40.0390625,-58.59375,-58.10546875,0.0
1676924160.469877,-31.25,-18.5546875,-61.03515625,-57.6171875,0.0
1676924160.4735928,-11.23046875,-32.2265625,-61.5234375,-80.078125,0.0
1676924160.4773088,-68.84765625,-57.12890625,-58.10546875,-62.98828125,0.0
1676924160.4810245,-85.44921875,-33.69140625,-53.22265625,-55.17578125,0.0
1676924160.4847796,-40.0390625,-36.62109375,-52.734375,-67.87109375,0.0
1676924160.488535,-4.39453125,-71.2890625,-56.640625,-54.6875,0.0
1676924160.49229,-45.41015625,-67.3828125,-58.59375,-50.29296875,0.0
1676924160.496045,-102.5390625,-53.22265625,-55.17578125,-67.87109375,0.0
1676924160.4998002,-56.15234375,-39.55078125,-61.03515625,-58.59375,0.0
1676924160.5035553,-7.32421875,-29.78515625,-62.98828125,-58.10546875,0.0
1676924160.5073106,-44.921875,-30.76171875,-57.12890625,-59.08203125,0.0
1676924160.5110657,-98.14453125,-41.50390625,-56.640625,-53.7109375,0.0
1676924160.5148208,-72.265625,-43.45703125,-57.12890625,-65.4296875,0.0
1676924160.5185761,6.8359375,-36.62109375,-59.5703125,-62.98828125,0.0
1676924160.5223312,5.37109375,-47.36328125,-62.5,-50.29296875,0.0
1676924160.5260863,-64.94140625,-62.5,-56.640625,-40.0390625,0.0
1676924160.529933,-85.9375,-58.10546875,-49.8046875,-59.5703125,0.0
1676924160.5337796,-35.15625,-36.62109375,-55.17578125,-67.87109375,0.0
1676924160.5376263,0.48828125,-26.3671875,-53.22265625,-53.7109375,0.0
1676924160.541473,-52.734375,-21.484375,-53.7109375,-52.24609375,0.0
1676924160.5453196,-100.09765625,-28.3203125,-62.01171875,-58.10546875,0.0
1676924160.5491662,-20.99609375,-50.78125,-58.59375,-61.5234375,0.0
1676924160.553013,37.59765625,-57.12890625,-62.98828125,-30.2734375,0.0
1676924160.5568597,-45.8984375,-51.7578125,-66.89453125,-39.0625,0.0
1676924160.5607064,-95.703125,-47.36328125,-62.5,-56.15234375,0.0
1676924160.564553,-44.43359375,-46.875,-65.91796875,-39.0625,0.0
1676924160.5683997,5.859375,-52.24609375,-65.4296875,-51.7578125,0.0
1676924160.5722463,-26.85546875,-40.52734375,-55.17578125,-50.78125,0.0
1676924160.5771446,-90.33203125,-27.34375,-51.7578125,-13.18359375,0.0
1676924160.582043,-71.2890625,-30.76171875,-63.96484375,-29.78515625,0.0
1676924160.5869412,-11.71875,-31.73828125,-66.40625,-75.1953125,0.0
1676924160.5918398,-26.3671875,-43.45703125,-69.82421875,-76.66015625,0.0
1676924160.596738,-81.54296875,-50.29296875,-73.73046875,-70.3125,0.0
1676924160.6016364,-76.66015625,-40.52734375,-68.359375,-62.5,0.0
1676924160.6065347,-25.87890625,-45.8984375,-64.94140625,-55.17578125,0.0
1676924160.611433,-3.41796875,-53.22265625,-57.6171875,-41.50390625,0.0
1676924160.6163316,-62.5,-41.015625,-57.6171875,-43.45703125,0.0
1676924160.62123,-96.19140625,-33.69140625,-64.453125,-63.4765625,0.0
1676924160.6261282,-34.66796875,-51.7578125,-64.94140625,-61.03515625,0.0
1676924160.6310265,-4.8828125,-51.7578125,-59.08203125,-59.08203125,0.0
1676924160.6347687,-54.6875,-34.66796875,-55.6640625,-48.33984375,0.0
1676924160.6385112,-84.47265625,-36.62109375,-53.7109375,-40.0390625,0.0
1676924160.6422534,-38.0859375,-41.50390625,-56.15234375,-55.17578125,0.0
1676924160.6459959,6.8359375,-33.203125,-68.359375,-53.22265625,0.0
1676924160.649738,-29.296875,-24.4140625,-73.2421875,-56.640625,0.0
1676924160.6534805,-91.796875,-49.8046875,-63.4765625,-52.734375,0.0
1676924160.6572227,-77.1484375,-76.66015625,-67.87109375,-47.8515625,0.0
1676924160.660965,0.9765625,-51.7578125,-80.078125,-36.62109375,0.0
1676924160.6647074,16.11328125,-32.71484375,-67.3828125,-37.109375,0.0
1676924160.6684496,-67.3828125,-41.50390625,-67.3828125,-36.62109375,0.0
1676924160.672192,-88.8671875,-41.50390625,-77.1484375,-55.17578125,0.0
1676924160.6759343,-1.46484375,-31.25,-74.21875,-40.0390625,0.0
1676924160.6796966,34.1796875,-26.85546875,-69.82421875,-23.92578125,0.0
1676924160.6834586,-48.33984375,-40.52734375,-74.70703125,-74.21875,0.0
1676924160.6872208,-120.1171875,-45.41015625,-67.87109375,-88.37890625,0.0
1676924160.6909828,-45.41015625,-32.2265625,-53.7109375,-46.38671875,0.0
1676924160.694745,25.87890625,-36.1328125,-62.5,-51.7578125,0.0
1676924160.6985073,-25.87890625,-35.64453125,-68.84765625,-45.41015625,0.0
1676924160.7022693,-96.6796875,-27.83203125,-69.82421875,-28.80859375,0.0
1676924160.7060316,-57.6171875,-35.15625,-65.91796875,-50.29296875,0.0
1676924160.7097936,10.25390625,-33.69140625,-59.5703125,-50.78125,0.0
1676924160.7135558,-20.5078125,-30.76171875,-63.96484375,-60.05859375,0.0
1676924160.7173178,-81.54296875,-39.0625,-68.84765625,-87.890625,0.0
1676924160.72108,-66.40625,-56.15234375,-64.453125,-67.3828125,0.0
1676924160.7248302,-8.30078125,-70.80078125,-61.03515625,-40.52734375,0.0
1676924160.7285805,6.8359375,-44.921875,-64.453125,-46.38671875,0.0
1676924160.7323306,-33.69140625,-13.671875,-63.96484375,-24.90234375,0.0
1676924160.7360806,-69.82421875,-28.3203125,-52.24609375,14.16015625,0.0
1676924160.739831,-35.64453125,-43.45703125,-49.8046875,-18.5546875,0.0
1676924160.743581,21.97265625,-30.2734375,-57.6171875,-65.91796875,0.0
1676924160.7473311,-34.66796875,-19.53125,-64.94140625,-69.82421875,0.0
1676924160.7510815,-105.95703125,-23.4375,-67.87109375,-51.7578125,0.0
1676924160.7548316,-58.59375,-31.73828125,-67.87109375,-55.17578125,0.0
1676924160.7585816,13.18359375,-51.7578125,-64.94140625,-62.5,0.0
1676924160.762332,-21.484375,-62.98828125,-63.96484375,-51.26953125,0.0
1676924160.766082,-103.515625,-63.4765625,-73.73046875,-59.5703125,0.0
1676924160.7698321,-85.44921875,-54.19921875,-80.56640625,-65.4296875,0.0
1676924160.7735822,-17.578125,-30.2734375,-67.87109375,-54.19921875,0.0
1676924160.7773323,-18.5546875,-31.73828125,-51.7578125,-53.7109375,0.0
1676924160.7810824,-68.84765625,-40.52734375,-53.22265625,-83.0078125,0.0
1676924160.7848325,-70.3125,-47.36328125,-57.6171875,-75.68359375,0.0
1676924160.7885828,-22.4609375,-40.0390625,-60.05859375,-56.15234375,0.0
1676924160.792333,-15.625,-39.0625,-74.21875,-62.98828125,0.0
1676924160.796083,-89.35546875,-60.05859375,-83.984375,-45.8984375,0.0
1676924160.799833,-112.79296875,-60.05859375,-78.125,-40.52734375,0.0
1676924160.8035831,-51.26953125,-63.96484375,-75.68359375,-41.015625,0.0
1676924160.8073332,-12.20703125,-75.68359375,-70.3125,-46.875,0.0
1676924160.8110833,-68.84765625,-62.01171875,-62.98828125,-87.40234375,0.0
1676924160.8148332,-121.58203125,-47.36328125,-74.21875,-70.3125,0.0
1676924160.818583,-75.68359375,-49.8046875,-85.44921875,-83.984375,0.0
1676924160.8223326,0.9765625,-42.96875,-73.2421875,-81.54296875,0.0
1676924160.8260825,-25.390625,-43.45703125,-62.98828125,-47.36328125,0.0
1676924160.8298323,-101.5625,-39.0625,-62.01171875,-37.59765625,0.0
1676924160.833582,-90.8203125,-37.109375,-58.10546875,-52.734375,0.0
1676924160.8373318,-25.390625,-50.78125,-62.5,-38.0859375,0.0
1676924160.8410816,-13.18359375,-62.5,-70.3125,-49.8046875,0.0
1676924160.8448315,-99.609375,-55.6640625,-69.82421875,-88.8671875,0.0
1676924160.8485813,-117.67578125,-41.50390625,-68.84765625,-69.82421875,0.0
1676924160.852331,-39.55078125,-44.43359375,-67.87109375,-69.82421875,0.0
1676924160.8560808,-13.671875,-46.38671875,-64.94140625,-75.1953125,0.0
1676924160.859931,-75.68359375,-45.41015625,-66.40625,-71.2890625,0.0
1676924160.8637812,-105.46875,-45.8984375,-61.03515625,-65.4296875,0.0
1676924160.8676314,-33.69140625,-44.43359375,-56.15234375,-36.62109375,0.0
1676924160.871482,14.16015625,-52.24609375,-60.05859375,-44.921875,0.0
1676924160.875332,-27.34375,-48.828125,-55.6640625,-45.8984375,0.0
1676924160.8791823,-96.19140625,-25.87890625,-52.24609375,-30.76171875,0.0
1676924160.8830326,-78.125,-30.2734375,-66.40625,-50.78125,0.0
1676924160.8868828,-3.90625,-38.57421875,-75.1953125,-88.37890625,0.0
1676924160.8907332,-12.6953125,-39.55078125,-68.359375,-76.171875,0.0
1676924160.8945835,-94.7265625,-42.96875,-68.84765625,-46.875,0.0
1676924160.8984337,-79.1015625,-43.45703125,-68.84765625,-41.50390625,0.0
1676924160.902284,-16.6015625,-31.25,-59.5703125,-54.6875,0.0
1676924160.9059477,-25.390625,-31.73828125,-61.03515625,-62.5,0.0
1676924160.9096115,-81.0546875,-46.38671875,-59.08203125,-34.66796875,0.0
1676924160.9132752,-96.6796875,-57.12890625,-48.828125,-28.3203125,0.0
1676924160.916939,-44.921875,-78.125,-51.7578125,-51.26953125,0.0
1676924160.9206028,-5.859375,-78.125,-51.7578125,-50.78125,0.0
1676924160.9242666,-48.828125,-52.24609375,-46.38671875,-34.66796875,0.0
1676924160.9279304,-111.328125,-34.1796875,-55.17578125,-28.80859375,0.0
1676924160.9315941,-52.734375,-23.4375,-62.01171875,-59.08203125,0.0
1676924160.935258,13.18359375,-25.390625,-61.5234375,-71.2890625,0.0
1676924160.9389217,-37.59765625,-41.9921875,-57.6171875,-45.41015625,0.0
1676924160.9425855,-92.28515625,-46.38671875,-59.5703125,-38.0859375,0.0
1676924160.9462492,-62.01171875,-38.0859375,-61.5234375,-42.96875,0.0
1676924160.9512286,1.953125,-33.203125,-53.7109375,-45.8984375,0.0
1676924160.956208,7.8125,-33.203125,-50.29296875,-43.45703125,0.0
1676924160.9611874,-66.40625,-53.7109375,-59.5703125,-40.52734375,0.0
1676924160.9661667,-82.03125,-61.03515625,-59.08203125,-53.22265625,0.0
1676924160.971146,0.9765625,-27.83203125,-47.36328125,-45.8984375,0.0
1676924160.9761255,1.953125,-20.5078125,-51.26953125,-37.109375,0.0
1676924160.9811049,-73.2421875,-31.73828125,-60.546875,-44.43359375,0.0
1676924160.9860842,-89.84375,-45.8984375,-71.77734375,-46.875,0.0
1676924160.9910636,-29.296875,-47.36328125,-67.87109375,-44.921875,0.0
1676924160.996043,12.6953125,-37.59765625,-59.08203125,-10.7421875,0.0
1676924161.0010223,-35.64453125,-41.50390625,-68.359375,-34.1796875,0.0
1676924161.0060017,-89.35546875,-44.43359375,-69.3359375,-54.19921875,0.0
1676924161.0097902,-41.015625,-39.55078125,-55.17578125,-38.0859375,0.0
1676924161.013579,23.92578125,-41.50390625,-49.8046875,-46.38671875,0.0
1676924161.0173674,-44.43359375,-38.0859375,-52.24609375,-36.1328125,0.0
1676924161.0211558,-105.46875,-38.57421875,-49.31640625,-69.3359375,0.0
1676924161.0249443,-53.22265625,-49.31640625,-47.8515625,-43.45703125,0.0
1676924161.0287328,10.25390625,-34.66796875,-46.875,-17.08984375,0.0
1676924161.0325215,2.9296875,-31.25,-48.33984375,-54.19921875,0.0
1676924161.03631,-77.63671875,-42.96875,-58.10546875,-65.91796875,0.0
1676924161.0400984,-98.6328125,-42.48046875,-61.03515625,-47.8515625,0.0
1676924161.0438871,-24.90234375,-46.875,-63.96484375,-30.2734375,0.0
1676924161.0476756,12.20703125,-40.52734375,-72.265625,-46.875,0.0
1676924161.051464,-56.15234375,-28.80859375,-65.4296875,-63.4765625,0.0
1676924161.0551891,-115.72265625,-43.45703125,-57.12890625,-45.41015625,0.0
1676924161.058914,-61.03515625,-56.640625,-58.10546875,-48.828125,0.0
1676924161.0626388,5.37109375,-48.828125,-59.08203125,-60.05859375,0.0
1676924161.0663638,-34.66796875,-27.83203125,-60.05859375,-41.015625,0.0
1676924161.0700889,-84.9609375,-21.97265625,-55.6640625,-28.80859375,0.0
1676924161.0738137,-48.33984375,-41.015625,-52.734375,-58.10546875,0.0
1676924161.0775385,15.13671875,-68.359375,-61.03515625,-41.015625,0.0
1676924161.0812635,-10.25390625,-80.078125,-58.59375,-48.33984375,0.0
1676924161.0849886,-89.35546875,-52.24609375,-59.5703125,-75.68359375,0.0
1676924161.0887134,-95.21484375,-31.73828125,-68.359375,-71.2890625,0.0
1676924161.0924382,-26.3671875,-30.76171875,-62.98828125,-68.84765625,0.0
1676924161.0961633,-3.41796875,-41.9921875,-54.6875,-44.43359375,0.0
1676924161.1000056,-75.1953125,-47.36328125,-52.734375,-44.43359375,0.0
1676924161.103848,-82.03125,-33.203125,-49.31640625,-53.7109375,0.0
1676924161.10769,-16.6015625,-34.66796875,-52.24609375,-63.4765625,0.0
1676924161.1115324,0.9765625,-46.38671875,-55.6640625,-61.5234375,0.0
1676924161.1153748,-44.921875,-39.55078125,-56.640625,-35.64453125,0.0
1676924161.119217,-80.078125,-43.45703125,-56.15234375,-35.64453125,0.0
1676924161.1230593,-32.2265625,-61.03515625,-52.734375,-42.48046875,0.0
1676924161.1269016,24.4140625,-37.109375,-51.7578125,-51.7578125,0.0
1676924161.130744,-19.04296875,-9.27734375,-56.640625,-42.48046875,0.0
1676924161.1345863,-87.40234375,-10.25390625,-60.546875,-36.1328125,0.0
1676924161.1384284,-67.87109375,-25.87890625,-60.05859375,-63.4765625,0.0
1676924161.1422708,-17.578125,-52.24609375,-61.5234375,-84.47265625,0.0
1676924161.1459215,-35.15625,-49.8046875,-64.94140625,-91.796875,0.0
1676924161.1495721,-90.8203125,-41.50390625,-70.80078125,-66.89453125,0.0
1676924161.153223,-84.9609375,-43.9453125,-74.21875,-41.50390625,0.0
1676924161.1568737,-19.53125,-46.875,-67.3828125,-57.6171875,0.0
1676924161.1605244,-4.39453125,-57.6171875,-60.546875,-59.5703125,0.0
1676924161.164175,-77.1484375,-57.6171875,-62.01171875,-56.640625,0.0
1676924161.1678257,-100.09765625,-50.29296875,-71.2890625,-69.82421875,0.0
1676924161.1714764,-28.3203125,-26.3671875,-66.89453125,-60.05859375,0.0
1676924161.175127,9.27734375,-17.578125,-57.12890625,-42.96875,0.0
1676924161.178778,-48.33984375,-36.1328125,-52.734375,-49.31640625,0.0
1676924161.1824286,-84.47265625,-36.1328125,-56.640625,-64.94140625,0.0
1676924161.1860793,-60.05859375,-28.80859375,-69.3359375,-77.1484375,0.0
1676924161.1898205,-16.11328125,-29.78515625,-69.3359375,-91.30859375,0.0
1676924161.1935616,-42.48046875,-37.59765625,-62.98828125,-39.0625,0.0
1676924161.1973028,-130.859375,-50.78125,-65.4296875,-15.625,0.0
1676924161.201044,-129.8828125,-47.8515625,-73.2421875,-125.9765625,0.0
1676924161.2047853,-50.29296875,-31.25,-70.80078125,-158.203125,0.0
1676924161.2085266,-44.921875,-14.16015625,-64.453125,-94.23828125,0.0
1676924161.2122676,-118.1640625,-11.23046875,-68.84765625,-92.28515625,0.0
1676924161.216009,-150.87890625,-16.11328125,-74.21875,-124.0234375,0.0
1676924161.2197502,-104.00390625,-18.06640625,-75.68359375,-140.625,0.0
1676924161.2234912,-99.12109375,-21.484375,-73.73046875,-154.78515625,0.0
1676924161.2272325,-169.43359375,-21.97265625,-57.6171875,-125.9765625,0.0
1676924161.2309737,-205.078125,1.953125,-53.22265625,-134.765625,0.0
1676924161.2347326,-175.29296875,12.6953125,-72.75390625,-200.1953125,0.0
1676924161.2384915,-147.4609375,3.90625,-72.75390625,-198.73046875,0.0
1676924161.2422502,-196.2890625,7.8125,-63.4765625,-198.73046875,0.0
1676924161.246009,-260.25390625,4.8828125,-70.3125,-221.19140625,0.0
1676924161.249768,-241.69921875,-4.8828125,-78.61328125,-211.9140625,0.0
1676924161.2535267,-174.31640625,-9.27734375,-74.21875,-217.7734375,0.0
1676924161.2572856,-184.08203125,-15.13671875,-68.84765625,-210.44921875,0.0
1676924161.2610445,-234.375,-29.78515625,-55.17578125,-162.59765625,0.0
1676924161.2648034,-206.54296875,-43.9453125,-50.29296875,-165.52734375,0.0
1676924161.2685623,-140.13671875,-36.62109375,-65.91796875,-188.96484375,0.0
1676924161.272321,-130.37109375,-0.48828125,-71.77734375,-166.015625,0.0
1676924161.27608,-178.7109375,-9.27734375,-72.265625,-147.4609375,0.0
1676924161.2799287,-202.63671875,-51.26953125,-75.68359375,-128.41796875,0.0
1676924161.2837775,-140.625,-46.875,-67.87109375,-141.11328125,0.0
1676924161.2876263,-101.07421875,-31.25,-62.98828125,-142.578125,0.0
1676924161.2914748,-157.2265625,-46.875,-65.91796875,-107.421875,0.0
1676924161.2953236,-178.7109375,-34.66796875,-68.359375,-99.609375,0.0
1676924161.2991724,-104.98046875,-20.01953125,-64.94140625,-98.6328125,0.0
1676924161.3030212,-54.6875,-26.85546875,-62.98828125,-58.10546875,0.0
1676924161.30687,-62.01171875,-33.203125,-61.5234375,-49.8046875,0.0
1676924161.3107185,-104.98046875,-40.52734375,-56.15234375,-77.63671875,0.0
1676924161.3145673,-113.28125,-60.546875,-52.734375,-66.40625,0.0
1676924161.318416,-62.01171875,-43.9453125,-52.734375,-52.24609375,0.0
1676924161.322265,-49.8046875,-56.15234375,-57.6171875,-47.8515625,0.0
1676924161.3271546,-99.609375,-99.12109375,-54.19921875,-27.34375,0.0
1676924161.3320446,-106.4453125,-73.73046875,-54.19921875,-17.08984375,0.0
1676924161.3369343,-26.3671875,-41.9921875,-60.05859375,-21.484375,0.0
1676924161.3418243,6.8359375,-37.109375,-62.5,-8.7890625,0.0
1676924161.346714,-62.01171875,-44.921875,-61.03515625,-20.99609375,0.0
1676924161.351604,-81.54296875,-51.26953125,-51.26953125,7.8125,0.0
1676924161.3564937,-1.46484375,-58.10546875,-46.875,11.23046875,0.0
1676924161.3613834,30.2734375,-70.3125,-52.734375,-21.484375,0.0
1676924161.3662734,-39.0625,-69.82421875,-54.19921875,-6.8359375,0.0
1676924161.3711631,-91.30859375,-79.58984375,-48.33984375,6.8359375,0.0
1676924161.376053,-35.64453125,-89.84375,-46.38671875,4.39453125,0.0
1676924161.3809428,29.78515625,-76.171875,-46.875,17.578125,0.0
1676924161.3846998,-7.8125,-60.05859375,-51.7578125,23.92578125,0.0
1676924161.3884568,-73.73046875,-45.8984375,-53.22265625,4.8828125,0.0
1676924161.3922138,-61.5234375,-48.828125,-51.26953125,-3.41796875,0.0
1676924161.3959706,9.27734375,-49.8046875,-52.734375,-6.34765625,0.0
1676924161.3997276,12.6953125,-45.41015625,-49.31640625,11.71875,0.0
1676924161.4034846,-56.15234375,-49.8046875,-53.7109375,25.87890625,0.0
1676924161.4072416,-54.19921875,-45.8984375,-50.29296875,0.0,0.0
1676924161.4109986,24.4140625,-66.89453125,-38.0859375,-8.7890625,0.0
1676924161.4147553,37.109375,-82.51953125,-42.96875,-3.90625,0.0
1676924161.4185123,-8.7890625,-61.5234375,-42.96875,25.87890625,0.0
1676924161.4222693,-20.01953125,-50.29296875,-38.0859375,20.99609375,0.0
1676924161.4260263,3.90625,-48.33984375,-41.015625,5.859375,0.0
1676924161.4297993,31.73828125,-39.0625,-52.24609375,0.48828125,0.0
1676924161.4335723,-14.16015625,-48.828125,-62.01171875,-14.6484375,0.0
1676924161.4373455,-59.08203125,-73.73046875,-59.5703125,-13.671875,0.0
1676924161.4411185,-11.23046875,-53.7109375,-61.03515625,-10.7421875,0.0
1676924161.4448915,63.4765625,-36.62109375,-63.4765625,2.44140625,0.0
1676924161.4486644,44.921875,-37.59765625,-57.6171875,0.0,0.0
1676924161.4524374,-48.828125,-36.1328125,-58.59375,-9.27734375,0.0
1676924161.4562104,-53.7109375,-50.29296875,-58.59375,3.41796875,0.0
1676924161.4599833,33.203125,-70.80078125,-54.6875,5.37109375,0.0
1676924161.4637566,41.9921875,-64.94140625,-56.640625,-13.671875,0.0
1676924161.4675295,-24.90234375,-45.8984375,-54.19921875,-9.27734375,0.0
1676924161.4713025,-32.71484375,-44.921875,-41.015625,3.41796875,0.0
1676924161.4750326,35.64453125,-42.48046875,-40.0390625,0.9765625,0.0
1676924161.4787626,58.59375,-40.0390625,-53.22265625,-2.44140625,0.0
1676924161.4824924,-14.6484375,-42.96875,-58.10546875,-29.296875,0.0
1676924161.4862225,-48.828125,-52.734375,-58.59375,-23.92578125,0.0
1676924161.4899526,19.04296875,-63.96484375,-63.4765625,-26.85546875,0.0
1676924161.4936824,61.5234375,-52.24609375,-67.87109375,-44.43359375,0.0
1676924161.4974124,2.44140625,-46.875,-67.3828125,-14.16015625,0.0
1676924161.5011425,-55.17578125,-46.38671875,-65.4296875,-6.34765625,0.0
1676924161.5048726,2.9296875,-64.453125,-59.5703125,-47.36328125,0.0
1676924161.5086026,69.3359375,-62.98828125,-57.6171875,-55.17578125,0.0
1676924161.5123324,-0.48828125,-34.66796875,-57.12890625,-49.31640625,0.0
1676924161.5160625,-75.1953125,-31.25,-56.15234375,-47.36328125,0.0
1676924161.519913,-46.38671875,-29.78515625,-59.5703125,-31.73828125,0.0
1676924161.5237632,26.3671875,-37.109375,-56.15234375,-17.08984375,0.0
1676924161.5276136,42.48046875,-47.8515625,-45.41015625,-33.203125,0.0
1676924161.5314639,-25.87890625,-39.55078125,-48.33984375,-54.19921875,0.0
1676924161.5353143,-63.96484375,-32.2265625,-54.19921875,-30.2734375,0.0
1676924161.5391645,5.859375,-32.2265625,-58.59375,-19.53125,0.0
1676924161.543015,51.7578125,-38.0859375,-61.5234375,-24.4140625,0.0
1676924161.5468655,-16.6015625,-45.41015625,-58.10546875,-27.83203125,0.0
1676924161.5507157,-63.96484375,-67.3828125,-59.5703125,-50.78125,0.0
1676924161.5545661,0.9765625,-70.3125,-61.03515625,-63.4765625,0.0
1676924161.5584164,35.64453125,-53.7109375,-63.4765625,-57.12890625,0.0
1676924161.5622668,-15.13671875,-46.38671875,-64.453125,-55.6640625,0.0
1676924161.5659182,-60.05859375,-38.57421875,-56.640625,-44.921875,0.0
1676924161.5695696,-38.57421875,-32.2265625,-54.19921875,-35.15625,0.0
1676924161.5732207,29.296875,-34.66796875,-57.12890625,-30.2734375,0.0
1676924161.576872,31.25,-26.3671875,-54.19921875,-26.3671875,0.0
1676924161.5805235,-48.828125,-44.43359375,-51.7578125,-18.06640625,0.0
1676924161.5841749,-48.828125,-67.87109375,-57.12890625,-29.78515625,0.0
1676924161.5878263,11.23046875,-50.78125,-62.98828125,-38.57421875,0.0
1676924161.5914776,28.3203125,-40.0390625,-58.10546875,-36.1328125,0.0
1676924161.595129,-33.69140625,-46.875,-54.19921875,-55.17578125,0.0
1676924161.5987802,-66.40625,-62.01171875,-58.59375,-45.41015625,0.0
1676924161.6024315,-10.25390625,-64.453125,-55.6640625,-38.0859375,0.0
1676924161.606083,19.53125,-54.19921875,-55.6640625,-64.453125,0.0
1676924161.609833,-33.203125,-40.0390625,-59.08203125,-67.3828125,0.0
1676924161.613583,-71.77734375,-30.2734375,-55.6640625,-45.8984375,0.0
1676924161.6173332,-18.06640625,-28.3203125,-55.17578125,-45.8984375,0.0
1676924161.6210833,30.2734375,-32.71484375,-64.453125,-30.2734375,0.0
1676924161.6248333,-2.9296875,-40.52734375,-65.4296875,-27.83203125,0.0
1676924161.6285834,-66.40625,-46.875,-64.94140625,-44.43359375,0.0
1676924161.6323333,-37.109375,-40.0390625,-57.6171875,-37.109375,0.0
1676924161.6360834,23.92578125,-36.1328125,-62.5,-33.69140625,0.0
1676924161.6398335,17.578125,-41.50390625,-77.63671875,-52.734375,0.0
1676924161.6435835,-52.24609375,-72.75390625,-75.68359375,-59.5703125,0.0
1676924161.6473336,-82.51953125,-80.56640625,-66.40625,-43.45703125,0.0
1676924161.6510837,-11.23046875,-44.921875,-65.4296875,-33.203125,0.0
1676924161.654838,27.83203125,-32.2265625,-73.2421875,-37.109375,0.0
1676924161.6585925,-38.0859375,-36.62109375,-68.359375,-50.29296875,0.0
1676924161.6623468,-89.84375,-28.3203125,-67.3828125,-63.96484375,0.0
1676924161.6661012,-12.20703125,-23.4375,-69.82421875,-52.734375,0.0
1676924161.6698556,38.0859375,-37.109375,-63.4765625,-32.71484375,0.0
1676924161.6736102,-15.13671875,-35.15625,-62.98828125,-48.33984375,0.0
1676924161.6773646,-69.3359375,-24.90234375,-49.8046875,-24.4140625,0.0
1676924161.681119,-52.734375,-38.57421875,-48.828125,-28.80859375,0.0
1676924161.6848733,0.9765625,-50.29296875,-64.94140625,-65.4296875,0.0
1676924161.6886277,-3.41796875,-47.8515625,-63.4765625,-42.96875,0.0
1676924161.692382,-65.91796875,-56.15234375,-68.84765625,-55.17578125,0.0
1676924161.6961365,-63.4765625,-60.546875,-81.0546875,-61.5234375,0.0
1676924161.701132,20.01953125,-45.41015625,-80.078125,-51.7578125,0.0
1676924161.7061276,25.390625,-30.2734375,-66.89453125,-49.31640625,0.0
1676924161.7111232,-54.19921875,-27.34375,-60.546875,-40.52734375,0.0
1676924161.7161188,-82.51953125,-36.1328125,-67.3828125,-50.29296875,0.0
1676924161.7211144,-26.3671875,-38.57421875,-67.3828125,-61.03515625,0.0
1676924161.72611,1.46484375,-41.015625,-61.03515625,-54.19921875,0.0
1676924161.7311053,-41.015625,-56.15234375,-64.453125,-40.0390625,0.0
1676924161.736101,-76.171875,-52.24609375,-71.77734375,-49.31640625,0.0
1676924161.7410965,-27.34375,-28.3203125,-62.5,-62.98828125,0.0
1676924161.746092,19.04296875,-33.203125,-54.19921875,-57.12890625,0.0
1676924161.7510877,-24.4140625,-51.26953125,-65.4296875,-53.22265625,0.0
1676924161.7560833,-88.8671875,-53.22265625,-72.265625,-51.26953125,0.0
1676924161.7598598,-77.1484375,-48.828125,-69.82421875,-60.05859375,0.0
1676924161.7636366,-5.37109375,-43.45703125,-69.82421875,-61.03515625,0.0
1676924161.7674131,-16.11328125,-43.9453125,-67.3828125,-56.15234375,0.0
1676924161.7711897,-84.47265625,-46.38671875,-65.4296875,-47.36328125,0.0
1676924161.7749665,-66.40625,-40.0390625,-73.2421875,-34.1796875,0.0
1676924161.778743,3.90625,-45.8984375,-77.63671875,-42.48046875,0.0
1676924161.7825196,2.44140625,-60.05859375,-72.265625,-76.171875,0.0
1676924161.7862964,-72.75390625,-45.41015625,-64.94140625,-76.66015625,0.0
1676924161.790073,-98.6328125,-44.43359375,-60.546875,-66.89453125,0.0
1676924161.7938495,-32.2265625,-60.546875,-66.89453125,-82.03125,0.0
1676924161.7976263,-11.23046875,-68.84765625,-62.5,-81.0546875,0.0
1676924161.8014028,-42.96875,-69.3359375,-60.05859375,-56.640625,0.0
1676924161.805156,-75.1953125,-62.5,-75.1953125,-37.59765625,0.0
1676924161.8089092,-37.59765625,-58.10546875,-69.82421875,-39.0625,0.0
1676924161.8126624,19.04296875,-45.41015625,-69.3359375,-64.94140625,0.0
1676924161.8164155,-29.78515625,-40.0390625,-78.125,-64.453125,0.0
1676924161.8201687,-86.9140625,-43.9453125,-73.2421875,-40.52734375,0.0
1676924161.8239222,-56.15234375,-48.828125,-64.453125,-33.69140625,0.0
1676924161.8276753,32.71484375,-52.734375,-58.10546875,-48.33984375,0.0
1676924161.8314285,43.9453125,-40.0390625,-57.6171875,-53.7109375,0.0
1676924161.8351817,-57.6171875,-34.66796875,-63.96484375,-55.17578125,0.0
1676924161.838935,-87.40234375,-46.38671875,-81.54296875,-63.96484375,0.0
1676924161.842688,-11.71875,-44.43359375,-89.35546875,-58.59375,0.0
1676924161.8464413,20.99609375,-60.546875,-82.03125,-64.94140625,0.0
1676924161.8501606,-39.55078125,-55.6640625,-77.1484375,-56.640625,0.0
1676924161.85388,-73.73046875,-30.2734375,-79.1015625,-41.9921875,0.0
1676924161.8575995,-28.3203125,-45.8984375,-87.40234375,-58.10546875,0.0
1676924161.8613188,14.16015625,-55.6640625,-92.7734375,-43.9453125,0.0
1676924161.8650382,-41.015625,-48.828125,-85.44921875,-39.55078125,0.0
1676924161.8687577,-90.8203125,-37.59765625,-77.63671875,-51.26953125,0.0
1676924161.872477,-50.78125,-26.3671875,-84.47265625,-27.83203125,0.0
1676924161.8761964,3.90625,-30.76171875,-83.984375,-21.97265625,0.0
1676924161.8799157,-17.578125,-41.50390625,-77.1484375,-56.15234375,0.0
1676924161.883635,-81.54296875,-41.50390625,-84.9609375,-83.0078125,0.0
1676924161.8873546,-53.7109375,-45.41015625,-93.26171875,-74.70703125,0.0
1676924161.891074,7.32421875,-50.78125,-95.703125,-60.546875,0.0
1676924161.8948245,-4.39453125,-44.921875,-93.26171875,-66.40625,0.0
1676924161.8985748,-64.94140625,-41.50390625,-85.44921875,-55.17578125,0.0
1676924161.9023254,-76.171875,-51.26953125,-86.42578125,-48.33984375,0.0
1676924161.906076,-26.3671875,-72.75390625,-92.7734375,-61.5234375,0.0
1676924161.9098265,4.39453125,-62.01171875,-86.9140625,-55.6640625,0.0
1676924161.913577,-47.36328125,-30.76171875,-87.40234375,-32.71484375,0.0
1676924161.9173274,-84.47265625,-22.94921875,-93.75,-40.0390625,0.0
1676924161.921078,-6.34765625,-31.25,-93.26171875,-44.921875,0.0
1676924161.9248285,40.52734375,-35.15625,-91.30859375,-68.359375,0.0
1676924161.9285789,-45.41015625,-31.73828125,-91.796875,-72.75390625,0.0
1676924161.9323294,-114.74609375,-35.64453125,-88.37890625,-44.43359375,0.0
1676924161.93608,-68.359375,-40.0390625,-95.21484375,-61.03515625,0.0
1676924161.9399304,5.859375,-45.8984375,-95.21484375,-59.08203125,0.0
1676924161.9437807,-9.27734375,-59.5703125,-85.9375,-40.52734375,0.0
1676924161.9476311,-70.80078125,-59.08203125,-83.984375,-48.828125,0.0
1676924161.9514813,-68.359375,-48.828125,-92.28515625,-76.66015625,0.0
1676924161.9553318,-4.39453125,-49.8046875,-94.7265625,-78.125,0.0
1676924161.9591823,8.7890625,-45.41015625,-89.35546875,-47.8515625,0.0
1676924161.9630325,-62.98828125,-36.62109375,-88.37890625,-43.9453125,0.0
1676924161.966883,-79.1015625,-34.66796875,-89.84375,-51.26953125,0.0
1676924161.9707332,3.41796875,-29.296875,-96.19140625,-48.828125,0.0
1676924161.9745836,29.78515625,-28.80859375,-95.703125,-52.734375,0.0
1676924161.9784338,-60.546875,-35.15625,-96.6796875,-58.59375,0.0
1676924161.9822843,-109.86328125,-52.24609375,-99.12109375,-45.41015625,0.0
1676924161.985931,-53.7109375,-64.453125,-92.7734375,-57.12890625,0.0
1676924161.9895778,-4.8828125,-59.08203125,-85.44921875,-75.1953125,0.0
1676924161.9932244,-43.9453125,-49.8046875,-84.47265625,-38.0859375,0.0
1676924161.996871,-98.6328125,-44.43359375,-85.9375,-36.62109375,0.0
1676924162.0005178,-63.4765625,-50.78125,-92.7734375,-69.3359375,0.0
1676924162.0041645,7.8125,-60.546875,-102.05078125,-63.4765625,0.0
1676924162.007811,6.8359375,-47.8515625,-95.703125,-50.29296875,0.0
1676924162.011458,-45.41015625,-41.50390625,-76.171875,-34.66796875,0.0
1676924162.0151045,-41.9921875,-43.45703125,-77.1484375,-29.296875,0.0
1676924162.0187511,14.16015625,-43.45703125,-90.8203125,-39.0625,0.0
1676924162.022398,17.08984375,-50.78125,-101.5625,-52.24609375,0.0
1676924162.0260446,-54.19921875,-42.96875,-102.05078125,-45.41015625,0.0
1676924162.0298023,-84.9609375,-39.55078125,-91.796875,-30.76171875,0.0
1676924162.03356,-13.18359375,-40.52734375,-89.84375,-52.734375,0.0
1676924162.0373178,35.15625,-30.2734375,-89.35546875,-57.12890625,0.0
1676924162.0410755,-33.69140625,-30.76171875,-92.7734375,-50.29296875,0.0
1676924162.0448332,-77.63671875,-50.29296875,-92.28515625,-41.9921875,0.0
1676924162.0485911,-32.2265625,-52.24609375,-85.44921875,-29.78515625,0.0
1676924162.0523489,27.34375,-37.109375,-92.7734375,-57.6171875,0.0
1676924162.0561066,-6.8359375,-24.90234375,-100.5859375,-51.7578125,0.0
1676924162.0598643,-87.40234375,-35.15625,-94.23828125,-44.921875,0.0
1676924162.063622,-59.5703125,-48.828125,-86.9140625,-38.57421875,0.0
1676924162.0673797,23.92578125,-44.921875,-91.30859375,-39.55078125,0.0
1676924162.0711374,10.25390625,-51.26953125,-104.00390625,-70.3125,0.0
1676924162.0761242,-73.2421875,-62.98828125,-104.4921875,-57.12890625,0.0
1676924162.081111,-79.58984375,-55.17578125,-108.88671875,-61.03515625,0.0
1676924162.0860977,-5.37109375,-43.9453125,-109.375,-62.5,0.0
1676924162.0910845,13.671875,-42.96875,-99.12109375,-44.43359375,0.0
1676924162.0960712,-50.29296875,-35.15625,-103.515625,-41.50390625,0.0
1676924162.101058,-75.68359375,-38.57421875,-109.375,-50.78125,0.0
1676924162.1060445,-26.85546875,-41.9921875,-97.65625,-52.734375,0.0
1676924162.1110313,-1.953125,-43.45703125,-92.7734375,-53.7109375,0.0
1676924162.116018,-37.59765625,-46.38671875,-104.00390625,-46.875,0.0
1676924162.1210048,-82.51953125,-28.3203125,-104.4921875,-37.109375,0.0
1676924162.1259916,-57.6171875,-19.04296875,-99.12109375,-68.84765625,0.0
1676924162.1309783,24.4140625,-11.71875,-97.16796875,-73.73046875,0.0
1676924162.1347303,-4.8828125,-25.390625,-103.02734375,-51.7578125,0.0
1676924162.138482,-77.1484375,-48.828125,-114.2578125,-63.96484375,0.0
1676924162.1422338,-68.84765625,-50.78125,-120.60546875,-76.171875,0.0
1676924162.1459858,-3.41796875,-50.78125,-122.55859375,-63.96484375,0.0
1676924162.1497378,-0.9765625,-50.78125,-118.1640625,-45.8984375,0.0
1676924162.1534896,-72.265625,-41.9921875,-105.95703125,-30.2734375,0.0
1676924162.1572413,-85.44921875,-50.29296875,-91.796875,-44.921875,0.0
1676924162.1609933,-14.6484375,-56.15234375,-92.7734375,-78.61328125,0.0
1676924162.1647453,19.53125,-26.85546875,-97.65625,-65.4296875,0.0
1676924162.168497,-48.33984375,-11.23046875,-99.12109375,-26.85546875,0.0
1676924162.1722488,-90.8203125,-27.34375,-105.95703125,-52.24609375,0.0
1676924162.1760008,-32.2265625,-50.29296875,-110.3515625,-68.84765625,0.0
1676924162.1797853,25.87890625,-44.921875,-110.3515625,-42.96875,0.0
1676924162.1835697,-18.06640625,-24.90234375,-109.86328125,-45.41015625,0.0
1676924162.187354,-73.73046875,-23.92578125,-104.98046875,-34.1796875,0.0
1676924162.1911385,-43.9453125,-47.8515625,-101.5625,-31.25,0.0
1676924162.194923,32.2265625,-60.546875,-105.46875,-40.52734375,0.0
1676924162.198707,20.99609375,-53.7109375,-101.5625,-27.83203125,0.0
1676924162.2024915,-77.1484375,-59.5703125,-95.703125,-34.66796875,0.0
1676924162.206276,-81.0546875,-37.59765625,-97.16796875,-49.31640625,0.0
1676924162.2100604,-15.13671875,-27.83203125,-98.14453125,-37.59765625,0.0
1676924162.2138448,11.23046875,-41.50390625,-98.6328125,-42.96875,0.0
1676924162.2176292,-59.08203125,-48.33984375,-102.5390625,-52.734375,0.0
1676924162.2214136,-109.86328125,-47.8515625,-108.88671875,-36.1328125,0.0
1676924162.2251287,-47.8515625,-39.0625,-106.93359375,-39.0625,0.0
1676924162.2288437,-0.48828125,-63.96484375,-103.515625,-54.19921875,0.0
1676924162.2325587,-23.4375,-74.70703125,-94.7265625,-41.50390625,0.0
1676924162.2362735,-68.84765625,-29.78515625,-119.62890625,-25.390625,0.0
1676924162.2399886,-37.59765625,-26.3671875,-139.16015625,-62.01171875,0.0
1676924162.2437036,17.578125,-68.84765625,-104.4921875,-48.33984375,0.0
1676924162.2474186,-33.69140625,-62.98828125,-96.19140625,-31.73828125,0.0
1676924162.2511337,-78.125,-33.69140625,-105.95703125,-62.01171875,0.0
1676924162.2548485,-40.0390625,-28.3203125,-104.98046875,-41.50390625,0.0
1676924162.2585635,8.7890625,-44.921875,-104.00390625,-37.109375,0.0
1676924162.2622786,8.30078125,-66.40625,-107.421875,-45.8984375,0.0
1676924162.2659936,-64.453125,-57.12890625,-115.72265625,-60.546875,0.0
1676924162.2697504,-78.61328125,-26.85546875,-110.3515625,-50.78125,0.0
1676924162.2735074,-1.953125,-28.80859375,-113.76953125,-34.66796875,0.0
1676924162.277264,20.01953125,-43.9453125,-117.1875,-34.1796875,0.0
1676924162.281021,-52.734375,-38.0859375,-109.86328125,-49.31640625,0.0
1676924162.2847779,-92.28515625,-43.9453125,-120.60546875,-62.01171875,0.0
1676924162.2885346,-13.18359375,-47.36328125,-121.09375,-57.6171875,0.0
1676924162.2922916,37.59765625,-55.17578125,-106.93359375,-56.640625,0.0
1676924162.2960484,-27.34375,-59.5703125,-109.375,-46.875,0.0
1676924162.2998054,-86.9140625,-27.83203125,-117.67578125,-45.8984375,0.0
1676924162.3035622,-63.96484375,-25.390625,-108.88671875,-34.66796875,0.0
1676924162.3073192,-14.6484375,-44.921875,-119.62890625,-39.55078125,0.0
1676924162.311076,-26.85546875,-30.2734375,-125.9765625,-72.265625,0.0
1676924162.314826,-104.4921875,-8.7890625,-93.26171875,-74.70703125,0.0
1676924162.3185759,-111.328125,-22.94921875,-85.9375,-102.05078125,0.0
1676924162.3223257,-1.46484375,-45.41015625,-90.8203125,-81.54296875,0.0
1676924162.3260758,2.44140625,-45.8984375,-96.19140625,-58.59375,0.0
1676924162.3298259,-129.39453125,-39.0625,-98.6328125,-85.9375,0.0
1676924162.3335757,-159.1796875,-13.671875,-102.5390625,-103.515625,0.0
1676924162.3373256,-93.26171875,-33.203125,-96.6796875,-113.76953125,0.0
1676924162.3410757,-72.75390625,-92.28515625,-98.14453125,-116.2109375,0.0
1676924162.3448257,-141.6015625,-86.42578125,-107.421875,-131.8359375,0.0
1676924162.3485756,-227.05078125,-37.109375,-115.72265625,-167.96875,0.0
1676924162.3523254,-214.35546875,3.41796875,-118.1640625,-203.61328125,0.0
1676924162.3560755,-155.76171875,12.6953125,-112.3046875,-220.703125,0.0
1676924162.3598237,-224.609375,-22.4609375,-121.09375,-210.44921875,0.0
1676924162.363572,-303.7109375,-43.9453125,-133.30078125,-221.6796875,0.0
1676924162.36732,-249.51171875,-44.921875,-117.67578125,-249.0234375,0.0
1676924162.3710682,-199.70703125,-35.15625,-106.4453125,-241.69921875,0.0
1676924162.3748164,-223.6328125,-17.08984375,-100.09765625,-229.98046875,0.0
1676924162.3785648,-260.7421875,-18.06640625,-83.49609375,-219.23828125,0.0
1676924162.382313,-274.4140625,-29.296875,-91.796875,-219.7265625,0.0
1676924162.3860612,-220.703125,-26.85546875,-122.0703125,-216.796875,0.0
1676924162.3898094,-191.40625,-30.76171875,-133.30078125,-233.3984375,0.0
1676924162.3935575,-229.98046875,-16.6015625,-110.83984375,-225.09765625,0.0
1676924162.3973057,-238.76953125,-9.27734375,-89.84375,-189.94140625,0.0
1676924162.401054,-161.1328125,-24.90234375,-118.1640625,-187.5,0.0
1676924162.4049118,-111.81640625,-24.90234375,-162.59765625,-196.2890625,0.0
1676924162.4087696,-146.484375,-51.26953125,-142.578125,-137.6953125,0.0
1676924162.4126277,-193.359375,-73.2421875,-105.95703125,-110.83984375,0.0
1676924162.4164855,-131.34765625,-34.1796875,-104.98046875,-148.92578125,0.0
1676924162.4203434,-49.31640625,-9.27734375,-117.1875,-121.58203125,0.0
1676924162.4242015,-105.46875,-19.53125,-135.7421875,-103.02734375,0.0
1676924162.4280593,-157.2265625,-22.94921875,-137.20703125,-103.02734375,0.0
1676924162.4319172,-104.4921875,-16.6015625,-125.48828125,-79.1015625,0.0
1676924162.435775,-35.15625,-25.87890625,-120.60546875,-67.87109375,0.0
1676924162.439633,-34.1796875,-35.15625,-122.55859375,-61.03515625,0.0
1676924162.443491,-95.21484375,-44.921875,-129.8828125,-58.59375,0.0
1676924162.4473488,-81.54296875,-63.96484375,-129.8828125,-48.33984375,0.0
1676924162.4534926,-11.23046875,-49.8046875,-132.32421875,-47.8515625,0.0
1676924162.4596364,2.9296875,-61.5234375,-132.8125,-36.1328125,0.0
1676924162.4657803,-35.64453125,-65.91796875,-128.41796875,-15.13671875,0.0
1676924162.471924,-59.5703125,-47.36328125,-124.51171875,-10.7421875,0.0
1676924162.4780679,-17.578125,-52.24609375,-126.46484375,-16.11328125,0.0
1676924162.484212,36.1328125,-35.64453125,-125.0,-2.44140625,0.0
1676924162.4903557,5.859375,-19.04296875,-116.2109375,-3.90625,0.0
1676924162.4964995,-61.03515625,-34.66796875,-122.55859375,8.7890625,0.0
1676924162.5026433,-28.80859375,-65.4296875,-123.53515625,3.90625,0.0
1676924162.5087872,45.41015625,-72.75390625,-127.44140625,-31.73828125,0.0
1676924162.514931,24.90234375,-58.10546875,-133.7890625,-3.90625,0.0
1676924162.5210748,-32.2265625,-30.76171875,-128.41796875,-6.8359375,0.0
1676924162.5235693,-18.06640625,-31.25,-137.6953125,6.34765625,0.0
1676924162.5260642,49.8046875,-46.38671875,-127.44140625,44.921875,0.0
1676924162.5285587,54.6875,-54.6875,-112.3046875,22.94921875,0.0
1676924162.5310533,-28.80859375,-57.6171875,-117.1875,35.64453125,0.0
1676924162.533548,-37.109375,-56.15234375,-125.0,29.296875,0.0
1676924162.5360427,55.17578125,-59.5703125,-137.6953125,13.671875,0.0
1676924162.5385373,66.40625,-39.55078125,-123.046875,20.5078125,0.0
1676924162.541032,-0.48828125,-18.5546875,-113.76953125,19.04296875,0.0
1676924162.5435266,-34.1796875,-24.4140625,-121.09375,20.5078125,0.0
1676924162.5460212,24.90234375,-42.48046875,-114.2578125,20.01953125,0.0
1676924162.548516,74.70703125,-52.734375,-123.53515625,16.11328125,0.0
1676924162.5510106,22.94921875,-47.8515625,-123.046875,24.90234375,0.0
1676924162.5547583,-24.4140625,-42.96875,-105.46875,17.08984375,0.0
1676924162.558506,5.37109375,-60.05859375,-111.81640625,-1.46484375,0.0
1676924162.5622537,62.98828125,-59.08203125,-126.953125,-12.6953125,0.0
1676924162.5660014,46.38671875,-38.57421875,-119.140625,-8.7890625,0.0
1676924162.569749,-28.3203125,-41.50390625,-109.375,31.73828125,0.0
1676924162.5734968,-19.04296875,-41.9921875,-120.1171875,15.13671875,0.0
1676924162.5772448,42.48046875,-45.41015625,-125.9765625,-21.97265625,0.0
1676924162.5809925,48.828125,-53.22265625,-112.3046875,-0.48828125,0.0
1676924162.5847402,-21.484375,-36.1328125,-111.328125,14.6484375,0.0
1676924162.5884879,-33.203125,-47.8515625,-118.1640625,8.30078125,0.0
1676924162.5922356,43.9453125,-64.94140625,-104.00390625,6.8359375,0.0
1676924162.5959833,75.1953125,-40.52734375,-98.6328125,-3.41796875,0.0
1676924162.5997806,15.625,-61.03515625,-112.3046875,-1.46484375,0.0
1676924162.603578,-43.9453125,-69.82421875,-106.93359375,0.9765625,0.0
1676924162.6073754,16.6015625,-33.203125,-104.00390625,7.32421875,0.0
1676924162.6111727,74.70703125,-38.57421875,-122.0703125,2.9296875,0.0
1676924162.6149702,18.5546875,-32.2265625,-108.3984375,-12.20703125,0.0
1676924162.6187675,-55.6640625,-5.37109375,-82.51953125,-12.6953125,0.0
1676924162.6225648,-14.16015625,-0.48828125,-87.40234375,-26.85546875,0.0
1676924162.6263623,55.6640625,-30.2734375,-103.02734375,-30.76171875,0.0
1676924162.6301596,37.59765625,-50.78125,-105.95703125,-25.390625,0.0
1676924162.633957,-28.3203125,-45.41015625,-101.5625,-21.484375,0.0
1676924162.6377544,-44.43359375,-46.38671875,-106.4453125,-39.0625,0.0
1676924162.6415517,27.83203125,-38.0859375,-116.2109375,-40.0390625,0.0
1676924162.6453896,73.73046875,-33.203125,-111.328125,-53.7109375,0.0
1676924162.6492271,10.25390625,-33.203125,-101.07421875,-51.26953125,0.0
1676924162.653065,-44.43359375,-38.57421875,-93.26171875,-7.32421875,0.0
1676924162.6569026,5.859375,-48.828125,-91.796875,-33.203125,0.0
1676924162.6607404,25.390625,-52.734375,-104.00390625,-71.2890625,0.0
1676924162.664578,-40.52734375,-48.33984375,-100.5859375,-41.015625,0.0
1676924162.6684158,-77.1484375,-37.109375,-90.8203125,-31.25,0.0
1676924162.6722536,-15.13671875,-38.57421875,-96.6796875,-40.0390625,0.0
1676924162.6760912,36.62109375,-59.08203125,-102.5390625,-34.66796875,0.0
1676924162.679929,9.765625,-55.6640625,-102.05078125,-44.43359375,0.0
1676924162.6837666,-70.3125,-51.26953125,-103.515625,-49.31640625,0.0
1676924162.6876044,-54.19921875,-47.36328125,-106.4453125,-41.015625,0.0
1676924162.691234,21.97265625,-31.73828125,-97.65625,-45.8984375,0.0
1676924162.6948638,-17.578125,-43.9453125,-92.28515625,-41.50390625,0.0
1676924162.6984935,-66.40625,-42.48046875,-97.65625,-31.25,0.0
1676924162.702123,-53.22265625,-40.0390625,-103.02734375,-41.9921875,0.0
1676924162.7057526,0.48828125,-45.41015625,-96.6796875,-49.8046875,0.0
1676924162.7093823,6.8359375,-30.76171875,-88.37890625,-68.84765625,0.0
1676924162.713012,-54.19921875,-24.4140625,-84.9609375,-62.01171875,0.0
1676924162.7166417,-94.7265625,-39.0625,-84.47265625,-63.4765625,0.0
1676924162.720271,-24.90234375,-44.921875,-91.30859375,-76.171875,0.0
1676924162.7239008,31.73828125,-49.31640625,-92.7734375,-57.12890625,0.0
1676924162.7275305,-22.94921875,-48.828125,-88.37890625,-41.9921875,0.0
1676924162.7311602,-79.1015625,-55.6640625,-89.35546875,-47.8515625,0.0
1676924162.7361531,-57.12890625,-62.98828125,-88.8671875,-43.9453125,0.0
1676924162.741146,10.25390625,-45.8984375,-88.37890625,-30.2734375,0.0
1676924162.7461388,27.34375,-32.71484375,-93.26171875,-41.015625,0.0
1676924162.7511318,-40.52734375,-37.109375,-89.84375,-47.8515625,0.0
1676924162.7561247,-81.54296875,-44.921875,-83.0078125,-47.36328125,0.0
1676924162.7611175,6.8359375,-49.8046875,-84.9609375,-57.6171875,0.0
1676924162.7661104,36.62109375,-48.828125,-87.890625,-41.015625,0.0
1676924162.7711034,-45.8984375,-40.52734375,-90.33203125,-44.43359375,0.0
1676924162.7760963,-64.94140625,-43.45703125,-91.796875,-39.55078125,0.0
1676924162.7810893,-15.13671875,-70.80078125,-82.51953125,-31.25,0.0
1676924162.786082,5.859375,-66.89453125,-82.03125,-45.41015625,0.0
1676924162.791075,-45.41015625,-33.203125,-87.890625,-41.50390625,0.0
1676924162.7935803,-75.1953125,-33.69140625,-86.9140625,-56.15234375,0.0
1676924162.7960856,-17.08984375,-46.38671875,-89.84375,-48.33984375,0.0
1676924162.7985907,40.52734375,-45.41015625,-94.23828125,-26.85546875,0.0
1676924162.801096,-6.8359375,-37.109375,-100.5859375,-42.48046875,0.0
1676924162.8036013,-75.68359375,-35.64453125,-95.703125,-66.40625,0.0
1676924162.8061066,-28.3203125,-39.55078125,-81.0546875,-57.12890625,0.0
1676924162.8086119,39.55078125,-35.64453125,-77.63671875,-54.6875,0.0
1676924162.8111172,2.44140625,-49.31640625,-78.61328125,-44.43359375,0.0
1676924162.8136225,-72.265625,-67.87109375,-74.70703125,-48.33984375,0.0
1676924162.8161275,-42.48046875,-66.89453125,-73.2421875,-38.57421875,0.0
1676924162.8186328,42.96875,-46.875,-68.84765625,6.34765625,0.0
1676924162.8211381,48.33984375,-36.62109375,-76.66015625,-36.1328125,0.0
1676924162.8261383,-20.01953125,-31.73828125,-84.9609375,-48.33984375,0.0
1676924162.8311381,-57.6171875,-18.5546875,-84.47265625,-53.22265625,0.0
1676924162.8361382,-35.15625,-29.296875,-98.6328125,-89.84375,0.0
1676924162.8411384,18.5546875,-28.80859375,-110.3515625,-69.3359375,0.0
1676924162.8461385,-16.11328125,-8.30078125,-116.69921875,-63.96484375,0.0
1676924162.8511386,-88.8671875,-17.08984375,-117.1875,-75.68359375,0.0
1676924162.8561385,-21.97265625,-25.390625,-114.74609375,-84.47265625,0.0
1676924162.8611386,17.578125,-11.23046875,-116.2109375,-98.6328125,0.0
1676924162.8661387,-22.4609375,-15.625,-107.91015625,-94.23828125,0.0
1676924162.8711386,-83.0078125,-34.1796875,-104.4921875,-71.77734375,0.0
1676924162.8761387,-79.1015625,-44.921875,-109.375,-69.82421875,0.0
1676924162.8811388,-7.8125,-37.109375,-111.81640625,-71.2890625,0.0
1676924162.8848798,0.48828125,-38.0859375,-115.72265625,-62.01171875,0.0
1676924162.888621,-53.22265625,-61.5234375,-107.91015625,-42.48046875,0.0
1676924162.892362,-50.29296875,-68.84765625,-99.609375,-33.203125,0.0
1676924162.8961034,19.53125,-39.0625,-111.328125,-55.6640625,0.0
1676924162.8998444,39.0625,-26.85546875,-106.93359375,-64.94140625,0.0
1676924162.9035854,-14.16015625,-28.3203125,-96.6796875,-49.31640625,0.0
1676924162.9073267,-54.6875,-15.625,-100.5859375,-59.08203125,0.0
1676924162.9110677,-22.4609375,-24.4140625,-104.4921875,-66.89453125,0.0
1676924162.914809,16.11328125,-44.43359375,-105.46875,-54.6875,0.0
1676924162.91855,-38.57421875,-54.19921875,-110.3515625,-55.6640625,0.0
1676924162.9222913,-88.8671875,-54.6875,-109.375,-63.4765625,0.0
1676924162.9260323,-27.34375,-53.22265625,-102.05078125,-39.55078125,0.0
1676924162.9297822,37.59765625,-34.1796875,-95.703125,-37.109375,0.0
1676924162.933532,2.9296875,-24.90234375,-86.42578125,-36.1328125,0.0
1676924162.9372818,-62.98828125,-37.109375,-80.56640625,-36.1328125,0.0
1676924162.9410317,-37.109375,-37.59765625,-81.0546875,-50.78125,0.0
1676924162.9447815,45.41015625,-39.0625,-74.70703125,-39.0625,0.0
1676924162.9485314,55.6640625,-44.43359375,-68.84765625,-31.25,0.0
1676924162.9522812,-11.23046875,-32.71484375,-71.2890625,-52.734375,0.0
1676924162.956031,-44.43359375,-28.3203125,-91.30859375,-57.6171875,0.0
1676924162.959781,6.8359375,-38.57421875,-102.05078125,-47.8515625,0.0
1676924162.9635308,26.85546875,-47.8515625,-86.9140625,-52.24609375,0.0
1676924162.9672806,-42.48046875,-51.26953125,-70.3125,-53.7109375,0.0
1676924162.9710305,-64.94140625,-40.52734375,-68.84765625,-48.828125,0.0
1676924162.9747746,10.7421875,-24.90234375,-73.73046875,-43.45703125,0.0
1676924162.978519,26.3671875,-25.390625,-70.80078125,-57.6171875,0.0
1676924162.982263,-29.78515625,-36.1328125,-67.3828125,-40.0390625,0.0
1676924162.9860075,-63.96484375,-42.96875,-63.96484375,-37.59765625,0.0
1676924162.9897516,-22.4609375,-53.7109375,-71.2890625,-48.33984375,0.0
1676924162.993496,34.1796875,-41.9921875,-83.984375,-49.8046875,0.0
1676924162.99724,-3.41796875,-35.64453125,-78.61328125,-54.6875,0.0
1676924163.0009842,-67.3828125,-34.1796875,-74.21875,-27.34375,0.0
1676924163.0047286,-48.33984375,-20.5078125,-79.58984375,-15.13671875,0.0
1676924163.0084727,-7.8125,-27.83203125,-82.51953125,-61.03515625,0.0
1676924163.012217,1.953125,-35.15625,-81.0546875,-99.12109375,0.0
1676924163.0159612,-53.7109375,-43.45703125,-78.125,-76.66015625,0.0
1676924163.0209706,-71.2890625,-44.921875,-81.0546875,-61.5234375,0.0
1676924163.0259802,-12.6953125,-47.8515625,-80.078125,-71.2890625,0.0
1676924163.0309896,20.99609375,-64.94140625,-82.51953125,-48.33984375,0.0
1676924163.035999,-26.85546875,-68.359375,-73.73046875,-19.04296875,0.0
1676924163.0410087,-94.23828125,-61.03515625,-59.08203125,-40.52734375,0.0
1676924163.0460181,-54.6875,-51.7578125,-77.1484375,-48.33984375,0.0
1676924163.0510275,4.39453125,-38.0859375,-98.14453125,-51.26953125,0.0
1676924163.0560372,-36.1328125,-26.3671875,-88.8671875,-48.33984375,0.0
1676924163.0610466,-94.7265625,-26.3671875,-79.58984375,-68.359375,0.0
1676924163.066056,-57.6171875,-29.296875,-83.0078125,-95.703125,0.0
1676924163.0710657,21.97265625,-35.64453125,-75.68359375,-46.38671875,0.0
1676924163.076075,22.4609375,-53.22265625,-70.80078125,-20.5078125,0.0
1676924163.0786757,-55.17578125,-74.70703125,-78.125,-47.36328125,0.0
1676924163.0812767,-91.796875,-75.1953125,-89.35546875,-74.21875,0.0
1676924163.0838776,-26.85546875,-42.48046875,-85.9375,-76.66015625,0.0
1676924163.0864782,-2.44140625,-20.99609375,-70.3125,-67.3828125,0.0
1676924163.089079,-75.1953125,-21.97265625,-66.40625,-63.4765625,0.0
1676924163.0916798,-104.98046875,-53.22265625,-63.96484375,-37.59765625,0.0
1676924163.0942807,-42.48046875,-59.5703125,-62.01171875,-31.73828125,0.0
1676924163.0968814,2.44140625,-36.1328125,-79.1015625,-51.26953125,0.0
1676924163.099482,-38.0859375,-27.34375,-102.5390625,-77.1484375,0.0
1676924163.102083,-87.40234375,-31.25,-98.6328125,-96.19140625,0.0
1676924163.1046839,-38.57421875,-48.828125,-77.63671875,-54.19921875,0.0
1676924163.1072845,14.16015625,-46.875,-74.21875,-54.19921875,0.0
1676924163.1109328,-52.24609375,-45.41015625,-85.44921875,-91.30859375,0.0
1676924163.1145809,-104.4921875,-51.26953125,-85.9375,-58.59375,0.0
1676924163.1182292,-70.3125,-49.8046875,-79.58984375,-35.64453125,0.0
1676924163.1218772,-1.953125,-54.19921875,-65.4296875,-47.8515625,0.0
1676924163.1255255,20.99609375,-39.55078125,-42.96875,-28.80859375,0.0
1676924163.1291738,-61.03515625,-31.25,-41.9921875,-27.34375,0.0
1676924163.1328218,-67.87109375,-55.17578125,-58.59375,-34.66796875,0.0
1676924163.13647,3.41796875,-58.10546875,-68.84765625,-41.50390625,0.0
1676924163.1401181,11.71875,-46.875,-67.3828125,-56.15234375,0.0
1676924163.1437664,-58.10546875,-35.64453125,-65.4296875,-60.05859375,0.0
1676924163.1474144,-98.14453125,-38.57421875,-73.2421875,-53.22265625,0.0
1676924163.1510627,-27.83203125,-42.96875,-71.2890625,-28.80859375,0.0
1676924163.154819,1.953125,-56.15234375,-69.82421875,-51.26953125,0.0
1676924163.1585755,-55.17578125,-67.3828125,-62.01171875,-58.59375,0.0
1676924163.1623318,-81.54296875,-35.15625,-52.734375,-42.48046875,0.0
1676924163.166088,-30.2734375,-27.83203125,-54.6875,-52.24609375,0.0
1676924163.1698446,32.2265625,-52.24609375,-57.12890625,-57.12890625,0.0
1676924163.173601,-18.5546875,-63.4765625,-64.94140625,-63.4765625,0.0
1676924163.1773572,-93.26171875,-54.6875,-66.89453125,-51.26953125,0.0
1676924163.1811137,-60.546875,-44.921875,-62.5,-44.43359375,0.0
1676924163.18487,-1.46484375,-43.9453125,-56.640625,-39.55078125,0.0
1676924163.1886263,-16.6015625,-49.8046875,-50.78125,-50.29296875,0.0
1676924163.1923828,-70.80078125,-51.7578125,-53.7109375,-66.89453125,0.0
1676924163.196139,-81.0546875,-50.78125,-56.640625,-52.24609375,0.0
1676924163.201134,-15.625,-78.61328125,-57.6171875,-62.98828125,0.0
1676924163.2061288,32.2265625,-72.75390625,-62.98828125,-82.03125,0.0
1676924163.2111237,-28.3203125,-30.76171875,-56.640625,-65.91796875,0.0
1676924163.2161186,-65.91796875,-24.90234375,-43.45703125,-38.0859375,0.0
1676924163.2211134,-16.11328125,-28.3203125,-50.29296875,-62.5,0.0
1676924163.226108,20.01953125,-32.71484375,-61.5234375,-46.875,0.0
1676924163.231103,-38.0859375,-49.8046875,-62.98828125,-32.2265625,0.0
1676924163.2360978,-109.86328125,-67.87109375,-55.6640625,-50.78125,0.0
1676924163.2410927,-66.40625,-64.453125,-46.875,-52.24609375,0.0
1676924163.2460876,8.7890625,-53.22265625,-46.38671875,-59.5703125,0.0
1676924163.2510824,9.27734375,-82.51953125,-57.6171875,-66.40625,0.0
1676924163.2560773,-50.78125,-75.68359375,-62.01171875,-67.87109375,0.0
1676924163.2610655,-66.40625,-25.87890625,-52.734375,-48.33984375,0.0
1676924163.2660537,-5.859375,-10.7421875,-41.015625,-43.45703125,0.0
1676924163.2710416,4.39453125,-16.6015625,-42.48046875,-50.29296875,0.0
1676924163.2760298,-62.5,-29.296875,-55.17578125,-54.19921875,0.0
1676924163.281018,-86.42578125,-36.62109375,-57.6171875,-32.71484375,0.0
1676924163.286006,-15.625,-40.52734375,-61.5234375,-35.64453125,0.0
1676924163.2909942,26.85546875,-35.15625,-67.3828125,-53.7109375,0.0
1676924163.2959824,-33.69140625,-54.6875,-65.4296875,-70.80078125,0.0
1676924163.3009706,-69.82421875,-84.9609375,-56.15234375,-39.55078125,0.0
1676924163.3059587,-10.25390625,-82.03125,-56.15234375,-26.3671875,0.0
1676924163.3109467,49.8046875,-50.29296875,-60.546875,-65.4296875,0.0
1676924163.315935,0.9765625,-25.87890625,-61.5234375,-41.50390625,0.0
1676924163.318492,-74.70703125,-17.08984375,-62.98828125,-29.78515625,0.0
1676924163.321049,-51.7578125,-9.27734375,-50.78125,-35.64453125,0.0
1676924163.323606,-6.8359375,-20.5078125,-52.734375,-57.12890625,0.0
1676924163.326163,-8.7890625,-31.25,-63.96484375,-69.3359375,0.0
1676924163.32872,-75.68359375,-45.41015625,-62.5,-66.40625,0.0
1676924163.331277,-73.73046875,-61.03515625,-60.05859375,-71.2890625,0.0
1676924163.333834,9.27734375,-56.640625,-60.546875,-64.453125,0.0
1676924163.336391,16.11328125,-65.4296875,-61.03515625,-58.10546875,0.0
1676924163.338948,-54.6875,-64.453125,-60.546875,-70.80078125,0.0
1676924163.341505,-68.359375,-39.0625,-55.17578125,-58.10546875,0.0
1676924163.344062,-1.46484375,-29.296875,-52.734375,-40.0390625,0.0
1676924163.3466191,40.52734375,-19.53125,-44.43359375,-31.25,0.0
1676924163.351574,-26.85546875,-17.08984375,-49.31640625,-27.83203125,0.0
1676924163.3565285,-103.02734375,-30.76171875,-67.87109375,-66.40625,0.0
1676924163.3614833,-64.94140625,-45.41015625,-72.75390625,-65.91796875,0.0
1676924163.3664382,5.37109375,-60.05859375,-72.75390625,-60.546875,0.0
1676924163.3713927,-7.8125,-70.80078125,-72.75390625,-51.7578125,0.0
1676924163.3763475,-87.890625,-58.10546875,-75.68359375,-48.828125,0.0
1676924163.3813024,-86.9140625,-23.92578125,-71.2890625,-64.453125,0.0
1676924163.386257,-15.13671875,-36.1328125,-67.3828125,-44.921875,0.0
1676924163.3912117,-19.04296875,-63.4765625,-67.87109375,-76.66015625,0.0
1676924163.3961666,-76.66015625,-51.7578125,-65.91796875,-83.49609375,0.0
1676924163.4011211,-63.96484375,-29.78515625,-62.5,-43.45703125,0.0
1676924163.406076,-6.8359375,-37.109375,-65.4296875,-49.8046875,0.0
1676924163.408576,10.7421875,-37.109375,-72.265625,-56.640625,0.0
1676924163.4110763,-50.78125,-25.390625,-72.265625,-61.5234375,0.0
1676924163.4135766,-83.49609375,-35.15625,-67.3828125,-59.08203125,0.0
1676924163.4160767,-18.06640625,-57.6171875,-58.59375,-41.50390625,0.0
1676924163.4185767,25.87890625,-64.453125,-49.31640625,-12.6953125,0.0
1676924163.421077,-23.92578125,-43.45703125,-49.8046875,-28.80859375,0.0
1676924163.4235773,-83.984375,-42.96875,-57.12890625,-80.56640625,0.0
1676924163.4260774,-46.875,-59.5703125,-66.89453125,-64.94140625,0.0
1676924163.4285774,36.1328125,-45.8984375,-62.98828125,-54.19921875,0.0
1676924163.4310777,13.671875,-31.73828125,-55.6640625,-56.15234375,0.0
1676924163.433578,-65.91796875,-24.90234375,-53.22265625,-54.19921875,0.0
1676924163.436078,-64.453125,-28.80859375,-42.48046875,-3.41796875,0.0
1676924163.441078,-9.27734375,-41.9921875,-42.96875,8.7890625,0.0
1676924163.4460776,4.39453125,-46.38671875,-61.5234375,-70.80078125,0.0
1676924163.4510775,-54.6875,-52.734375,-62.98828125,-78.125,0.0
1676924163.4560773,-68.359375,-49.8046875,-59.5703125,-69.3359375,0.0
1676924163.461077,-11.23046875,-51.7578125,-74.21875,-83.0078125,0.0
1676924163.4660769,20.99609375,-66.40625,-73.2421875,-78.61328125,0.0
1676924163.4710767,-35.64453125,-63.96484375,-56.640625,-52.734375,0.0
1676924163.4760764,-81.0546875,-53.22265625,-48.828125,-41.015625,0.0
1676924163.4810762,-25.87890625,-42.48046875,-53.7109375,-50.29296875,0.0
1676924163.486076,14.6484375,-36.62109375,-55.6640625,-73.2421875,0.0
1676924163.4910758,-41.015625,-23.4375,-53.7109375,-50.78125,0.0
1676924163.4960756,-104.00390625,-24.90234375,-54.6875,-32.71484375,0.0
1676924163.4985728,-74.21875,-58.59375,-54.6875,-62.98828125,0.0
1676924163.5010698,10.25390625,-67.87109375,-60.546875,-83.984375,0.0
1676924163.503567,-9.765625,-47.8515625,-61.03515625,-83.0078125,0.0
1676924163.506064,-91.30859375,-36.62109375,-51.7578125,-80.56640625,0.0
1676924163.5085611,-79.1015625,-39.55078125,-43.9453125,-68.359375,0.0
1676924163.5110583,0.0,-52.24609375,-44.43359375,-33.69140625,0.0
1676924163.5135553,32.2265625,-49.8046875,-48.33984375,-52.24609375,0.0
1676924163.5160525,-42.96875,-36.1328125,-51.26953125,-48.33984375,0.0
1676924163.5185494,-86.9140625,-35.15625,-57.6171875,-29.296875,0.0
1676924163.5210466,-29.78515625,-64.94140625,-57.12890625,-39.0625,0.0
1676924163.5235436,8.30078125,-67.3828125,-54.19921875,-61.5234375,0.0
1676924163.5260408,-40.0390625,-47.8515625,-60.546875,-56.15234375,0.0
1676924163.5299206,-91.796875,-67.3828125,-64.94140625,-16.11328125,0.0
1676924163.5338004,-32.2265625,-47.8515625,-57.6171875,-44.43359375,0.0
1676924163.5376801,34.66796875,-19.53125,-56.15234375,-51.7578125,0.0
1676924163.54156,-2.9296875,-36.1328125,-58.10546875,-51.7578125,0.0
1676924163.5454397,-64.453125,-45.41015625,-49.31640625,-49.31640625,0.0
1676924163.5493195,-41.50390625,-37.109375,-44.43359375,-36.1328125,0.0
1676924163.5531993,16.11328125,-33.203125,-42.96875,-41.9921875,0.0
1676924163.557079,1.953125,-41.015625,-45.8984375,-59.5703125,0.0
1676924163.5609589,-50.78125,-55.6640625,-48.33984375,-37.109375,0.0
1676924163.5648386,-76.171875,-78.125,-41.50390625,-19.53125,0.0
1676924163.5687184,-16.11328125,-73.2421875,-36.1328125,-40.52734375,0.0
1676924163.5725982,16.11328125,-30.2734375,-43.9453125,-58.59375,0.0
1676924163.5774713,-69.3359375,-10.25390625,-53.22265625,-67.3828125,0.0
1676924163.582344,-97.16796875,-32.71484375,-51.26953125,-64.453125,0.0
1676924163.587217,-18.06640625,-48.828125,-44.43359375,-55.6640625,0.0
1676924163.5920901,19.53125,-44.43359375,-48.33984375,-53.7109375,0.0
1676924163.596963,-27.34375,-36.1328125,-51.26953125,-61.03515625,0.0
1676924163.601836,-59.08203125,-41.015625,-43.9453125,-63.4765625,0.0
1676924163.606709,-30.2734375,-49.8046875,-47.36328125,-51.7578125,0.0
1676924163.6115818,18.06640625,-47.36328125,-46.38671875,-41.9921875,0.0
1676924163.6164548,-1.953125,-44.921875,-43.9453125,-45.8984375,0.0
1676924163.6213279,-88.37890625,-50.29296875,-54.6875,-51.7578125,0.0
1676924163.6262007,-78.125,-53.7109375,-51.7578125,-52.734375,0.0
1676924163.6310737,-0.48828125,-41.9921875,-49.8046875,-56.15234375,0.0
1676924163.6348228,-4.8828125,-35.64453125,-63.4765625,-42.48046875,0.0
1676924163.638572,-73.2421875,-41.50390625,-63.4765625,-27.83203125,0.0
1676924163.642321,-67.87109375,-51.7578125,-56.640625,-26.3671875,0.0
1676924163.6460702,-4.39453125,-49.31640625,-63.96484375,-70.3125,0.0
1676924163.6498194,7.32421875,-42.96875,-64.94140625,-72.75390625,0.0
1676924163.6535685,-51.26953125,-52.24609375,-61.03515625,-36.62109375,0.0
1676924163.6573176,-107.421875,-61.5234375,-61.5234375,-49.8046875,0.0
1676924163.6610668,-38.0859375,-60.05859375,-67.87109375,-76.66015625,0.0
1676924163.664816,29.296875,-47.8515625,-67.87109375,-59.5703125,0.0
1676924163.668565,-50.78125,-41.015625,-60.546875,-59.08203125,0.0
1676924163.6723142,-102.05078125,-38.0859375,-59.08203125,-71.2890625,0.0
1676924163.6760633,-49.31640625,-40.52734375,-59.5703125,-60.05859375,0.0
1676924163.6797957,10.7421875,-45.8984375,-60.05859375,-60.546875,0.0
1676924163.6835282,-14.6484375,-51.26953125,-62.98828125,-52.24609375,0.0
1676924163.6872606,-80.56640625,-63.96484375,-67.3828125,-48.33984375,0.0
1676924163.690993,-72.265625,-53.22265625,-69.3359375,-59.5703125,0.0
1676924163.6947255,-14.6484375,-46.875,-62.98828125,-59.08203125,0.0
1676924163.6984582,0.48828125,-59.5703125,-56.640625,-54.6875,0.0
1676924163.7021906,-50.78125,-56.15234375,-53.22265625,-67.87109375,0.0
1676924163.705923,-82.51953125,-43.45703125,-58.59375,-68.84765625,0.0
1676924163.7096555,-30.2734375,-41.015625,-63.96484375,-47.36328125,0.0
1676924163.713388,7.32421875,-52.24609375,-56.640625,-35.64453125,0.0
1676924163.7171204,-41.9921875,-52.24609375,-49.31640625,-52.734375,0.0
1676924163.7208529,-79.58984375,-40.0390625,-47.8515625,-11.71875,0.0
1676924163.7246118,-33.203125,-31.73828125,-56.15234375,-3.90625,0.0
1676924163.728371,13.18359375,-42.96875,-63.4765625,-71.77734375,0.0
1676924163.7321298,-36.1328125,-53.22265625,-57.6171875,-66.40625,0.0
1676924163.735889,-91.796875,-52.734375,-40.0390625,-49.8046875,0.0
1676924163.7396479,-43.9453125,-48.828125,-34.1796875,-51.26953125,0.0
1676924163.7434068,15.13671875,-41.9921875,-45.41015625,-68.84765625,0.0
1676924163.747166,-15.625,-35.15625,-53.7109375,-66.40625,0.0
1676924163.7509248,-71.2890625,-32.71484375,-55.17578125,-51.7578125,0.0
1676924163.754684,-71.77734375,-33.69140625,-54.6875,-54.19921875,0.0
1676924163.7584429,-15.625,-44.921875,-52.24609375,-50.78125,0.0
1676924163.762202,6.8359375,-53.22265625,-53.7109375,-55.6640625,0.0
1676924163.765961,-54.19921875,-41.9921875,-51.7578125,-64.453125,0.0
1676924163.7697208,-84.9609375,-41.015625,-54.19921875,-49.8046875,0.0
1676924163.7734804,-24.4140625,-57.12890625,-62.01171875,-60.05859375,0.0
1676924163.7772403,8.7890625,-81.54296875,-51.26953125,-39.55078125,0.0
1676924163.781,-42.96875,-71.2890625,-41.9921875,-51.26953125,0.0
1676924163.7847598,-90.8203125,-44.921875,-49.31640625,-61.5234375,0.0
1676924163.7885194,-53.7109375,-44.921875,-54.6875,-44.43359375,0.0
1676924163.7922792,12.6953125,-42.96875,-49.8046875,-47.36328125,0.0
1676924163.796039,-12.6953125,-35.64453125,-55.6640625,-58.59375,0.0
1676924163.7997987,-89.35546875,-40.0390625,-69.82421875,-69.82421875,0.0
1676924163.8035586,-77.1484375,-63.4765625,-68.84765625,-45.41015625,0.0
1676924163.8073182,-2.44140625,-60.546875,-57.6171875,-41.015625,0.0
1676924163.811078,11.71875,-41.9921875,-54.19921875,-49.31640625,0.0
1676924163.8148284,-54.19921875,-37.59765625,-60.05859375,-54.19921875,0.0
1676924163.8185787,-81.54296875,-35.64453125,-62.01171875,-55.17578125,0.0
1676924163.822329,-30.76171875,-42.48046875,-62.5,-45.41015625,0.0
1676924163.8260791,-9.27734375,-62.01171875,-62.98828125,-50.29296875,0.0
1676924163.8298295,-62.98828125,-67.87109375,-58.59375,-31.73828125,0.0
1676924163.8335798,-112.3046875,-44.921875,-55.17578125,-39.0625,0.0
1676924163.83733,-38.57421875,-46.38671875,-55.6640625,-68.84765625,0.0
1676924163.8410804,34.1796875,-53.22265625,-61.5234375,-76.66015625,0.0
1676924163.8448305,-34.66796875,-39.0625,-60.546875,-71.77734375,0.0
1676924163.8485808,-106.93359375,-39.55078125,-56.640625,-63.4765625,0.0
1676924163.8523312,-72.265625,-46.38671875,-63.4765625,-73.73046875,0.0
1676924163.8560815,1.46484375,-36.62109375,-76.171875,-73.73046875,0.0
1676924163.8598413,-22.94921875,-27.34375,-77.63671875,-67.87109375,0.0
1676924163.8636012,-90.33203125,-40.0390625,-63.96484375,-40.0390625,0.0
1676924163.8673608,-57.12890625,-48.828125,-63.4765625,-32.2265625,0.0
1676924163.8711207,19.53125,-49.8046875,-68.359375,-59.08203125,0.0
1676924163.8748806,6.8359375,-60.05859375,-62.5,-55.6640625,0.0
1676924163.8786402,-70.80078125,-50.29296875,-54.19921875,-39.55078125,0.0
1676924163.8824,-68.359375,-38.0859375,-57.6171875,-27.34375,0.0
1676924163.88616,-1.46484375,-32.2265625,-60.05859375,-71.77734375,0.0
1676924163.8899198,6.34765625,-32.2265625,-55.6640625,-91.796875,0.0
1676924163.8936796,-50.78125,-46.875,-58.10546875,-71.77734375,0.0
1676924163.8974392,-90.8203125,-47.36328125,-62.5,-57.6171875,0.0
1676924163.901199,-28.3203125,-42.48046875,-53.22265625,-41.50390625,0.0
1676924163.9049442,31.73828125,-33.203125,-45.41015625,-55.17578125,0.0
1676924163.908689,-23.92578125,-24.4140625,-49.8046875,-58.10546875,0.0
1676924163.912434,-85.44921875,-32.71484375,-51.26953125,-39.55078125,0.0
1676924163.9161792,-43.45703125,-40.0390625,-53.22265625,-65.91796875,0.0
1676924163.9199243,26.3671875,-39.0625,-56.15234375,-63.96484375,0.0
1676924163.9236693,-0.48828125,-41.9921875,-60.05859375,-50.78125,0.0
1676924163.9274142,-67.87109375,-49.8046875,-56.640625,-59.5703125,0.0
1676924163.9311593,-67.87109375,-43.45703125,-56.640625,-58.59375,0.0
1676924163.9349043,-6.8359375,-32.2265625,-60.546875,-61.03515625,0.0
1676924163.9386492,13.18359375,-30.2734375,-56.15234375,-50.29296875,0.0
1676924163.9423943,-50.29296875,-43.45703125,-50.78125,-47.8515625,0.0
1676924163.9461393,-86.9140625,-46.875,-50.78125,-57.12890625,0.0
1676924163.9511266,-30.76171875,-41.9921875,-46.38671875,-58.10546875,0.0
1676924163.9561136,5.859375,-52.24609375,-40.52734375,-45.41015625,0.0
1676924163.9611008,-41.50390625,-64.94140625,-49.31640625,-52.24609375,0.0
1676924163.966088,-84.47265625,-72.265625,-58.10546875,-43.45703125,0.0
1676924163.971075,-38.0859375,-51.26953125,-54.19921875,-40.52734375,0.0
1676924163.9760623,7.8125,-22.4609375,-45.8984375,-68.84765625,0.0
1676924163.9810495,-31.73828125,-25.87890625,-52.24609375,-73.73046875,0.0
1676924163.9860365,-84.47265625,-30.76171875,-62.01171875,-74.21875,0.0
1676924163.9910238,-55.17578125,-41.015625,-60.546875,-76.66015625,0.0
1676924163.996011,13.18359375,-46.38671875,-58.59375,-60.05859375,0.0
1676924164.000998,15.13671875,-42.96875,-55.17578125,-61.03515625,0.0
1676924164.0059853,-25.87890625,-48.33984375,-47.8515625,-58.59375,0.0
1676924164.0097363,-41.50390625,-51.26953125,-42.96875,-12.6953125,0.0
1676924164.0134873,0.48828125,-54.19921875,-50.29296875,-26.85546875,0.0
1676924164.0172384,20.5078125,-40.0390625,-63.4765625,-78.61328125,0.0
1676924164.0209894,-30.2734375,-29.296875,-67.87109375,-66.89453125,0.0
1676924164.0247405,-68.359375,-39.55078125,-58.10546875,-33.69140625,0.0
1676924164.0284915,-20.5078125,-46.875,-44.921875,-32.71484375,0.0
1676924164.0322423,15.625,-37.109375,-46.875,-41.50390625,0.0
1676924164.0359933,-31.73828125,-32.2265625,-57.12890625,-39.0625,0.0
1676924164.0397444,-70.80078125,-53.22265625,-61.03515625,-28.80859375,0.0
1676924164.0434954,-41.015625,-58.59375,-55.6640625,-46.38671875,0.0
1676924164.0472465,3.41796875,-33.203125,-53.22265625,-77.1484375,0.0
1676924164.0509975,-22.4609375,-47.36328125,-55.17578125,-76.171875,0.0
1676924164.0547347,-82.51953125,-84.9609375,-55.6640625,-64.94140625,0.0
1676924164.0584717,-57.12890625,-48.828125,-65.91796875,-57.6171875,0.0
1676924164.062209,13.671875,-18.06640625,-55.17578125,-78.125,0.0
1676924164.0659459,7.8125,-28.3203125,-38.0859375,-68.359375,0.0
1676924164.069683,-57.6171875,-24.90234375,-45.41015625,-45.41015625,0.0
1676924164.07342,-82.03125,-46.875,-51.7578125,-57.12890625,0.0
1676924164.0771573,-27.83203125,-70.80078125,-58.10546875,-42.48046875,0.0
1676924164.0808945,28.80859375,-60.05859375,-59.5703125,-37.59765625,0.0
1676924164.0846314,-35.64453125,-40.0390625,-54.19921875,-70.3125,0.0
1676924164.0883687,-99.12109375,-40.0390625,-53.22265625,-75.68359375,0.0
1676924164.0921056,-33.69140625,-46.38671875,-63.96484375,-63.4765625,0.0
1676924164.0958428,29.78515625,-53.22265625,-63.96484375,-59.08203125,0.0
1676924164.1009078,-15.625,-61.03515625,-56.640625,-61.5234375,0.0
1676924164.1059728,-70.80078125,-40.0390625,-53.22265625,-38.57421875,0.0
1676924164.1110377,-33.203125,-25.87890625,-54.6875,-24.90234375,0.0
1676924164.116103,32.2265625,-38.0859375,-58.10546875,-43.45703125,0.0
1676924164.121168,20.01953125,-46.875,-63.4765625,-51.7578125,0.0
1676924164.1262329,-63.96484375,-47.36328125,-71.2890625,-49.8046875,0.0
1676924164.1312978,-79.58984375,-62.01171875,-63.96484375,-49.8046875,0.0
1676924164.1363628,-4.39453125,-67.3828125,-52.734375,-55.17578125,0.0
1676924164.141428,12.6953125,-49.31640625,-59.5703125,-51.26953125,0.0
1676924164.146493,-61.03515625,-48.828125,-59.5703125,-68.84765625,0.0
1676924164.151558,-80.078125,-58.59375,-47.8515625,-58.10546875,0.0
1676924164.156623,-10.7421875,-48.828125,-50.29296875,-36.62109375,0.0
1676924164.1592073,25.87890625,-41.015625,-59.08203125,-48.828125,0.0
1676924164.1617918,-29.78515625,-37.109375,-59.08203125,-34.1796875,0.0
1676924164.1643763,-83.984375,-41.50390625,-54.6875,-38.0859375,0.0
1676924164.166961,-35.15625,-50.78125,-64.453125,-65.4296875,0.0
1676924164.1695454,14.6484375,-54.19921875,-71.2890625,-64.453125,0.0
1676924164.1721299,-28.80859375,-44.43359375,-63.96484375,-46.38671875,0.0
1676924164.1747143,-91.30859375,-38.57421875,-55.17578125,-41.015625,0.0
1676924164.1772988,-59.08203125,-53.7109375,-59.08203125,-44.921875,0.0
1676924164.1798835,16.11328125,-56.15234375,-66.40625,-63.4765625,0.0
1676924164.182468,4.39453125,-43.9453125,-64.94140625,-63.4765625,0.0
1676924164.1850524,-56.15234375,-25.87890625,-62.5,-30.76171875,0.0
1676924164.1876369,-60.546875,-20.5078125,-66.89453125,-34.66796875,0.0
1676924164.1913626,-16.6015625,-58.10546875,-73.2421875,-64.453125,0.0
1676924164.1950884,16.6015625,-60.546875,-65.4296875,-64.94140625,0.0
1676924164.1988142,-42.96875,-33.203125,-62.01171875,-43.45703125,0.0
1676924164.20254,-104.4921875,-28.80859375,-70.3125,-46.875,0.0
1676924164.2062657,-43.45703125,-38.57421875,-68.84765625,-50.29296875,0.0
1676924164.2099915,29.78515625,-61.03515625,-60.05859375,-31.25,0.0
1676924164.2137175,-25.390625,-61.5234375,-61.5234375,-41.9921875,0.0
1676924164.2174432,-90.8203125,-33.69140625,-65.91796875,-41.015625,0.0
1676924164.221169,-31.73828125,-33.69140625,-64.94140625,-60.05859375,0.0
1676924164.2248948,12.6953125,-39.55078125,-57.6171875,-72.265625,0.0
1676924164.2286205,-32.71484375,-51.7578125,-50.78125,-52.24609375,0.0
1676924164.2323463,-78.61328125,-55.6640625,-46.875,-45.41015625,0.0
1676924164.2359874,-53.7109375,-36.62109375,-55.6640625,-36.1328125,0.0
1676924164.2396288,17.578125,-24.90234375,-60.546875,-42.48046875,0.0
1676924164.24327,4.8828125,-31.25,-57.6171875,-68.359375,0.0
1676924164.246911,-70.3125,-55.17578125,-61.03515625,-68.359375,0.0
1676924164.2505524,-68.84765625,-50.29296875,-64.94140625,-38.0859375,0.0
1676924164.2541935,-14.16015625,-36.1328125,-57.12890625,-37.59765625,0.0
1676924164.2578347,-13.18359375,-48.33984375,-56.640625,-39.0625,0.0
1676924164.261476,-78.61328125,-56.15234375,-57.6171875,-51.26953125,0.0
1676924164.2651172,-117.67578125,-44.921875,-56.15234375,-59.08203125,0.0
1676924164.2687583,-64.94140625,-59.08203125,-61.03515625,-41.015625,0.0
1676924164.2723997,-15.625,-61.5234375,-59.5703125,-84.9609375,0.0
1676924164.2760408,-48.33984375,-47.8515625,-62.5,-74.21875,0.0
1676924164.279799,-103.02734375,-49.31640625,-68.359375,-33.203125,0.0
1676924164.2835572,-77.63671875,-37.109375,-58.10546875,-41.015625,0.0
1676924164.2873154,-8.7890625,-36.62109375,-52.24609375,-48.33984375,0.0
1676924164.2910736,-34.1796875,-37.59765625,-48.828125,-46.38671875,0.0
1676924164.2948318,-110.83984375,-31.25,-51.26953125,-41.50390625,0.0
1676924164.29859,-85.9375,-26.3671875,-60.05859375,-52.24609375,0.0
1676924164.3023481,-2.44140625,-23.92578125,-65.4296875,-54.19921875,0.0
1676924164.3061063,-14.6484375,-57.12890625,-68.84765625,-61.03515625,0.0
1676924164.3098645,-79.58984375,-61.5234375,-64.453125,-71.2890625,0.0
1676924164.3136227,-83.0078125,-30.2734375,-56.15234375,-60.546875,0.0
1676924164.317381,-40.0390625,-27.83203125,-50.29296875,-54.6875,0.0
1676924164.321139,-14.6484375,-33.69140625,-60.546875,-55.6640625,0.0
1676924164.3261342,-54.6875,-38.57421875,-61.5234375,-31.25,0.0
1676924164.3311293,-96.6796875,-46.38671875,-47.36328125,-22.4609375,0.0
1676924164.3361244,-46.875,-52.24609375,-46.875,-57.12890625,0.0
1676924164.3411195,4.8828125,-52.24609375,-58.59375,-78.61328125,0.0
1676924164.3461146,-46.38671875,-41.015625,-62.5,-77.1484375,0.0
1676924164.35111,-94.7265625,-37.109375,-58.59375,-41.015625,0.0
1676924164.356105,-55.6640625,-49.8046875,-58.59375,-32.2265625,0.0
1676924164.3611002,-11.23046875,-60.05859375,-62.98828125,-45.8984375,0.0
1676924164.3660953,-27.34375,-39.0625,-66.40625,-54.6875,0.0
1676924164.3710904,-84.9609375,-17.08984375,-71.2890625,-50.29296875,0.0
1676924164.3760855,-77.63671875,-28.3203125,-73.2421875,-57.6171875,0.0
1676924164.3810806,-4.8828125,-33.69140625,-59.08203125,-60.546875,0.0
1676924164.3848305,0.9765625,-46.38671875,-52.734375,-45.8984375,0.0
1676924164.3885803,-46.38671875,-48.33984375,-51.26953125,-33.203125,0.0
1676924164.3923304,-72.265625,-48.33984375,-50.78125,-41.9921875,0.0
1676924164.3960803,-13.671875,-46.38671875,-60.05859375,-76.66015625,0.0
1676924164.39983,31.25,-35.15625,-58.10546875,-62.98828125,0.0
1676924164.4035802,-50.78125,-52.24609375,-52.24609375,-48.828125,0.0
1676924164.40733,-113.76953125,-47.36328125,-54.19921875,-43.9453125,0.0
1676924164.41108,-68.359375,-33.69140625,-62.01171875,-50.78125,0.0
1676924164.4148297,-8.30078125,-28.3203125,-71.77734375,-59.08203125,0.0
1676924164.4185796,-23.4375,-25.390625,-59.08203125,-52.734375,0.0
1676924164.4223297,-79.58984375,-50.78125,-44.921875,-53.7109375,0.0
1676924164.4260795,-76.66015625,-62.98828125,-51.7578125,-62.5,0.0
1676924164.429929,-8.7890625,-65.91796875,-55.6640625,-46.38671875,0.0
1676924164.4337785,-10.25390625,-68.359375,-53.22265625,-39.0625,0.0
1676924164.4376283,-66.40625,-37.109375,-56.15234375,-41.9921875,0.0
1676924164.4414778,-66.40625,-19.04296875,-53.7109375,-34.1796875,0.0
1676924164.4453273,-14.16015625,-29.78515625,-63.96484375,-40.52734375,0.0
1676924164.4491768,8.30078125,-49.8046875,-74.21875,-55.17578125,0.0
1676924164.4530263,-54.19921875,-55.17578125,-68.84765625,-65.4296875,0.0
1676924164.4568758,-102.5390625,-46.875,-74.21875,-53.22265625,0.0
1676924164.4607253,-45.8984375,-52.734375,-75.1953125,-55.6640625,0.0
1676924164.464575,0.0,-45.41015625,-69.82421875,-71.77734375,0.0
1676924164.4684246,-40.0390625,-30.2734375,-57.12890625,-62.5,0.0
1676924164.472274,-66.89453125,-35.64453125,-51.7578125,-45.41015625,0.0
1676924164.4759288,-42.96875,-56.640625,-60.546875,-34.1796875,0.0
1676924164.4795835,26.3671875,-55.6640625,-66.40625,-55.6640625,0.0
1676924164.4832382,8.7890625,-45.8984375,-59.08203125,-43.45703125,0.0
1676924164.486893,-82.03125,-37.109375,-54.19921875,-25.87890625,0.0
1676924164.4905477,-64.453125,-43.9453125,-63.4765625,-45.8984375,0.0
1676924164.4942021,-9.765625,-70.80078125,-62.98828125,-36.1328125,0.0
1676924164.4978569,-18.06640625,-59.5703125,-48.33984375,-76.171875,0.0
1676924164.5015116,-76.171875,-37.59765625,-53.7109375,-56.640625,0.0
1676924164.5051663,-82.03125,-36.1328125,-58.10546875,-39.55078125,0.0
1676924164.508821,-5.37109375,-28.3203125,-53.22265625,-80.56640625,0.0
1676924164.5124757,20.99609375,-28.80859375,-54.19921875,-70.80078125,0.0
1676924164.5161304,-51.7578125,-31.73828125,-62.98828125,-48.828125,0.0
1676924164.5198605,-79.58984375,-39.55078125,-65.91796875,-35.64453125,0.0
1676924164.5235903,-29.296875,-46.38671875,-71.2890625,-44.921875,0.0
1676924164.5273204,3.90625,-38.0859375,-81.0546875,-63.4765625,0.0
1676924164.5310502,-50.29296875,-44.43359375,-65.91796875,-65.4296875,0.0
1676924164.5347803,-111.328125,-49.8046875,-61.5234375,-66.89453125,0.0
1676924164.5385103,-72.75390625,-50.78125,-59.08203125,-65.4296875,0.0
1676924164.5422401,-0.9765625,-56.640625,-45.8984375,-76.171875,0.0
1676924164.5459702,-9.27734375,-68.359375,-47.36328125,-55.6640625,0.0
1676924164.5497,-68.359375,-61.5234375,-49.31640625,-25.390625,0.0
1676924164.55343,-73.73046875,-37.59765625,-55.6640625,-61.03515625,0.0
1676924164.55716,-8.30078125,-35.15625,-58.59375,-75.68359375,0.0
1676924164.56089,-3.90625,-41.9921875,-62.5,-60.05859375,0.0
1676924164.5646553,-78.125,-56.15234375,-79.1015625,-48.33984375,0.0
1676924164.5684204,-91.30859375,-49.31640625,-76.171875,-32.2265625,0.0
1676924164.5721858,-10.25390625,-35.64453125,-59.5703125,-54.19921875,0.0
1676924164.5759509,19.04296875,-40.52734375,-52.734375,-76.171875,0.0
1676924164.5797162,-45.41015625,-43.45703125,-44.921875,-50.78125,0.0
1676924164.5834813,-81.0546875,-39.0625,-41.9921875,-44.921875,0.0
1676924164.5872467,-23.92578125,-48.33984375,-46.38671875,-29.78515625,0.0
1676924164.591012,31.25,-54.6875,-59.5703125,-34.1796875,0.0
1676924164.594777,-22.94921875,-41.50390625,-72.75390625,-60.05859375,0.0
1676924164.5985425,-87.890625,-40.0390625,-64.453125,-46.875,0.0
1676924164.6023076,-61.5234375,-36.62109375,-64.94140625,-63.96484375,0.0
1676924164.606073,-2.44140625,-41.015625,-69.82421875,-67.87109375,0.0
1676924164.6099246,-5.37109375,-37.59765625,-69.3359375,-54.6875,0.0
1676924164.6137764,-78.61328125,-40.52734375,-69.82421875,-71.77734375,0.0
1676924164.617628,-94.7265625,-61.03515625,-59.5703125,-72.265625,0.0
1676924164.6214797,-29.78515625,-60.05859375,-58.59375,-70.80078125,0.0
1676924164.6253316,0.48828125,-52.734375,-62.98828125,-63.4765625,0.0
1676924164.6291833,-42.48046875,-48.33984375,-52.24609375,-12.20703125,0.0
1676924164.633035,-75.68359375,-47.8515625,-44.921875,-2.44140625,0.0
1676924164.6368868,-42.96875,-57.6171875,-61.03515625,-70.80078125,0.0
1676924164.6407385,-7.8125,-44.43359375,-69.82421875,-84.9609375,0.0
1676924164.6445901,-51.7578125,-37.59765625,-65.4296875,-52.24609375,0.0
1676924164.648442,-94.7265625,-41.015625,-60.546875,-61.03515625,0.0
1676924164.6522937,-57.12890625,-48.828125,-62.5,-69.3359375,0.0
1676924164.6559477,6.34765625,-43.45703125,-70.3125,-61.03515625,0.0
1676924164.6596017,-13.671875,-26.85546875,-67.87109375,-57.6171875,0.0
1676924164.6632557,-93.75,-28.3203125,-64.94140625,-62.98828125,0.0
1676924164.6669097,-64.453125,-53.22265625,-64.94140625,-52.734375,0.0
1676924164.6705637,8.7890625,-74.21875,-62.01171875,-52.24609375,0.0
1676924164.6742177,-8.7890625,-61.03515625,-67.3828125,-60.546875,0.0
1676924164.6778717,-76.171875,-45.8984375,-69.3359375,-32.2265625,0.0
1676924164.6815257,-98.6328125,-37.59765625,-71.2890625,-57.6171875,0.0
1676924164.6851797,-31.25,-53.22265625,-73.2421875,-76.66015625,0.0
1676924164.6888337,2.9296875,-55.17578125,-63.96484375,-63.4765625,0.0
1676924164.6924877,-49.8046875,-26.85546875,-71.77734375,-60.05859375,0.0
1676924164.6961417,-77.63671875,-24.4140625,-77.63671875,-62.5,0.0
1676924164.7011416,-35.15625,-37.109375,-61.03515625,-57.6171875,0.0
1676924164.7061412,23.4375,-46.38671875,-47.8515625,-41.9921875,0.0
1676924164.711141,-20.99609375,-49.31640625,-50.29296875,-47.36328125,0.0
1676924164.716141,-86.42578125,-37.59765625,-65.4296875,-50.78125,0.0
1676924164.7211406,-51.26953125,-42.48046875,-66.89453125,-51.7578125,0.0
1676924164.7261405,13.671875,-60.546875,-67.3828125,-47.36328125,0.0
1676924164.7311404,-20.99609375,-39.0625,-70.80078125,-54.19921875,0.0
1676924164.73614,-97.16796875,-17.578125,-67.3828125,-64.453125,0.0
1676924164.74114,-68.359375,-28.3203125,-71.2890625,-82.51953125,0.0
1676924164.7461398,-2.44140625,-56.640625,-63.4765625,-71.2890625,0.0
1676924164.7511394,-8.30078125,-63.96484375,-62.98828125,-51.7578125,0.0
1676924164.7561393,-74.21875,-41.015625,-62.5,-55.6640625,0.0
1676924164.7598724,-81.54296875,-31.73828125,-58.59375,-50.29296875,0.0
1676924164.7636054,-21.97265625,-56.15234375,-72.75390625,-65.4296875,0.0
1676924164.7673385,-1.953125,-62.01171875,-80.56640625,-63.96484375,0.0
1676924164.7710714,-66.89453125,-47.36328125,-71.2890625,-55.17578125,0.0
1676924164.7748046,-113.76953125,-46.38671875,-71.77734375,-77.1484375,0.0
1676924164.7785378,-42.48046875,-37.59765625,-79.1015625,-81.0546875,0.0
1676924164.7822707,20.01953125,-32.2265625,-69.3359375,-65.4296875,0.0
1676924164.7860038,-13.18359375,-34.66796875,-62.98828125,-66.89453125,0.0
1676924164.7897367,-77.1484375,-24.90234375,-67.3828125,-74.21875,0.0
1676924164.79347,-64.453125,-21.484375,-66.40625,-56.640625,0.0
1676924164.7972028,-4.8828125,-38.57421875,-64.94140625,-35.64453125,0.0
1676924164.800936,-11.71875,-44.43359375,-69.3359375,-29.78515625,0.0
1676924164.8046954,-73.73046875,-32.71484375,-83.0078125,-42.48046875,0.0
1676924164.808455,-75.68359375,-42.48046875,-83.49609375,-59.5703125,0.0
1676924164.8122144,-5.859375,-58.59375,-68.84765625,-64.453125,0.0
1676924164.8159738,8.30078125,-51.26953125,-62.98828125,-54.19921875,0.0
1676924164.8197334,-70.3125,-42.48046875,-62.98828125,-57.12890625,0.0
1676924164.8234928,-102.05078125,-53.7109375,-66.40625,-75.68359375,0.0
1676924164.8272521,-37.59765625,-59.08203125,-61.03515625,-62.5,0.0
1676924164.8310118,-9.27734375,-45.41015625,-62.5,-50.29296875,0.0
1676924164.8347712,-49.31640625,-51.7578125,-62.98828125,-45.8984375,0.0
1676924164.8385305,-70.80078125,-49.8046875,-59.08203125,-41.015625,0.0
1676924164.8422902,-35.15625,-35.64453125,-65.91796875,-51.7578125,0.0
1676924164.8460495,-1.953125,-45.41015625,-69.82421875,-38.57421875,0.0
1676924164.8498333,-32.2265625,-46.38671875,-67.87109375,-36.62109375,0.0
1676924164.8536167,-83.0078125,-41.9921875,-75.68359375,-49.31640625,0.0
1676924164.8574004,-68.84765625,-48.828125,-77.1484375,-60.546875,0.0
1676924164.8611841,-15.625,-37.59765625,-79.1015625,-57.12890625,0.0
1676924164.8649678,-13.18359375,-29.78515625,-75.1953125,-50.29296875,0.0
1676924164.8687515,-61.03515625,-50.29296875,-63.4765625,-35.15625,0.0
1676924164.872535,-44.43359375,-64.453125,-62.01171875,-27.34375,0.0
1676924164.8763187,20.5078125,-54.19921875,-62.01171875,-15.13671875,0.0
1676924164.8801024,20.5078125,-44.921875,-59.5703125,-4.39453125,0.0
1676924164.8838859,-46.38671875,-44.43359375,-59.5703125,-31.25,0.0
1676924164.8876696,-75.68359375,-33.69140625,-65.4296875,-48.828125,0.0
1676924164.8914533,-14.16015625,-28.80859375,-68.84765625,-68.84765625,0.0
1676924164.8951602,4.39453125,-30.76171875,-72.75390625,-80.078125,0.0
1676924164.8988674,-50.78125,-39.55078125,-77.1484375,-64.453125,0.0
1676924164.9025743,-103.515625,-51.7578125,-71.2890625,-54.19921875,0.0
1676924164.9062815,-60.05859375,-44.921875,-72.75390625,-45.8984375,0.0
1676924164.9099884,19.53125,-46.38671875,-72.265625,-32.71484375,0.0
1676924164.9136953,-6.8359375,-53.7109375,-68.359375,-42.48046875,0.0
1676924164.9174025,-80.078125,-41.9921875,-66.40625,-54.6875,0.0
1676924164.9211094,-65.4296875,-38.0859375,-67.3828125,-49.8046875,0.0
1676924164.9248166,-20.01953125,-49.8046875,-67.87109375,-77.1484375,0.0
1676924164.9285235,-17.08984375,-56.15234375,-66.89453125,-83.984375,0.0
1676924164.9322307,-80.56640625,-55.6640625,-81.54296875,-68.359375,0.0
1676924164.9359376,-109.86328125,-53.7109375,-90.33203125,-61.03515625,0.0
1676924164.940926,-28.80859375,-37.59765625,-87.890625,-63.4765625,0.0
1676924164.9459145,-0.9765625,-33.203125,-79.58984375,-74.21875,0.0
1676924164.950903,-66.89453125,-51.7578125,-74.70703125,-59.08203125,0.0
1676924164.9558916,-96.19140625,-46.875,-75.68359375,-47.8515625,0.0
1676924164.96088,-28.80859375,-41.50390625,-73.73046875,-67.3828125,0.0
1676924164.9658685,-0.9765625,-51.7578125,-77.1484375,-79.58984375,0.0
1676924164.970857,-68.359375,-51.7578125,-78.61328125,-78.125,0.0
1676924164.9758453,-105.46875,-58.10546875,-75.1953125,-53.7109375,0.0
1676924164.980834,-61.03515625,-31.73828125,-69.82421875,-31.25,0.0
1676924164.9858224,-6.8359375,-17.578125,-66.89453125,-32.2265625,0.0
1676924164.9908109,-20.99609375,-39.55078125,-71.2890625,-30.76171875,0.0
1676924164.9957993,-88.37890625,-53.22265625,-75.1953125,-49.31640625,0.0
1676924164.998323,-74.70703125,-62.5,-81.0546875,-79.58984375,0.0
1676924165.0008466,-1.46484375,-55.17578125,-76.171875,-83.49609375,0.0
1676924165.0033703,-1.953125,-37.59765625,-70.80078125,-63.4765625,0.0
1676924165.0058942,-79.58984375,-48.828125,-77.63671875,-57.12890625,0.0
1676924165.0084178,-106.93359375,-57.12890625,-75.68359375,-59.5703125,0.0
1676924165.0109415,-49.8046875,-41.9921875,-73.2421875,-63.96484375,0.0
1676924165.0134652,-4.39453125,-28.3203125,-72.75390625,-69.82421875,0.0
1676924165.0159888,-36.62109375,-14.16015625,-63.96484375,-30.76171875,0.0
1676924165.0185127,-92.7734375,-40.52734375,-65.91796875,-35.64453125,0.0
1676924165.0210364,-51.26953125,-60.05859375,-71.77734375,-71.77734375,0.0
1676924165.02356,0.9765625,-38.0859375,-73.2421875,-53.7109375,0.0
1676924165.0260837,-52.24609375,-48.33984375,-74.21875,-69.3359375,0.0
1676924165.0298402,-110.3515625,-55.17578125,-77.1484375,-92.7734375,0.0
1676924165.033597,-63.4765625,-46.875,-79.58984375,-71.77734375,0.0
1676924165.0373535,-17.08984375,-60.546875,-71.2890625,-67.87109375,0.0
1676924165.0411103,-41.015625,-62.98828125,-65.91796875,-74.21875,0.0
1676924165.0448668,-96.6796875,-46.875,-65.4296875,-62.01171875,0.0
1676924165.0486236,-87.890625,-39.0625,-62.5,-60.546875,0.0
1676924165.05238,5.859375,-31.25,-62.98828125,-67.3828125,0.0
1676924165.0561366,13.671875,-36.1328125,-62.98828125,-44.43359375,0.0
1676924165.0598934,-71.77734375,-45.41015625,-69.3359375,-53.22265625,0.0
1676924165.06365,-96.6796875,-50.78125,-74.70703125,-73.2421875,0.0
1676924165.0674067,-33.69140625,-49.8046875,-76.171875,-56.15234375,0.0
1676924165.0711632,16.11328125,-46.875,-71.2890625,-52.734375,0.0
1676924165.076156,-28.3203125,-46.38671875,-64.453125,-48.33984375,0.0
1676924165.0811486,-82.51953125,-36.62109375,-70.80078125,-34.66796875,0.0
1676924165.0861416,-48.33984375,-39.55078125,-76.171875,-51.26953125,0.0
1676924165.0911343,7.8125,-33.69140625,-67.3828125,-48.828125,0.0
1676924165.096127,-31.73828125,-30.76171875,-58.59375,-37.59765625,0.0
1676924165.1011198,-86.42578125,-38.57421875,-63.96484375,-42.48046875,0.0
1676924165.1061125,-59.08203125,-28.3203125,-71.77734375,-47.36328125,0.0
1676924165.1111052,1.46484375,-26.85546875,-66.89453125,-51.26953125,0.0
1676924165.116098,2.9296875,-40.0390625,-60.05859375,-45.41015625,0.0
1676924165.121091,-66.40625,-51.7578125,-60.05859375,-36.1328125,0.0
1676924165.1260836,-76.171875,-47.36328125,-64.453125,-35.64453125,0.0
1676924165.1310763,-11.23046875,-36.62109375,-69.3359375,-49.8046875,0.0
1676924165.134827,-5.859375,-38.57421875,-69.82421875,-71.77734375,0.0
1676924165.1385775,-63.4765625,-43.45703125,-60.05859375,-53.7109375,0.0
1676924165.1423283,-87.890625,-47.36328125,-60.546875,-38.0859375,0.0
1676924165.1460788,-36.1328125,-38.57421875,-80.078125,-59.08203125,0.0
1676924165.1498294,2.9296875,-22.4609375,-83.49609375,-52.734375,0.0
1676924165.15358,-41.50390625,-29.78515625,-80.56640625,-50.29296875,0.0
1676924165.1573305,-88.8671875,-51.7578125,-78.61328125,-50.78125,0.0
1676924165.161081,-58.10546875,-62.98828125,-80.56640625,-53.7109375,0.0
1676924165.1648316,-1.46484375,-53.22265625,-83.984375,-40.52734375,0.0
1676924165.1685824,-30.76171875,-42.96875,-83.0078125,-20.01953125,0.0
1676924165.172333,-90.33203125,-33.203125,-77.63671875,-30.2734375,0.0
1676924165.1760836,-70.3125,-38.0859375,-82.51953125,-40.0390625,0.0
1676924165.179833,-2.9296875,-56.640625,-85.44921875,-41.9921875,0.0
1676924165.1835825,-6.34765625,-40.52734375,-76.66015625,-49.8046875,0.0
1676924165.187332,-87.40234375,-31.25,-87.40234375,-63.96484375,0.0
1676924165.1910815,-95.703125,-44.43359375,-83.984375,-60.05859375,0.0
1676924165.194831,-0.48828125,-43.45703125,-70.80078125,-58.59375,0.0
1676924165.1985803,30.2734375,-24.90234375,-73.73046875,-56.15234375,0.0
1676924165.2023299,-52.24609375,-33.203125,-79.58984375,-48.33984375,0.0
1676924165.2060792,-89.84375,-39.55078125,-79.1015625,-56.640625,0.0
1676924165.2098289,-24.4140625,-33.69140625,-74.21875,-60.546875,0.0
1676924165.2135782,20.01953125,-48.828125,-77.63671875,-58.59375,0.0
1676924165.2173278,-37.59765625,-33.69140625,-77.1484375,-66.89453125,0.0
1676924165.2210772,-120.1171875,-25.390625,-76.171875,-49.8046875,0.0
1676924165.2248251,-74.70703125,-40.52734375,-81.0546875,-46.875,0.0
1676924165.2285733,-18.5546875,-35.15625,-76.171875,-72.75390625,0.0
1676924165.2323213,-55.6640625,-24.4140625,-66.40625,-80.078125,0.0
1676924165.2360694,-118.65234375,-21.97265625,-66.89453125,-82.03125,0.0
1676924165.2398174,-139.6484375,-26.85546875,-81.0546875,-92.7734375,0.0
1676924165.2435656,-89.84375,-26.85546875,-80.078125,-117.67578125,0.0
1676924165.2473135,-57.6171875,-16.11328125,-72.75390625,-137.6953125,0.0
1676924165.2510614,-154.296875,-20.99609375,-72.265625,-145.99609375,0.0
1676924165.2548096,-236.81640625,-16.11328125,-80.078125,-182.6171875,0.0
1676924165.2585576,-159.1796875,19.53125,-83.984375,-193.359375,0.0
1676924165.2623057,-113.76953125,46.875,-87.40234375,-210.44921875,0.0
1676924165.2660537,-190.4296875,30.76171875,-102.5390625,-227.5390625,0.0
1676924165.2710743,-243.65234375,-11.23046875,-99.609375,-220.21484375,0.0
1676924165.276095,-197.75390625,-11.71875,-97.65625,-234.86328125,0.0
1676924165.2811155,-155.76171875,1.953125,-100.09765625,-223.6328125,0.0
1676924165.2861362,-197.75390625,-16.11328125,-99.12109375,-221.19140625,0.0
1676924165.2911568,-247.0703125,-10.25390625,-95.703125,-209.9609375,0.0
1676924165.2961774,-212.890625,4.39453125,-94.23828125,-183.10546875,0.0
1676924165.301198,-145.01953125,-10.25390625,-94.23828125,-203.61328125,0.0
1676924165.3062186,-127.9296875,-4.8828125,-90.33203125,-180.6640625,0.0
1676924165.3112392,-175.29296875,-4.39453125,-87.890625,-142.578125,0.0
1676924165.3162599,-188.4765625,-19.04296875,-89.35546875,-121.58203125,0.0
1676924165.3212805,-99.609375,-28.3203125,-86.42578125,-105.95703125,0.0
1676924165.326301,-54.6875,-31.73828125,-88.37890625,-143.06640625,0.0
1676924165.3288908,-121.58203125,-23.4375,-96.6796875,-148.92578125,0.0
1676924165.3314805,-134.27734375,-24.4140625,-104.00390625,-117.1875,0.0
1676924165.33407,-52.734375,-40.0390625,-103.515625,-80.078125,0.0
1676924165.3366597,-11.23046875,-30.2734375,-95.21484375,-62.98828125,0.0
1676924165.3392494,-67.87109375,-50.29296875,-88.37890625,-59.5703125,0.0
1676924165.3418388,-110.83984375,-69.3359375,-90.8203125,-72.265625,0.0
1676924165.3444285,-48.33984375,-57.6171875,-87.890625,-62.01171875,0.0
1676924165.3470182,13.671875,-63.4765625,-79.58984375,-34.1796875,0.0
1676924165.349608,-1.953125,-54.19921875,-89.35546875,-35.15625,0.0
1676924165.3521976,-55.17578125,-40.52734375,-94.7265625,-30.2734375,0.0
1676924165.354787,-55.17578125,-33.203125,-96.6796875,-14.16015625,0.0
1676924165.3573768,9.765625,-37.109375,-97.16796875,-13.18359375,0.0
1676924165.3610044,17.08984375,-56.15234375,-97.16796875,-35.64453125,0.0
1676924165.3646317,-49.8046875,-53.22265625,-99.609375,-15.625,0.0
1676924165.3682592,-58.59375,-59.08203125,-100.5859375,-9.27734375,0.0
1676924165.3718867,13.18359375,-83.49609375,-101.07421875,-25.390625,0.0
1676924165.375514,53.22265625,-78.125,-89.84375,-16.6015625,0.0
1676924165.3791416,-5.37109375,-46.875,-77.1484375,-8.30078125,0.0
1676924165.382769,-43.45703125,-39.55078125,-76.171875,7.8125,0.0
1676924165.3863964,22.4609375,-43.9453125,-89.84375,4.8828125,0.0
1676924165.390024,71.77734375,-35.15625,-100.5859375,-8.30078125,0.0
1676924165.3936515,18.06640625,-33.203125,-98.6328125,15.625,0.0
1676924165.3972788,-40.52734375,-50.78125,-97.16796875,26.85546875,0.0
1676924165.4009063,-2.44140625,-56.15234375,-91.30859375,-17.578125,0.0
1676924165.40468,60.05859375,-59.5703125,-86.42578125,-6.34765625,0.0
1676924165.4084537,45.41015625,-62.98828125,-91.30859375,10.7421875,0.0
1676924165.4122274,-24.90234375,-43.9453125,-93.75,-9.765625,0.0
1676924165.416001,-39.55078125,-57.12890625,-90.8203125,-17.578125,0.0
1676924165.4197748,19.04296875,-84.47265625,-83.0078125,-24.4140625,0.0
1676924165.4235487,24.4140625,-61.5234375,-76.171875,-8.7890625,0.0
1676924165.4273224,-35.64453125,-35.64453125,-87.40234375,1.46484375,0.0
1676924165.431096,-63.4765625,-43.45703125,-93.26171875,-6.34765625,0.0
1676924165.4348698,-11.71875,-51.7578125,-86.42578125,11.23046875,0.0
1676924165.4386435,34.1796875,-44.921875,-83.984375,9.27734375,0.0
1676924165.4424171,-22.94921875,-37.59765625,-79.58984375,8.30078125,0.0
1676924165.4461908,-53.7109375,-45.41015625,-81.0546875,7.8125,0.0
1676924165.451179,-7.8125,-51.26953125,-86.42578125,4.39453125,0.0
1676924165.4561675,33.69140625,-37.109375,-78.125,21.97265625,0.0
1676924165.4611557,1.46484375,-38.0859375,-67.3828125,15.13671875,0.0
1676924165.4661438,-66.89453125,-63.4765625,-73.73046875,-3.41796875,0.0
1676924165.4711323,-44.921875,-59.08203125,-74.70703125,-13.18359375,0.0
1676924165.4761205,32.2265625,-52.24609375,-75.1953125,-12.20703125,0.0
1676924165.4811087,34.1796875,-71.2890625,-81.0546875,-18.5546875,0.0
1676924165.486097,-32.71484375,-71.77734375,-88.8671875,-29.78515625,0.0
1676924165.4910853,-48.828125,-53.22265625,-91.30859375,-28.80859375,0.0
1676924165.4960735,16.11328125,-37.109375,-89.35546875,-24.90234375,0.0
1676924165.501062,24.90234375,-25.390625,-94.23828125,-32.2265625,0.0
1676924165.50605,-47.36328125,-25.87890625,-88.8671875,-33.69140625,0.0
1676924165.5098045,-59.08203125,-39.0625,-82.51953125,-5.859375,0.0
1676924165.5135589,0.0,-46.38671875,-81.54296875,4.39453125,0.0
1676924165.517313,37.59765625,-48.33984375,-78.125,-20.99609375,0.0
1676924165.5210674,-13.671875,-44.921875,-82.03125,-17.578125,0.0
1676924165.5248218,-65.91796875,-41.9921875,-88.8671875,-25.87890625,0.0
1676924165.528576,-18.5546875,-57.6171875,-92.7734375,-41.50390625,0.0
1676924165.5323303,27.83203125,-50.78125,-91.796875,-29.78515625,0.0
1676924165.5360847,-15.13671875,-28.3203125,-82.51953125,-36.62109375,0.0
1676924165.539839,-57.6171875,-25.87890625,-79.58984375,-35.15625,0.0
1676924165.5435934,-35.64453125,-31.25,-87.890625,-35.64453125,0.0
1676924165.5473475,0.48828125,-40.0390625,-94.7265625,-58.59375,0.0
1676924165.551102,-4.8828125,-48.828125,-90.8203125,-48.828125,0.0
1676924165.5548499,-58.59375,-60.05859375,-88.8671875,-41.015625,0.0
1676924165.5585978,-59.5703125,-75.1953125,-94.23828125,-47.8515625,0.0
1676924165.5623455,1.953125,-69.82421875,-104.4921875,-44.43359375,0.0
1676924165.5660934,23.92578125,-47.36328125,-103.515625,-36.62109375,0.0
1676924165.5698414,-35.15625,-43.45703125,-92.7734375,-35.64453125,0.0
1676924165.5735893,-84.47265625,-55.17578125,-82.51953125,-41.50390625,0.0
1676924165.5773373,-28.3203125,-53.22265625,-83.0078125,-53.7109375,0.0
1676924165.5810852,34.1796875,-42.48046875,-81.0546875,-46.875,0.0
1676924165.5848331,-15.13671875,-28.80859375,-76.66015625,-11.23046875,0.0
1676924165.5885808,-74.70703125,-36.62109375,-77.63671875,-2.44140625,0.0
1676924165.5923288,-24.4140625,-60.05859375,-84.47265625,-26.85546875,0.0
1676924165.5960767,22.4609375,-56.15234375,-94.23828125,-47.36328125,0.0
1676924165.599827,-13.671875,-44.921875,-96.6796875,-49.31640625,0.0
1676924165.6035774,-49.31640625,-36.1328125,-92.28515625,-41.9921875,0.0
1676924165.607328,-33.203125,-26.85546875,-89.35546875,-36.1328125,0.0
1676924165.6110783,7.8125,-35.64453125,-96.19140625,-49.31640625,0.0
1676924165.6148286,12.20703125,-46.875,-100.5859375,-41.015625,0.0
1676924165.618579,-51.26953125,-53.22265625,-109.86328125,-31.73828125,0.0
1676924165.6223292,-76.171875,-38.0859375,-102.5390625,-32.71484375,0.0
1676924165.6260796,-9.27734375,-35.15625,-79.58984375,-16.11328125,0.0
1676924165.62983,24.4140625,-65.91796875,-87.40234375,-16.11328125,0.0
1676924165.6335804,-52.24609375,-66.40625,-97.65625,-20.01953125,0.0
1676924165.6373308,-99.12109375,-49.31640625,-85.9375,-40.0390625,0.0
1676924165.641081,-11.71875,-51.7578125,-84.9609375,-52.24609375,0.0
1676924165.6448202,53.7109375,-51.7578125,-83.984375,-36.62109375,0.0
1676924165.6485593,-16.11328125,-50.29296875,-82.03125,-34.66796875,0.0
1676924165.6522985,-82.51953125,-44.43359375,-87.40234375,-34.66796875,0.0
1676924165.6560376,-37.59765625,-23.92578125,-85.44921875,-33.69140625,0.0
1676924165.6597767,20.01953125,-15.13671875,-90.8203125,-37.59765625,0.0
1676924165.663516,5.859375,-24.90234375,-94.23828125,-24.90234375,0.0
1676924165.6672552,-44.921875,-41.015625,-86.42578125,-18.06640625,0.0
1676924165.6709943,-50.78125,-61.03515625,-93.75,-26.85546875,0.0
1676924165.6747334,-2.44140625,-51.26953125,-98.14453125,-53.7109375,0.0
1676924165.6784725,8.7890625,-40.0390625,-99.609375,-62.98828125,0.0
1676924165.6822116,-44.921875,-40.52734375,-101.07421875,-32.2265625,0.0
1676924165.6859508,-59.5703125,-62.98828125,-99.12109375,-14.6484375,0.0
1676924165.6897185,-11.23046875,-62.5,-100.5859375,-30.76171875,0.0
1676924165.693486,6.8359375,-27.83203125,-97.65625,-50.78125,0.0
1676924165.6972537,-53.7109375,-27.34375,-96.19140625,-50.29296875,0.0
1676924165.7010212,-90.33203125,-49.8046875,-105.95703125,-48.828125,0.0
1676924165.704789,-34.66796875,-51.7578125,-106.4453125,-58.59375,0.0
1676924165.7085567,22.4609375,-50.29296875,-105.46875,-65.4296875,0.0
1676924165.7123241,-10.25390625,-55.17578125,-101.5625,-64.453125,0.0
1676924165.7160919,-76.171875,-43.45703125,-104.98046875,-38.0859375,0.0
1676924165.7198594,-72.265625,-44.43359375,-113.76953125,-43.45703125,0.0
1676924165.723627,2.44140625,-52.734375,-106.4453125,-59.5703125,0.0
1676924165.7273946,17.08984375,-57.12890625,-108.3984375,-39.0625,0.0
1676924165.7311623,-70.80078125,-45.8984375,-108.3984375,-52.734375,0.0
1676924165.7350068,-77.1484375,-16.6015625,-97.65625,-56.640625,0.0
1676924165.7388515,-0.9765625,-7.32421875,-101.5625,-45.41015625,0.0
1676924165.742696,14.6484375,-31.73828125,-117.67578125,-62.01171875,0.0
1676924165.7465408,-53.7109375,-59.5703125,-116.2109375,-61.03515625,0.0
1676924165.7503853,-75.1953125,-63.96484375,-104.4921875,-48.828125,0.0
1676924165.75423,-3.90625,-60.05859375,-102.5390625,-31.73828125,0.0
1676924165.7580745,33.203125,-46.875,-105.95703125,-30.76171875,0.0
1676924165.761919,-35.64453125,-30.76171875,-115.72265625,-36.1328125,0.0
1676924165.7657638,-88.8671875,-33.69140625,-111.81640625,-41.015625,0.0
1676924165.7696083,-31.25,-46.38671875,-110.3515625,-46.38671875,0.0
1676924165.773453,21.97265625,-56.15234375,-111.81640625,-39.0625,0.0
1676924165.7772975,-7.32421875,-41.015625,-98.14453125,-30.2734375,0.0
1676924165.7809553,-74.70703125,-10.25390625,-103.02734375,-15.625,0.0
1676924165.7846131,-70.3125,-19.04296875,-108.88671875,-41.50390625,0.0
1676924165.788271,13.671875,-40.0390625,-96.6796875,-61.03515625,0.0
1676924165.7919288,21.484375,-52.734375,-101.5625,-58.59375,0.0
1676924165.7955866,-58.59375,-55.6640625,-107.91015625,-45.8984375,0.0
1676924165.7992444,-69.82421875,-35.15625,-104.98046875,-42.48046875,0.0
1676924165.802902,-0.9765625,-34.66796875,-107.421875,-49.31640625,0.0
1676924165.8065598,29.78515625,-44.43359375,-109.375,-46.875,0.0
1676924165.8102176,-36.1328125,-41.015625,-106.4453125,-47.36328125,0.0
1676924165.8138754,-78.125,-41.50390625,-102.5390625,-46.875,0.0
1676924165.8175333,-9.765625,-30.76171875,-102.5390625,-54.6875,0.0
1676924165.821191,40.52734375,-24.4140625,-100.5859375,-57.12890625,0.0
1676924165.826182,-9.27734375,-41.50390625,-100.5859375,-49.8046875,0.0
1676924165.8311727,-83.49609375,-50.29296875,-103.02734375,-51.26953125,0.0
1676924165.8361635,-62.5,-44.921875,-104.4921875,-53.7109375,0.0
1676924165.8411543,5.859375,-37.59765625,-107.91015625,-57.12890625,0.0
1676924165.8461452,-7.8125,-36.62109375,-104.4921875,-42.96875,0.0
1676924165.8511362,-68.84765625,-36.1328125,-99.12109375,-17.578125,0.0
1676924165.856127,-63.4765625,-56.640625,-100.09765625,-30.76171875,0.0
1676924165.8611178,9.27734375,-60.546875,-104.4921875,-52.734375,0.0
1676924165.8661087,24.90234375,-34.66796875,-98.6328125,-56.640625,0.0
1676924165.8710995,-41.015625,-33.69140625,-90.8203125,-55.17578125,0.0
1676924165.8760903,-64.453125,-45.8984375,-98.14453125,-52.24609375,0.0
1676924165.881081,-20.5078125,-40.0390625,-104.00390625,-50.29296875,0.0
1676924165.884831,5.37109375,-20.99609375,-97.65625,-55.6640625,0.0
1676924165.8885808,-31.25,-12.6953125,-93.26171875,-10.7421875,0.0
1676924165.892331,-81.0546875,-21.484375,-101.07421875,-12.6953125,0.0
1676924165.8960807,-41.9921875,-37.109375,-102.05078125,-77.63671875,0.0
1676924165.8998306,14.16015625,-40.0390625,-106.93359375,-71.77734375,0.0
1676924165.9035807,-30.76171875,-29.78515625,-114.74609375,-58.10546875,0.0
1676924165.9073305,-70.80078125,-41.9921875,-109.375,-69.3359375,0.0
1676924165.9110804,-31.25,-62.5,-110.83984375,-72.265625,0.0
1676924165.9148302,18.06640625,-57.12890625,-113.28125,-67.3828125,0.0
1676924165.91858,0.48828125,-32.71484375,-111.328125,-48.33984375,0.0
1676924165.9223301,-74.21875,-20.5078125,-117.1875,-36.62109375,0.0
1676924165.92608,-71.2890625,-36.62109375,-114.74609375,-21.484375,0.0
1676924165.9298294,20.99609375,-44.43359375,-109.375,-39.55078125,0.0
1676924165.9335787,35.15625,-25.390625,-110.83984375,-69.82421875,0.0
1676924165.9373283,-51.7578125,-20.99609375,-102.05078125,-47.8515625,0.0
1676924165.9410777,-74.70703125,-37.59765625,-99.12109375,-39.55078125,0.0
1676924165.944827,-9.27734375,-40.0390625,-104.4921875,-57.12890625,0.0
1676924165.9485765,37.109375,-50.78125,-108.3984375,-42.48046875,0.0
1676924165.9523258,-27.34375,-54.19921875,-112.79296875,-47.36328125,0.0
1676924165.9560752,-101.5625,-27.83203125,-113.28125,-66.40625,0.0
1676924165.9598246,-39.0625,-18.06640625,-103.515625,-49.8046875,0.0
1676924165.9635742,21.484375,-31.73828125,-94.7265625,-43.9453125,0.0
1676924165.9673235,-27.34375,-42.48046875,-108.3984375,-38.0859375,0.0
1676924165.971073,-86.42578125,-32.71484375,-108.88671875,-33.203125,0.0
1676924165.9749234,-62.5,-25.87890625,-102.5390625,-44.43359375,0.0
1676924165.9787736,8.7890625,-36.62109375,-111.328125,-54.19921875,0.0
1676924165.982624,17.578125,-66.40625,-104.4921875,-49.8046875,0.0
1676924165.9864745,-35.15625,-74.21875,-95.703125,-38.0859375,0.0
1676924165.990325,-49.31640625,-53.22265625,-103.515625,-45.8984375,0.0
1676924165.9941754,-21.484375,-28.80859375,-115.234375,-58.59375,0.0
1676924165.9980257,-14.16015625,-13.18359375,-122.0703125,-53.22265625,0.0
1676924166.001876,-67.3828125,-27.83203125,-122.0703125,-56.15234375,0.0
1676924166.0057266,-98.6328125,-33.203125,-119.62890625,-38.0859375,0.0
1676924166.0095768,-28.80859375,-41.015625,-116.2109375,-47.36328125,0.0
1676924166.0134273,36.1328125,-54.6875,-114.74609375,-45.8984375,0.0
1676924166.0172777,-13.18359375,-46.38671875,-116.2109375,-11.71875,0.0
1676924166.0209236,-78.61328125,-35.64453125,-114.2578125,-35.15625,0.0
1676924166.0245693,-57.12890625,-35.64453125,-117.67578125,-67.3828125,0.0
1676924166.0282152,-8.7890625,-54.6875,-130.37109375,-72.75390625,0.0
1676924166.0318608,-13.671875,-43.9453125,-127.9296875,-74.70703125,0.0
1676924166.0355067,-81.54296875,-34.1796875,-115.72265625,-60.05859375,0.0
1676924166.0391526,-86.9140625,-58.59375,-125.48828125,-44.43359375,0.0
1676924166.0427983,-11.23046875,-55.17578125,-136.23046875,-55.17578125,0.0
1676924166.0464442,14.6484375,-47.8515625,-122.55859375,-67.3828125,0.0
1676924166.0500898,-42.48046875,-54.19921875,-119.140625,-54.19921875,0.0
1676924166.0537357,-89.35546875,-46.38671875,-122.0703125,-47.36328125,0.0
1676924166.0573814,-25.390625,-28.80859375,-118.65234375,-53.7109375,0.0
1676924166.0610273,8.7890625,-31.73828125,-116.69921875,-51.26953125,0.0
1676924166.0647972,-55.17578125,-31.73828125,-124.0234375,-51.7578125,0.0
1676924166.068567,-90.33203125,-34.1796875,-124.51171875,-54.6875,0.0
1676924166.072337,-37.59765625,-59.5703125,-109.375,-52.24609375,0.0
1676924166.0761068,17.578125,-56.15234375,-96.19140625,-52.734375,0.0
1676924166.0798767,-26.3671875,-31.73828125,-103.02734375,-56.640625,0.0
1676924166.0836468,-85.44921875,-44.921875,-113.76953125,-45.41015625,0.0
1676924166.0874166,-47.8515625,-58.10546875,-112.3046875,-39.0625,0.0
1676924166.0911865,24.90234375,-43.9453125,-118.1640625,-33.203125,0.0
1676924166.0949564,15.625,-28.80859375,-121.58203125,-19.53125,0.0
1676924166.0987263,-62.5,-20.5078125,-119.140625,-44.43359375,0.0
1676924166.1024961,-79.58984375,-30.2734375,-121.58203125,-53.7109375,0.0
1676924166.106266,-22.94921875,-52.734375,-122.0703125,-45.41015625,0.0
1676924166.1100109,4.8828125,-56.640625,-109.86328125,-59.08203125,0.0
1676924166.1137555,-54.6875,-47.8515625,-104.98046875,-57.12890625,0.0
1676924166.1175003,-85.44921875,-49.31640625,-103.515625,-49.8046875,0.0
1676924166.1212451,-14.16015625,-51.7578125,-101.07421875,-41.50390625,0.0
1676924166.1249897,6.8359375,-29.78515625,-105.95703125,-41.015625,0.0
1676924166.1287346,-49.8046875,-29.296875,-110.3515625,-34.1796875,0.0
1676924166.1324794,-77.1484375,-44.43359375,-110.3515625,-30.2734375,0.0
1676924166.136224,-42.48046875,-29.78515625,-105.46875,-22.94921875,0.0
1676924166.1399689,10.7421875,-34.1796875,-107.421875,-52.24609375,0.0
1676924166.1437137,-13.18359375,-47.8515625,-113.76953125,-52.24609375,0.0
1676924166.1474583,-73.73046875,-59.5703125,-111.328125,-25.390625,0.0
1676924166.1512032,-57.6171875,-68.359375,-103.515625,-41.50390625,0.0
1676924166.1550422,1.46484375,-53.7109375,-99.12109375,-56.15234375,0.0
1676924166.1588814,14.6484375,-36.62109375,-96.6796875,-41.9921875,0.0
1676924166.1627207,-52.734375,-25.87890625,-92.7734375,-34.66796875,0.0
1676924166.1665597,-76.171875,-24.90234375,-101.5625,-40.0390625,0.0
1676924166.1703987,-12.6953125,-35.64453125,-107.91015625,-29.296875,0.0
1676924166.174238,14.16015625,-41.015625,-87.890625,-23.4375,0.0
1676924166.1780772,-39.0625,-38.57421875,-88.37890625,-37.59765625,0.0
1676924166.1819162,-77.1484375,-41.50390625,-111.81640625,-52.24609375,0.0
1676924166.1857553,-41.50390625,-40.52734375,-113.76953125,-62.98828125,0.0
1676924166.1895945,-6.34765625,-52.734375,-110.83984375,-56.15234375,0.0
1676924166.1934338,-53.7109375,-81.0546875,-113.76953125,-69.3359375,0.0
1676924166.1972728,-86.42578125,-88.37890625,-105.95703125,-60.05859375,0.0
1676924166.2022057,-29.296875,-56.15234375,-104.98046875,-36.62109375,0.0
1676924166.2071385,38.0859375,-35.15625,-107.91015625,-44.921875,0.0
1676924166.2120714,8.30078125,-21.484375,-108.88671875,-47.8515625,0.0
1676924166.2170043,-68.359375,-18.06640625,-108.3984375,-54.19921875,0.0
1676924166.2219372,-43.45703125,-19.04296875,-98.6328125,-59.5703125,0.0
1676924166.22687,12.20703125,-14.16015625,-99.12109375,-45.8984375,0.0
1676924166.2318032,13.671875,-23.92578125,-116.2109375,-38.57421875,0.0
1676924166.236736,-47.8515625,-45.41015625,-112.79296875,-31.25,0.0
1676924166.241669,-87.40234375,-78.125,-100.5859375,-34.66796875,0.0
1676924166.2466018,-31.25,-79.58984375,-107.91015625,-57.12890625,0.0
1676924166.2515347,24.90234375,-43.9453125,-118.1640625,-56.640625,0.0
1676924166.2564676,-37.59765625,-22.4609375,-123.046875,-53.7109375,0.0
1676924166.2601666,-85.9375,-30.2734375,-103.02734375,-42.48046875,0.0
1676924166.2638655,-26.3671875,-33.69140625,-88.8671875,-41.9921875,0.0
1676924166.2675645,12.6953125,-19.53125,-100.09765625,-68.359375,0.0
1676924166.2712634,-21.97265625,-21.97265625,-115.72265625,-62.01171875,0.0
1676924166.2749624,-62.98828125,-35.64453125,-123.046875,-44.921875,0.0
1676924166.2786613,-48.33984375,-49.8046875,-118.65234375,-55.17578125,0.0
1676924166.2823603,-19.04296875,-57.6171875,-109.86328125,-65.4296875,0.0
1676924166.2860594,-33.203125,-47.8515625,-97.65625,-49.8046875,0.0
1676924166.2897582,-92.28515625,-71.2890625,-88.37890625,-44.43359375,0.0
1676924166.2934573,-102.5390625,-81.0546875,-96.6796875,-68.84765625,0.0
1676924166.297156,-23.4375,-52.24609375,-107.421875,-66.89453125,0.0
1676924166.3008552,2.9296875,-39.55078125,-104.98046875,-56.15234375,0.0
1676924166.304624,-73.73046875,-34.1796875,-107.91015625,-58.59375,0.0
1676924166.3083932,-100.09765625,-41.9921875,-107.91015625,-48.828125,0.0
1676924166.3121624,-21.97265625,-46.38671875,-99.609375,-43.9453125,0.0
1676924166.3159313,0.9765625,-43.45703125,-97.16796875,-74.70703125,0.0
1676924166.3197002,-62.5,-50.78125,-104.4921875,-57.6171875,0.0
1676924166.3234694,-104.4921875,-60.05859375,-104.4921875,-15.13671875,0.0
1676924166.3272386,-41.50390625,-46.38671875,-104.4921875,-31.73828125,0.0
1676924166.3310075,24.90234375,-46.875,-110.83984375,-64.94140625,0.0
1676924166.3347764,-27.34375,-70.80078125,-106.93359375,-54.6875,0.0
1676924166.3385456,-96.19140625,-64.453125,-96.6796875,-43.45703125,0.0
1676924166.3423147,-67.3828125,-41.9921875,-97.65625,-43.9453125,0.0
1676924166.3460836,6.8359375,-30.76171875,-104.00390625,-47.36328125,0.0
1676924166.349833,-2.9296875,-26.3671875,-93.26171875,-49.31640625,0.0
