timestamps,TP9,Fp1,Fp2,TP10,stim
1676922861.2466984,-29.296875,-42.48046875,-48.33984375,-8.30078125,0.0
1676922861.2504444,-30.76171875,-47.36328125,-51.26953125,12.6953125,0.0
1676922861.2541904,-30.2734375,-49.8046875,-50.78125,-37.59765625,0.0
1676922861.2579365,-23.4375,-48.828125,-51.26953125,-27.83203125,0.0
1676922861.2617824,-39.55078125,-48.828125,-48.828125,-2.9296875,0.0
1676922861.2656283,-48.33984375,-40.0390625,-48.828125,-25.390625,0.0
1676922861.269474,-29.78515625,-39.55078125,-52.734375,-16.6015625,0.0
1676922861.27332,-10.7421875,-40.0390625,-49.31640625,-23.92578125,0.0
1676922861.277166,-20.01953125,-38.0859375,-52.24609375,-46.875,0.0
1676922861.2810118,-43.9453125,-46.38671875,-59.5703125,-20.01953125,0.0
1676922861.2848577,2.44140625,-48.33984375,-59.5703125,7.32421875,0.0
1676922861.2887037,-3.41796875,-46.38671875,-49.8046875,1.46484375,0.0
1676922861.2925496,-50.78125,-48.33984375,-46.875,-37.59765625,0.0
1676922861.2963953,-53.22265625,-50.29296875,-57.6171875,-66.40625,0.0
1676922861.3002412,-50.78125,-47.8515625,-59.08203125,-43.45703125,0.0
1676922861.3040872,-20.99609375,-41.9921875,-49.8046875,-46.38671875,0.0
1676922861.307744,-16.6015625,-45.41015625,-50.78125,-35.64453125,0.0
1676922861.3114011,-32.2265625,-48.828125,-61.5234375,-12.6953125,0.0
1676922861.315058,-26.3671875,-51.7578125,-61.03515625,-13.18359375,0.0
1676922861.3187149,-7.8125,-52.734375,-54.19921875,-11.71875,0.0
1676922861.322372,-11.23046875,-46.875,-55.17578125,-20.99609375,0.0
1676922861.3260288,-4.8828125,-42.48046875,-63.96484375,-15.625,0.0
1676922861.3296857,-37.109375,-45.8984375,-59.08203125,-13.18359375,0.0
1676922861.3333428,-49.31640625,-51.7578125,-38.0859375,-25.87890625,0.0
1676922861.3369997,-19.04296875,-48.828125,-37.109375,-5.37109375,0.0
1676922861.3406565,-40.0390625,-51.7578125,-41.9921875,13.18359375,0.0
1676922861.3443136,-37.59765625,-54.6875,-46.875,-19.53125,0.0
1676922861.3479705,-38.0859375,-53.22265625,-47.36328125,-62.98828125,0.0
1676922861.3529694,-50.29296875,-54.19921875,-38.57421875,-41.015625,0.0
1676922861.3579686,-40.0390625,-51.7578125,-44.43359375,-39.0625,0.0
1676922861.3629675,-60.05859375,-52.24609375,-48.828125,-56.15234375,0.0
1676922861.3679664,-41.50390625,-51.7578125,-50.29296875,-51.7578125,0.0
1676922861.3729656,-29.78515625,-52.24609375,-51.26953125,-49.8046875,0.0
1676922861.3779645,-43.9453125,-53.22265625,-49.8046875,-30.76171875,0.0
1676922861.3829634,-46.38671875,-55.17578125,-54.6875,-9.27734375,0.0
1676922861.3879626,-40.52734375,-53.7109375,-59.08203125,-30.76171875,0.0
1676922861.3929615,-36.62109375,-50.78125,-57.12890625,-16.6015625,0.0
1676922861.3979604,-37.59765625,-51.7578125,-59.5703125,-1.46484375,0.0
1676922861.4029596,-56.640625,-54.6875,-55.6640625,-61.03515625,0.0
1676922861.4079585,-68.84765625,-56.15234375,-52.24609375,-62.98828125,0.0
1676922861.4129329,-23.4375,-52.734375,-51.7578125,-39.55078125,0.0
1676922861.4179072,11.71875,-53.7109375,-45.41015625,-5.37109375,0.0
1676922861.4228816,-37.59765625,-49.8046875,-46.38671875,3.41796875,0.0
1676922861.427856,-70.80078125,-47.8515625,-49.8046875,-42.48046875,0.0
1676922861.4328303,-62.5,-45.41015625,-50.29296875,-56.640625,0.0
1676922861.4378047,-39.0625,-41.50390625,-56.640625,-53.22265625,0.0
1676922861.442779,-4.8828125,-38.0859375,-53.7109375,-41.015625,0.0
1676922861.4477534,-38.0859375,-41.015625,-52.24609375,-38.0859375,0.0
1676922861.4527278,-68.359375,-52.24609375,-62.5,-27.34375,0.0
1676922861.4577022,-12.20703125,-46.38671875,-57.12890625,-22.94921875,0.0
1676922861.4626765,-23.4375,-44.43359375,-46.38671875,-22.94921875,0.0
1676922861.467651,-51.26953125,-52.24609375,-53.22265625,-10.7421875,0.0
1676922861.4701781,-38.57421875,-54.6875,-56.15234375,-41.015625,0.0
1676922861.4727054,-36.62109375,-57.12890625,-51.26953125,-60.546875,0.0
1676922861.4752328,-34.1796875,-56.640625,-51.7578125,-31.73828125,0.0
1676922861.47776,-44.43359375,-52.734375,-57.12890625,-16.11328125,0.0
1676922861.4802873,-59.08203125,-52.24609375,-61.5234375,-15.625,0.0
1676922861.4828148,-38.0859375,-55.17578125,-60.546875,-19.53125,0.0
1676922861.485342,-25.390625,-54.19921875,-56.640625,-19.04296875,0.0
1676922861.4878693,-39.0625,-52.24609375,-60.05859375,-12.6953125,0.0
1676922861.4903965,-60.546875,-59.5703125,-60.546875,-32.71484375,0.0
1676922861.4929237,-37.109375,-59.5703125,-57.6171875,-51.7578125,0.0
1676922861.4954512,-20.99609375,-53.22265625,-59.08203125,-49.8046875,0.0
1676922861.4979784,-47.36328125,-55.17578125,-57.12890625,-28.80859375,0.0
1676922861.501719,-59.5703125,-54.6875,-62.5,13.671875,0.0
1676922861.5054595,-49.31640625,-46.38671875,-59.08203125,-12.6953125,0.0
1676922861.5092,-15.13671875,-45.8984375,-56.15234375,-62.98828125,0.0
1676922861.512941,16.11328125,-48.828125,-60.546875,-67.3828125,0.0
1676922861.5166814,13.18359375,-44.921875,-57.12890625,-3.41796875,0.0
1676922861.520422,-28.80859375,-48.33984375,-56.15234375,1.46484375,0.0
1676922861.5241625,-16.11328125,-55.6640625,-62.98828125,-65.4296875,0.0
1676922861.527903,6.8359375,-57.12890625,-63.96484375,-39.0625,0.0
1676922861.5316439,-16.11328125,-54.6875,-60.546875,-34.66796875,0.0
1676922861.5353844,-36.1328125,-49.31640625,-58.59375,-39.55078125,0.0
1676922861.539125,-56.640625,-47.36328125,-59.08203125,-10.7421875,0.0
1676922861.5428655,-20.01953125,-42.48046875,-63.4765625,-5.37109375,0.0
1676922861.5466251,-4.39453125,-45.41015625,-56.15234375,-31.25,0.0
1676922861.5503848,-23.92578125,-50.29296875,-54.6875,-40.0390625,0.0
1676922861.5541444,-15.625,-50.78125,-62.01171875,-19.53125,0.0
1676922861.557904,-51.26953125,-54.6875,-51.26953125,-7.32421875,0.0
1676922861.5616636,-54.6875,-55.17578125,-49.31640625,-58.10546875,0.0
1676922861.5654235,-59.08203125,-53.7109375,-62.5,-65.4296875,0.0
1676922861.569183,-63.4765625,-58.59375,-61.5234375,-40.0390625,0.0
1676922861.5729427,-28.3203125,-62.98828125,-57.6171875,-51.26953125,0.0
1676922861.5767024,-25.390625,-61.5234375,-56.15234375,-46.875,0.0
1676922861.580462,-41.9921875,-54.6875,-52.24609375,-25.390625,0.0
1676922861.5842216,-33.203125,-54.6875,-54.6875,-13.671875,0.0
1676922861.5879812,-6.34765625,-52.24609375,-52.734375,-40.0390625,0.0
1676922861.591731,-18.06640625,-51.7578125,-48.828125,-42.96875,0.0
1676922861.5954812,-44.43359375,-54.19921875,-49.31640625,-44.921875,0.0
1676922861.599231,-53.22265625,-53.22265625,-52.734375,-37.59765625,0.0
1676922861.6029809,-26.85546875,-58.59375,-51.26953125,-24.90234375,0.0
1676922861.606731,-2.9296875,-61.03515625,-50.29296875,-39.55078125,0.0
1676922861.6104808,-7.32421875,-61.03515625,-59.5703125,-20.5078125,0.0
1676922861.6142306,-24.4140625,-64.94140625,-60.546875,-5.859375,0.0
1676922861.6179807,-31.25,-65.4296875,-59.5703125,-0.9765625,0.0
1676922861.6217306,-6.34765625,-56.15234375,-50.78125,-20.01953125,0.0
1676922861.6254804,-8.7890625,-48.33984375,-41.9921875,-21.97265625,0.0
1676922861.6292305,-36.62109375,-47.36328125,-44.43359375,-30.2734375,0.0
1676922861.6329803,-20.5078125,-47.8515625,-44.43359375,-35.64453125,0.0
1676922861.6367226,-3.41796875,-46.875,-50.78125,-17.578125,0.0
1676922861.6404648,-27.34375,-47.36328125,-55.6640625,-17.08984375,0.0
1676922861.644207,-31.73828125,-51.26953125,-53.7109375,-26.85546875,0.0
1676922861.647949,-32.71484375,-50.78125,-53.7109375,-17.578125,0.0
1676922861.6516912,-47.36328125,-48.33984375,-59.08203125,-10.25390625,0.0
1676922861.6554334,-35.15625,-46.875,-60.546875,-10.25390625,0.0
1676922861.6591756,-26.3671875,-48.828125,-59.08203125,-29.78515625,0.0
1676922861.6629179,-50.78125,-50.29296875,-53.22265625,-31.73828125,0.0
1676922861.6666598,-1.953125,-49.31640625,-53.7109375,-15.625,0.0
1676922861.670402,21.97265625,-53.22265625,-65.4296875,-36.1328125,0.0
1676922861.6741443,-32.71484375,-56.640625,-64.453125,-36.62109375,0.0
1676922861.6778865,-33.203125,-55.17578125,-59.08203125,-18.5546875,0.0
1676922861.681645,-37.109375,-50.78125,-55.17578125,-25.390625,0.0
1676922861.685403,-29.296875,-44.43359375,-53.22265625,-43.9453125,0.0
1676922861.6891615,-8.30078125,-49.8046875,-50.29296875,-44.921875,0.0
1676922861.69292,6.8359375,-50.78125,-45.41015625,-27.34375,0.0
1676922861.6966782,-4.39453125,-49.31640625,-48.828125,-17.578125,0.0
1676922861.7004366,-31.73828125,-54.19921875,-55.17578125,-20.01953125,0.0
1676922861.704195,-19.04296875,-55.17578125,-60.05859375,-30.76171875,0.0
1676922861.7079532,-25.390625,-57.6171875,-56.640625,-40.52734375,0.0
1676922861.7117116,-27.83203125,-57.12890625,-57.6171875,-35.15625,0.0
1676922861.71547,4.39453125,-49.31640625,-61.5234375,-6.34765625,0.0
1676922861.7192283,19.53125,-45.41015625,-55.6640625,11.23046875,0.0
1676922861.7229867,1.46484375,-44.921875,-49.31640625,-13.671875,0.0
1676922861.7279866,-24.90234375,-45.8984375,-53.22265625,-13.671875,0.0
1676922861.7329862,-17.578125,-48.33984375,-55.6640625,-6.34765625,0.0
1676922861.737986,12.20703125,-50.78125,-56.15234375,-47.36328125,0.0
1676922861.742986,-0.9765625,-52.734375,-58.10546875,-49.31640625,0.0
1676922861.7479856,0.48828125,-48.828125,-55.6640625,-10.25390625,0.0
1676922861.7529855,13.18359375,-49.8046875,-51.7578125,-10.25390625,0.0
1676922861.7579854,0.48828125,-54.6875,-47.36328125,-38.0859375,0.0
1676922861.762985,-1.46484375,-52.24609375,-53.22265625,-27.34375,0.0
1676922861.7679849,-15.13671875,-58.10546875,-58.59375,-39.0625,0.0
1676922861.7729847,-46.38671875,-64.94140625,-55.17578125,-39.55078125,0.0
1676922861.7779844,-34.66796875,-62.98828125,-46.875,-22.4609375,0.0
1676922861.7829843,-12.20703125,-59.08203125,-47.36328125,-33.203125,0.0
1676922861.786734,-15.13671875,-55.17578125,-56.15234375,-25.390625,0.0
1676922861.790484,-14.6484375,-51.7578125,-59.08203125,-19.53125,0.0
1676922861.7942338,-7.32421875,-55.6640625,-63.4765625,-39.0625,0.0
1676922861.797984,-12.20703125,-52.734375,-56.15234375,-31.25,0.0
1676922861.8017337,-24.4140625,-46.38671875,-56.15234375,-3.41796875,0.0
1676922861.8054836,-41.9921875,-45.8984375,-62.01171875,-21.97265625,0.0
1676922861.8092334,-45.8984375,-46.38671875,-56.640625,-40.0390625,0.0
1676922861.8129833,-11.71875,-47.36328125,-55.17578125,-34.66796875,0.0
1676922861.8167334,9.765625,-44.43359375,-64.94140625,-22.94921875,0.0
1676922861.8204832,-16.11328125,-47.36328125,-59.5703125,-7.8125,0.0
1676922861.824233,-42.96875,-48.33984375,-43.45703125,-57.12890625,0.0
1676922861.827983,-42.48046875,-49.31640625,-50.29296875,-82.03125,0.0
1676922861.8317325,-29.296875,-53.22265625,-53.7109375,-50.29296875,0.0
1676922861.8354821,-22.94921875,-44.43359375,-49.31640625,-17.08984375,0.0
1676922861.8392317,-17.08984375,-44.43359375,-51.26953125,-12.6953125,0.0
1676922861.8429813,-7.32421875,-50.29296875,-53.22265625,-30.76171875,0.0
1676922861.846731,-6.34765625,-46.38671875,-55.17578125,3.90625,0.0
1676922861.8504806,-29.78515625,-48.828125,-55.6640625,-13.18359375,0.0
1676922861.8542302,-52.734375,-53.22265625,-52.734375,-58.10546875,0.0
1676922861.8579798,-46.38671875,-51.7578125,-54.6875,-43.45703125,0.0
1676922861.8617294,-13.671875,-45.8984375,-58.59375,-6.8359375,0.0
1676922861.865479,-10.7421875,-49.8046875,-56.15234375,-4.39453125,0.0
1676922861.8692286,-45.41015625,-52.734375,-49.8046875,-24.4140625,0.0
1676922861.8729782,-36.62109375,-48.828125,-52.734375,-30.76171875,0.0
1676922861.8767338,-6.8359375,-50.78125,-51.7578125,-21.97265625,0.0
1676922861.8804896,-2.9296875,-54.19921875,-50.78125,-16.11328125,0.0
1676922861.8842452,-22.94921875,-51.7578125,-55.6640625,1.46484375,0.0
1676922861.8880007,-37.59765625,-54.19921875,-58.59375,5.37109375,0.0
1676922861.8917565,-16.6015625,-57.12890625,-62.01171875,-35.15625,0.0
1676922861.895512,-20.01953125,-56.15234375,-63.96484375,-43.45703125,0.0
1676922861.8992677,-41.50390625,-48.828125,-59.5703125,-36.1328125,0.0
1676922861.9030235,-49.8046875,-47.36328125,-58.10546875,-36.62109375,0.0
1676922861.906779,-45.41015625,-48.33984375,-51.26953125,-13.18359375,0.0
1676922861.9105346,-22.4609375,-45.41015625,-44.921875,-33.203125,0.0
1676922861.9142904,-21.97265625,-47.8515625,-50.78125,-34.66796875,0.0
1676922861.918046,-35.64453125,-47.36328125,-53.7109375,-29.296875,0.0
1676922861.9217892,-33.203125,-43.9453125,-52.734375,-53.7109375,0.0
1676922861.9255326,-20.01953125,-44.43359375,-47.8515625,-57.6171875,0.0
1676922861.9292758,-42.48046875,-44.43359375,-48.828125,-33.203125,0.0
1676922861.9330192,-58.10546875,-48.828125,-55.17578125,-16.6015625,0.0
1676922861.9367623,-45.8984375,-48.33984375,-58.59375,-36.1328125,0.0
1676922861.9405055,-16.11328125,-39.55078125,-53.22265625,-34.1796875,0.0
1676922861.944249,-3.90625,-41.9921875,-52.24609375,-23.92578125,0.0
1676922861.947992,-31.25,-50.29296875,-60.546875,-46.38671875,0.0
1676922861.9517355,-41.50390625,-49.31640625,-59.5703125,-64.94140625,0.0
1676922861.9554787,-30.76171875,-51.7578125,-62.98828125,-53.22265625,0.0
1676922861.959222,-29.78515625,-58.10546875,-62.98828125,-19.04296875,0.0
1676922861.9629653,-50.29296875,-56.640625,-62.5,-62.01171875,0.0
1676922861.9667344,-74.70703125,-61.03515625,-60.546875,-75.1953125,0.0
1676922861.9705033,-65.4296875,-61.03515625,-56.640625,-46.875,0.0
1676922861.9742725,-40.52734375,-54.6875,-62.5,-53.22265625,0.0
1676922861.9780414,-38.57421875,-53.7109375,-67.87109375,-63.4765625,0.0
1676922861.9818106,-32.71484375,-46.38671875,-58.10546875,-41.50390625,0.0
1676922861.9855795,-32.71484375,-49.31640625,-49.8046875,-22.4609375,0.0
1676922861.9893486,-21.484375,-51.7578125,-55.17578125,-38.0859375,0.0
1676922861.9931178,4.39453125,-42.96875,-57.6171875,-23.92578125,0.0
1676922861.9968867,-15.625,-38.0859375,-50.78125,-16.6015625,0.0
1676922862.000656,-58.59375,-46.875,-47.36328125,-40.0390625,0.0
1676922862.0044248,-43.9453125,-52.24609375,-43.45703125,-44.43359375,0.0
1676922862.008194,-26.3671875,-48.828125,-46.875,-43.45703125,0.0
1676922862.0119112,-33.203125,-46.38671875,-48.33984375,-41.50390625,0.0
1676922862.015628,-6.8359375,-48.33984375,-47.36328125,-28.80859375,0.0
1676922862.0193453,-0.9765625,-45.8984375,-48.33984375,0.9765625,0.0
1676922862.0230622,-22.4609375,-44.43359375,-47.36328125,-29.78515625,0.0
1676922862.0267794,-38.57421875,-46.875,-50.29296875,-56.640625,0.0
1676922862.0304966,-49.8046875,-46.875,-53.22265625,-42.48046875,0.0
1676922862.0342135,-19.04296875,-48.33984375,-57.12890625,-40.0390625,0.0
1676922862.0379307,3.90625,-42.96875,-56.15234375,-39.0625,0.0
1676922862.0416477,-47.36328125,-38.57421875,-53.22265625,-55.17578125,0.0
1676922862.0453649,-77.63671875,-42.96875,-51.7578125,-42.96875,0.0
1676922862.0490818,-54.19921875,-47.36328125,-56.640625,-36.1328125,0.0
1676922862.052799,-35.15625,-48.828125,-52.734375,-44.921875,0.0
1676922862.0565643,-15.13671875,-48.828125,-44.43359375,-11.71875,0.0
1676922862.0603297,-31.73828125,-47.36328125,-49.31640625,-14.6484375,0.0
1676922862.064095,-24.90234375,-46.875,-53.7109375,-46.38671875,0.0
1676922862.0678604,-0.48828125,-50.78125,-53.7109375,-53.22265625,0.0
1676922862.0716257,-13.18359375,-51.26953125,-51.7578125,-62.5,0.0
1676922862.0753908,-35.64453125,-52.734375,-51.26953125,-38.0859375,0.0
1676922862.0791562,-57.6171875,-60.546875,-54.6875,-15.625,0.0
1676922862.0829215,-49.8046875,-59.5703125,-56.15234375,-41.9921875,0.0
1676922862.0866868,-24.4140625,-53.22265625,-52.24609375,-28.80859375,0.0
1676922862.0904522,-23.4375,-51.7578125,-57.6171875,-15.13671875,0.0
1676922862.0942175,-25.87890625,-50.29296875,-55.17578125,-18.5546875,0.0
1676922862.097983,-7.32421875,-49.31640625,-52.734375,-31.25,0.0
1676922862.1030147,30.76171875,-43.45703125,-51.26953125,-32.71484375,0.0
1676922862.1080465,14.16015625,-44.921875,-54.6875,-33.69140625,0.0
1676922862.113078,-42.96875,-49.31640625,-52.24609375,-18.5546875,0.0
1676922862.11811,-39.55078125,-45.8984375,-48.33984375,-16.6015625,0.0
1676922862.1231418,-12.20703125,-47.36328125,-57.12890625,-27.34375,0.0
1676922862.1281734,-27.34375,-54.19921875,-62.5,-19.04296875,0.0
1676922862.1332052,-16.6015625,-49.31640625,-64.453125,-30.2734375,0.0
1676922862.138237,0.48828125,-44.921875,-64.94140625,-48.33984375,0.0
1676922862.1432688,-40.0390625,-49.31640625,-58.59375,-13.671875,0.0
1676922862.1483006,-39.55078125,-45.41015625,-57.6171875,-12.6953125,0.0
1676922862.1533322,-45.41015625,-41.015625,-62.01171875,-61.03515625,0.0
1676922862.158364,-44.43359375,-41.50390625,-62.5,-40.52734375,0.0
1676922862.1620731,-16.6015625,-38.0859375,-63.4765625,-9.27734375,0.0
1676922862.165782,-12.20703125,-38.0859375,-62.01171875,12.20703125,0.0
1676922862.169491,14.6484375,-41.015625,-54.19921875,-19.53125,0.0
1676922862.1732001,-4.39453125,-42.96875,-52.24609375,-39.0625,0.0
1676922862.176909,-36.1328125,-41.015625,-52.734375,-43.9453125,0.0
1676922862.180618,-5.859375,-41.015625,-55.17578125,-20.99609375,0.0
1676922862.1843271,-0.9765625,-47.36328125,-53.7109375,-8.30078125,0.0
1676922862.188036,-36.62109375,-49.31640625,-54.6875,-10.7421875,0.0
1676922862.191745,-41.9921875,-49.31640625,-63.96484375,0.0,0.0
1676922862.1954541,-2.44140625,-52.734375,-63.96484375,4.8828125,0.0
1676922862.199163,-0.9765625,-49.31640625,-54.6875,-23.4375,0.0
1676922862.202872,-25.87890625,-44.43359375,-53.7109375,-34.66796875,0.0
1676922862.2067294,-51.26953125,-49.31640625,-59.5703125,-47.36328125,0.0
1676922862.210587,-48.33984375,-59.5703125,-61.5234375,-51.26953125,0.0
1676922862.2144444,-34.66796875,-65.4296875,-54.19921875,-36.62109375,0.0
1676922862.2183018,-53.7109375,-62.01171875,-55.17578125,-32.2265625,0.0
1676922862.2221594,-52.24609375,-54.19921875,-58.59375,-50.78125,0.0
1676922862.2260168,-34.1796875,-52.24609375,-61.5234375,-59.08203125,0.0
1676922862.2298741,-19.04296875,-56.640625,-60.546875,-50.29296875,0.0
1676922862.2337317,-23.92578125,-52.734375,-57.12890625,-44.43359375,0.0
1676922862.2375891,-32.2265625,-42.96875,-56.640625,-43.9453125,0.0
1676922862.2414465,-23.4375,-40.0390625,-48.828125,-28.3203125,0.0
1676922862.245304,-3.90625,-44.43359375,-50.29296875,-17.08984375,0.0
1676922862.2491615,-2.44140625,-47.36328125,-58.10546875,-33.69140625,0.0
1676922862.2528095,-19.04296875,-46.875,-58.10546875,-20.01953125,0.0
1676922862.2564578,-28.80859375,-46.875,-58.10546875,-25.87890625,0.0
1676922862.2601058,-9.765625,-43.9453125,-61.03515625,-32.71484375,0.0
1676922862.263754,-5.37109375,-42.96875,-60.05859375,-41.50390625,0.0
1676922862.267402,-9.27734375,-44.43359375,-61.5234375,-40.52734375,0.0
1676922862.27105,-22.4609375,-42.48046875,-62.01171875,-20.5078125,0.0
1676922862.2746983,-31.73828125,-44.43359375,-62.98828125,-25.390625,0.0
1676922862.2783463,-25.390625,-53.22265625,-65.91796875,-21.484375,0.0
1676922862.2819943,-42.48046875,-53.7109375,-62.5,5.37109375,0.0
1676922862.2856426,-60.05859375,-52.24609375,-54.6875,-16.6015625,0.0
1676922862.2892907,-36.1328125,-50.78125,-51.7578125,-24.4140625,0.0
1676922862.2929387,-6.34765625,-46.38671875,-49.31640625,-34.66796875,0.0
1676922862.2966924,-13.671875,-48.33984375,-48.33984375,-62.98828125,0.0
1676922862.3004458,-40.52734375,-50.78125,-52.734375,-47.8515625,0.0
1676922862.3041995,-29.78515625,-53.22265625,-55.6640625,-41.015625,0.0
1676922862.3079531,-8.30078125,-47.36328125,-50.78125,-43.45703125,0.0
1676922862.3117065,-15.625,-36.1328125,-46.875,-22.94921875,0.0
1676922862.3154602,-37.59765625,-39.0625,-46.38671875,-17.578125,0.0
1676922862.3192139,-58.10546875,-41.9921875,-47.8515625,-29.78515625,0.0
1676922862.3229673,-47.8515625,-41.015625,-55.17578125,8.7890625,0.0
1676922862.326721,-38.57421875,-43.9453125,-50.29296875,-0.9765625,0.0
1676922862.3304746,-40.52734375,-44.921875,-46.38671875,-42.48046875,0.0
1676922862.334228,-46.38671875,-46.875,-51.26953125,-8.7890625,0.0
1676922862.3379817,-18.06640625,-46.38671875,-51.26953125,3.90625,0.0
1676922862.3417869,-10.7421875,-50.78125,-49.31640625,-18.06640625,0.0
1676922862.345592,-41.015625,-53.22265625,-52.24609375,-28.3203125,0.0
1676922862.349397,-40.0390625,-47.8515625,-50.78125,-44.921875,0.0
1676922862.353202,-14.16015625,-47.8515625,-50.29296875,-60.05859375,0.0
1676922862.3570073,-7.8125,-52.734375,-48.33984375,-46.875,0.0
1676922862.3608122,-43.9453125,-51.26953125,-46.875,-28.80859375,0.0
1676922862.3646173,-49.8046875,-47.36328125,-56.640625,-20.5078125,0.0
1676922862.3684225,-34.66796875,-46.875,-60.05859375,-7.8125,0.0
1676922862.3722277,-20.99609375,-50.78125,-53.22265625,-37.59765625,0.0
1676922862.3760328,-15.13671875,-53.7109375,-52.24609375,-55.6640625,0.0
1676922862.3798378,-41.015625,-45.41015625,-51.7578125,-22.4609375,0.0
1676922862.383643,-47.8515625,-41.9921875,-42.96875,-37.109375,0.0
1676922862.3873425,-41.50390625,-53.22265625,-40.52734375,-42.48046875,0.0
1676922862.3910418,-30.76171875,-56.15234375,-47.36328125,-22.4609375,0.0
1676922862.394741,-43.45703125,-46.875,-44.921875,-20.5078125,0.0
1676922862.3984406,-52.24609375,-46.38671875,-44.921875,-45.8984375,0.0
1676922862.4021401,-26.85546875,-50.29296875,-45.8984375,-32.71484375,0.0
1676922862.4058394,-3.41796875,-49.8046875,-43.9453125,-8.30078125,0.0
1676922862.4095387,-5.859375,-47.36328125,-50.78125,-1.46484375,0.0
1676922862.4132383,-37.109375,-47.8515625,-51.7578125,-30.2734375,0.0
1676922862.4169378,-50.78125,-47.8515625,-48.33984375,-81.54296875,0.0
1676922862.4206371,-5.859375,-44.921875,-52.24609375,-29.296875,0.0
1676922862.4243364,-3.41796875,-45.8984375,-59.08203125,-4.39453125,0.0
1676922862.428036,-55.6640625,-46.875,-59.5703125,-23.92578125,0.0
1676922862.431874,-40.52734375,-44.43359375,-51.26953125,-33.203125,0.0
1676922862.4357119,-18.06640625,-44.43359375,-53.7109375,-36.1328125,0.0
1676922862.43955,-30.2734375,-47.36328125,-56.15234375,-33.69140625,0.0
1676922862.443388,-17.578125,-51.26953125,-52.734375,-27.34375,0.0
1676922862.447226,-37.59765625,-54.6875,-51.7578125,-23.4375,0.0
1676922862.451064,-43.45703125,-51.7578125,-58.59375,-25.390625,0.0
1676922862.454902,-32.2265625,-50.29296875,-61.03515625,-20.5078125,0.0
1676922862.45874,-38.57421875,-51.26953125,-50.78125,-35.64453125,0.0
1676922862.462578,-38.57421875,-52.24609375,-52.24609375,-33.69140625,0.0
1676922862.466416,-9.27734375,-53.22265625,-55.6640625,-37.59765625,0.0
1676922862.470254,4.8828125,-51.26953125,-49.8046875,-43.45703125,0.0
1676922862.474092,-16.6015625,-48.828125,-51.26953125,-38.0859375,0.0
1676922862.4790356,-41.015625,-46.38671875,-55.17578125,-62.5,0.0
1676922862.483979,-48.828125,-44.43359375,-57.6171875,-77.63671875,0.0
1676922862.4889226,-31.25,-46.38671875,-61.03515625,-55.6640625,0.0
1676922862.4938662,-31.25,-47.36328125,-57.12890625,-11.23046875,0.0
1676922862.4988096,-51.7578125,-45.8984375,-54.6875,-15.625,0.0
1676922862.5037532,-66.40625,-50.78125,-61.03515625,-31.73828125,0.0
1676922862.5086968,-39.0625,-53.22265625,-62.98828125,-38.57421875,0.0
1676922862.5136402,-6.8359375,-50.78125,-57.12890625,-51.26953125,0.0
1676922862.5185838,-7.8125,-51.26953125,-58.10546875,-24.90234375,0.0
1676922862.5235274,-55.6640625,-52.734375,-58.59375,-18.06640625,0.0
1676922862.5284708,-57.12890625,-51.26953125,-54.19921875,-54.19921875,0.0
1676922862.5334144,-27.34375,-48.33984375,-56.15234375,-70.3125,0.0
1676922862.537112,-35.15625,-51.7578125,-59.5703125,-41.9921875,0.0
1676922862.5408096,-31.73828125,-53.22265625,-56.640625,-29.78515625,0.0
1676922862.5445075,-25.87890625,-49.8046875,-52.734375,-35.15625,0.0
1676922862.5482051,-20.01953125,-44.921875,-51.7578125,-31.73828125,0.0
1676922862.5519028,-13.18359375,-40.52734375,-61.03515625,-15.625,0.0
1676922862.5556006,-13.18359375,-47.8515625,-68.359375,-27.83203125,0.0
1676922862.5592983,-15.625,-55.17578125,-67.3828125,-44.921875,0.0
1676922862.562996,3.41796875,-55.6640625,-58.59375,-23.4375,0.0
1676922862.5666935,1.953125,-50.78125,-62.01171875,-14.6484375,0.0
1676922862.5703912,-31.73828125,-50.78125,-70.3125,-30.2734375,0.0
1676922862.574089,-24.90234375,-49.31640625,-60.546875,-50.78125,0.0
1676922862.5777867,-14.6484375,-46.38671875,-61.03515625,-35.64453125,0.0
1676922862.5815535,-4.8828125,-50.29296875,-64.453125,-24.90234375,0.0
1676922862.58532,-21.97265625,-51.26953125,-58.10546875,-30.2734375,0.0
1676922862.5890868,-48.33984375,-47.8515625,-58.59375,-30.76171875,0.0
1676922862.5928535,-24.4140625,-42.48046875,-59.5703125,-32.2265625,0.0
1676922862.59662,6.8359375,-44.921875,-58.59375,-17.578125,0.0
1676922862.6003869,14.16015625,-44.921875,-55.6640625,-11.71875,0.0
1676922862.6041536,3.90625,-38.57421875,-53.22265625,-14.16015625,0.0
1676922862.6079202,-19.04296875,-39.55078125,-56.15234375,-28.80859375,0.0
1676922862.611687,-27.34375,-48.828125,-64.453125,-9.765625,0.0
1676922862.6154537,-18.5546875,-56.15234375,-64.453125,-14.6484375,0.0
1676922862.6192203,-41.015625,-55.6640625,-54.19921875,-43.9453125,0.0
1676922862.622987,-25.87890625,-55.6640625,-56.15234375,-32.71484375,0.0
1676922862.6267443,0.9765625,-50.29296875,-55.6640625,-39.55078125,0.0
1676922862.6305013,-20.01953125,-46.875,-57.12890625,-22.4609375,0.0
1676922862.6342583,-41.015625,-48.33984375,-57.6171875,-0.9765625,0.0
1676922862.6380155,-37.109375,-53.7109375,-57.12890625,-57.12890625,0.0
1676922862.6417727,-22.94921875,-55.17578125,-63.4765625,-67.3828125,0.0
1676922862.6455297,-21.484375,-54.6875,-62.01171875,-46.38671875,0.0
1676922862.6492867,-22.4609375,-49.31640625,-52.734375,-32.2265625,0.0
1676922862.653044,-39.0625,-42.48046875,-53.22265625,-29.296875,0.0
1676922862.6568012,-32.2265625,-41.015625,-55.6640625,-40.52734375,0.0
1676922862.6605582,-9.27734375,-41.015625,-47.8515625,-42.48046875,0.0
1676922862.6643152,-17.08984375,-43.45703125,-44.921875,-33.69140625,0.0
1676922862.6680725,-32.2265625,-41.9921875,-44.921875,-31.73828125,0.0
1676922862.671833,-20.99609375,-41.9921875,-44.43359375,-21.97265625,0.0
1676922862.6755934,4.8828125,-48.33984375,-46.875,-8.30078125,0.0
1676922862.6793537,-0.9765625,-43.9453125,-46.875,-14.6484375,0.0
1676922862.6831143,-26.85546875,-43.9453125,-55.17578125,-8.30078125,0.0
1676922862.6868749,-18.5546875,-52.24609375,-55.6640625,-22.94921875,0.0
1676922862.6906352,-5.37109375,-50.78125,-52.734375,-30.2734375,0.0
1676922862.6943955,-10.25390625,-51.7578125,-52.734375,-3.41796875,0.0
1676922862.698156,-27.83203125,-53.22265625,-55.6640625,-18.5546875,0.0
1676922862.7019167,-35.64453125,-43.45703125,-54.6875,-36.1328125,0.0
1676922862.705677,-22.4609375,-38.57421875,-52.734375,-49.8046875,0.0
1676922862.7094374,-16.6015625,-41.9921875,-61.5234375,-41.015625,0.0
1676922862.713198,-28.80859375,-43.9453125,-65.4296875,-13.18359375,0.0
1676922862.7169302,-54.19921875,-42.48046875,-60.05859375,-20.99609375,0.0
1676922862.7206624,-32.71484375,-42.96875,-55.6640625,-30.2734375,0.0
1676922862.7243946,-9.765625,-48.33984375,-54.19921875,-28.3203125,0.0
1676922862.7281268,-29.78515625,-50.29296875,-52.24609375,-32.2265625,0.0
1676922862.731859,-22.4609375,-45.41015625,-47.8515625,-25.87890625,0.0
1676922862.7355912,-24.90234375,-40.52734375,-49.31640625,-18.5546875,0.0
1676922862.7393234,-18.5546875,-39.55078125,-55.6640625,-11.71875,0.0
1676922862.7430556,-17.08984375,-48.828125,-56.640625,-39.0625,0.0
1676922862.7467878,-45.41015625,-52.734375,-51.26953125,-40.52734375,0.0
1676922862.75052,-58.10546875,-49.8046875,-50.78125,-34.1796875,0.0
1676922862.7542522,-40.52734375,-50.29296875,-50.29296875,-42.96875,0.0
1676922862.7579844,-36.62109375,-48.33984375,-51.26953125,-31.25,0.0
1676922862.7617092,-38.0859375,-46.875,-50.29296875,-41.9921875,0.0
1676922862.765434,-17.578125,-51.7578125,-55.17578125,-43.45703125,0.0
1676922862.7691588,-38.57421875,-48.33984375,-59.08203125,-57.6171875,0.0
1676922862.7728834,-30.2734375,-45.8984375,-58.10546875,-35.64453125,0.0
1676922862.7766082,-41.50390625,-49.8046875,-52.24609375,9.765625,0.0
1676922862.780333,-48.828125,-50.78125,-51.26953125,-16.6015625,0.0
1676922862.7840579,-28.80859375,-48.828125,-56.640625,-43.9453125,0.0
1676922862.7877827,-39.0625,-51.26953125,-45.41015625,-24.90234375,0.0
1676922862.7915072,-43.9453125,-53.22265625,-41.50390625,-38.57421875,0.0
1676922862.795232,-49.8046875,-50.78125,-51.26953125,-52.734375,0.0
1676922862.7989569,-46.875,-59.5703125,-48.828125,-12.6953125,0.0
1676922862.8026817,-20.99609375,-67.87109375,-47.36328125,-11.23046875,0.0
1676922862.8064551,-14.16015625,-56.15234375,-55.17578125,-59.5703125,0.0
1676922862.8102288,-35.64453125,-46.38671875,-61.03515625,-53.22265625,0.0
1676922862.8140025,-41.50390625,-43.9453125,-55.6640625,-40.52734375,0.0
1676922862.817776,-31.25,-41.015625,-53.22265625,-41.9921875,0.0
1676922862.8215494,-14.16015625,-42.96875,-55.17578125,-39.55078125,0.0
1676922862.825323,-21.484375,-44.43359375,-60.05859375,-1.46484375,0.0
1676922862.8290968,-20.5078125,-41.015625,-62.98828125,19.04296875,0.0
1676922862.8328702,-5.859375,-37.109375,-56.15234375,-32.71484375,0.0
1676922862.8366437,-2.44140625,-45.41015625,-59.08203125,-60.05859375,0.0
1676922862.8404174,-18.5546875,-50.29296875,-66.89453125,5.37109375,0.0
1676922862.844191,-34.1796875,-50.78125,-61.03515625,-5.859375,0.0
1676922862.8479645,-29.78515625,-52.734375,-55.17578125,-45.41015625,0.0
1676922862.8529663,-18.06640625,-47.36328125,-57.12890625,-21.484375,0.0
1676922862.8579683,4.8828125,-43.9453125,-55.17578125,-1.953125,0.0
1676922862.8629704,-19.53125,-50.29296875,-52.24609375,-6.8359375,0.0
1676922862.8679721,-38.0859375,-51.7578125,-57.6171875,-8.7890625,0.0
1676922862.872974,-8.7890625,-47.36328125,-58.59375,-31.25,0.0
1676922862.877976,-11.23046875,-48.828125,-55.6640625,-12.6953125,0.0
1676922862.882978,-25.390625,-41.50390625,-57.6171875,1.953125,0.0
1676922862.8879797,-19.04296875,-41.9921875,-54.19921875,-43.9453125,0.0
1676922862.8929815,-9.27734375,-46.38671875,-51.26953125,-36.62109375,0.0
1676922862.8979836,0.9765625,-44.921875,-57.12890625,-29.78515625,0.0
1676922862.9029856,-12.20703125,-46.875,-59.08203125,-14.16015625,0.0
1676922862.9079874,-42.96875,-50.29296875,-58.10546875,-3.41796875,0.0
1676922862.9117053,-21.484375,-49.8046875,-63.4765625,-22.4609375,0.0
1676922862.9154234,2.9296875,-46.38671875,-59.08203125,-29.78515625,0.0
1676922862.9191413,24.90234375,-43.45703125,-55.17578125,22.4609375,0.0
1676922862.9228594,-5.37109375,-41.015625,-55.6640625,9.27734375,0.0
1676922862.9265773,-56.15234375,-42.96875,-59.08203125,-60.546875,0.0
1676922862.9302955,-40.52734375,-44.43359375,-62.01171875,-64.94140625,0.0
1676922862.9340134,-22.94921875,-42.48046875,-56.15234375,-30.2734375,0.0
1676922862.9377313,-41.50390625,-38.0859375,-50.29296875,-5.859375,0.0
1676922862.9414494,-30.2734375,-39.0625,-55.6640625,-10.7421875,0.0
1676922862.9451673,-2.44140625,-44.921875,-56.640625,-0.48828125,0.0
1676922862.9488854,-11.71875,-41.015625,-46.875,2.44140625,0.0
1676922862.9526033,-32.2265625,-38.57421875,-53.22265625,-20.01953125,0.0
1676922862.9563851,-24.90234375,-40.0390625,-56.640625,-30.76171875,0.0
1676922862.9601667,-10.7421875,-38.57421875,-52.734375,-41.50390625,0.0
1676922862.9639485,-13.671875,-43.45703125,-51.7578125,-16.6015625,0.0
1676922862.9677303,-20.01953125,-45.41015625,-51.26953125,0.0,0.0
1676922862.9715118,-39.0625,-50.29296875,-54.6875,-1.46484375,0.0
1676922862.9752936,-32.2265625,-52.734375,-52.24609375,-26.85546875,0.0
1676922862.9790754,-17.08984375,-43.9453125,-43.9453125,-25.390625,0.0
1676922862.982857,-15.625,-41.50390625,-48.828125,-25.390625,0.0
1676922862.9866388,-25.87890625,-46.875,-57.6171875,-10.7421875,0.0
1676922862.9904206,-50.29296875,-45.8984375,-52.24609375,-25.87890625,0.0
1676922862.9942021,-28.3203125,-44.921875,-49.8046875,-55.17578125,0.0
1676922862.997984,-13.18359375,-50.29296875,-56.15234375,-32.2265625,0.0
1676922863.0017326,-37.109375,-52.24609375,-56.15234375,-16.6015625,0.0
1676922863.005481,-48.828125,-55.17578125,-52.734375,-31.25,0.0
1676922863.0092297,-23.4375,-57.12890625,-57.12890625,-54.19921875,0.0
1676922863.0129783,-19.04296875,-50.78125,-59.5703125,-25.87890625,0.0
1676922863.0167267,-43.45703125,-50.78125,-58.59375,-20.5078125,0.0
1676922863.0204754,-37.109375,-55.17578125,-58.59375,-40.0390625,0.0
1676922863.024224,-15.13671875,-48.33984375,-56.15234375,-32.2265625,0.0
1676922863.0279725,1.953125,-42.48046875,-60.05859375,-10.7421875,0.0
1676922863.031721,-16.11328125,-45.8984375,-61.03515625,-8.7890625,0.0
1676922863.0354698,-36.1328125,-44.921875,-54.6875,-38.0859375,0.0
1676922863.0392182,-15.625,-41.015625,-56.640625,-55.17578125,0.0
1676922863.0429668,-10.7421875,-41.9921875,-53.7109375,-15.13671875,0.0
1676922863.0467138,-26.85546875,-37.59765625,-51.7578125,-20.5078125,0.0
1676922863.0504606,-51.26953125,-37.59765625,-52.734375,-62.5,0.0
1676922863.0542073,-50.78125,-45.41015625,-53.22265625,-41.50390625,0.0
1676922863.0579543,-34.1796875,-43.45703125,-56.640625,-36.1328125,0.0
1676922863.0617013,-29.296875,-44.921875,-53.22265625,-36.62109375,0.0
1676922863.065448,-46.38671875,-48.33984375,-53.7109375,-43.9453125,0.0
1676922863.0691948,-42.48046875,-49.8046875,-56.15234375,-41.015625,0.0
1676922863.0729418,-19.04296875,-53.22265625,-55.6640625,-10.25390625,0.0
1676922863.0766888,4.39453125,-48.828125,-57.6171875,-17.08984375,0.0
1676922863.0804355,-11.71875,-39.55078125,-52.24609375,-29.78515625,0.0
1676922863.0841823,-48.33984375,-41.50390625,-50.29296875,-15.13671875,0.0
1676922863.0879292,-39.0625,-47.36328125,-54.19921875,-19.04296875,0.0
1676922863.0916736,-21.484375,-47.36328125,-48.828125,-9.27734375,0.0
1676922863.0954177,-35.64453125,-49.8046875,-47.36328125,-4.8828125,0.0
1676922863.099162,-38.0859375,-49.8046875,-54.6875,-43.45703125,0.0
1676922863.1029062,-35.15625,-48.33984375,-58.59375,-60.546875,0.0
1676922863.1066506,-26.3671875,-49.8046875,-60.05859375,-54.6875,0.0
1676922863.110395,-14.6484375,-51.7578125,-67.3828125,-16.11328125,0.0
1676922863.114139,-40.52734375,-49.31640625,-69.3359375,-2.9296875,0.0
1676922863.1178834,-46.38671875,-51.7578125,-65.91796875,-39.55078125,0.0
1676922863.1216276,-28.3203125,-54.6875,-67.87109375,-74.21875,0.0
1676922863.125372,-20.5078125,-56.640625,-68.359375,-36.1328125,0.0
1676922863.129116,-34.1796875,-55.6640625,-59.08203125,-13.18359375,0.0
1676922863.1328604,-46.875,-50.29296875,-52.734375,-60.05859375,0.0
1676922863.1367133,-62.98828125,-59.5703125,-52.24609375,-55.6640625,0.0
1676922863.1405659,-47.8515625,-59.5703125,-52.734375,-37.59765625,0.0
1676922863.1444187,-45.41015625,-48.828125,-61.03515625,-35.64453125,0.0
1676922863.1482716,-47.36328125,-44.921875,-64.453125,-22.4609375,0.0
1676922863.1521244,-27.83203125,-50.78125,-55.6640625,9.27734375,0.0
1676922863.1559772,-21.97265625,-58.10546875,-54.19921875,0.0,0.0
1676922863.1598299,-48.33984375,-63.96484375,-57.12890625,-44.43359375,0.0
1676922863.1636827,-74.21875,-64.94140625,-50.78125,-62.5,0.0
1676922863.1675355,-60.05859375,-58.59375,-48.33984375,-63.96484375,0.0
1676922863.1713881,-22.4609375,-58.59375,-49.31640625,-40.52734375,0.0
1676922863.175241,-27.34375,-62.5,-43.9453125,9.765625,0.0
1676922863.1790938,-63.4765625,-64.453125,-39.0625,-20.99609375,0.0
1676922863.1827497,-25.87890625,-61.5234375,-44.43359375,-51.26953125,0.0
1676922863.1864054,-0.9765625,-58.59375,-50.29296875,-15.625,0.0
1676922863.1900613,-37.59765625,-50.29296875,-46.875,-16.11328125,0.0
1676922863.193717,-56.640625,-51.7578125,-46.38671875,-35.64453125,0.0
1676922863.197373,-60.05859375,-53.22265625,-46.875,-30.76171875,0.0
1676922863.2010288,-24.90234375,-51.26953125,-53.7109375,-16.6015625,0.0
1676922863.2046845,-11.23046875,-54.19921875,-58.10546875,3.41796875,0.0
1676922863.2083404,-29.296875,-50.29296875,-43.45703125,12.20703125,0.0
1676922863.211996,-23.92578125,-49.31640625,-47.36328125,-30.76171875,0.0
1676922863.215652,-39.0625,-52.24609375,-51.26953125,-27.83203125,0.0
1676922863.2193077,-38.57421875,-59.08203125,-41.015625,-37.109375,0.0
1676922863.2229636,-23.4375,-62.98828125,-43.45703125,-45.8984375,0.0
1676922863.2279665,-27.83203125,-53.22265625,-47.36328125,-21.484375,0.0
1676922863.2329695,4.39453125,-46.38671875,-41.9921875,-29.78515625,0.0
1676922863.2379723,4.8828125,-50.29296875,-42.96875,-16.11328125,0.0
1676922863.2429752,-23.4375,-53.22265625,-48.33984375,1.46484375,0.0
1676922863.2479782,-10.7421875,-50.29296875,-51.7578125,-12.20703125,0.0
1676922863.2529812,-9.765625,-47.8515625,-53.22265625,-15.625,0.0
1676922863.2579842,-20.5078125,-52.24609375,-50.29296875,-47.36328125,0.0
1676922863.2629871,-39.0625,-53.22265625,-48.33984375,-47.8515625,0.0
1676922863.26799,-61.03515625,-51.26953125,-49.8046875,-34.66796875,0.0
1676922863.2729928,-49.31640625,-48.33984375,-57.12890625,-14.6484375,0.0
1676922863.2779958,-22.4609375,-43.9453125,-56.640625,2.44140625,0.0
1676922863.2829988,-6.34765625,-43.45703125,-55.6640625,-16.11328125,0.0
1676922863.2867463,-26.3671875,-48.33984375,-53.7109375,-34.1796875,0.0
1676922863.2904937,-41.9921875,-43.45703125,-46.38671875,-22.4609375,0.0
1676922863.294241,-24.90234375,-38.57421875,-40.52734375,-1.953125,0.0
1676922863.2979884,-11.71875,-45.41015625,-38.57421875,-39.0625,0.0
1676922863.3017359,-20.99609375,-49.8046875,-45.41015625,-32.2265625,0.0
1676922863.3054833,-35.64453125,-48.828125,-51.26953125,-12.6953125,0.0
1676922863.3092308,-36.62109375,-50.29296875,-47.8515625,-15.13671875,0.0
1676922863.3129783,-5.859375,-50.78125,-42.96875,-9.765625,0.0
1676922863.3167257,-11.71875,-50.29296875,-49.31640625,-11.71875,0.0
1676922863.320473,-45.8984375,-50.29296875,-52.734375,-8.30078125,0.0
1676922863.3242204,-26.85546875,-50.29296875,-50.78125,-3.90625,0.0
1676922863.327968,-6.34765625,-46.875,-53.22265625,-19.04296875,0.0
1676922863.3317196,-16.11328125,-45.41015625,-56.15234375,-31.73828125,0.0
1676922863.3354714,-17.578125,-45.41015625,-59.08203125,-14.6484375,0.0
1676922863.3392231,-19.04296875,-48.33984375,-55.6640625,-29.296875,0.0
1676922863.342975,-14.16015625,-46.38671875,-51.26953125,-39.0625,0.0
1676922863.3467267,-1.46484375,-39.55078125,-47.36328125,-22.4609375,0.0
1676922863.3504782,-20.01953125,-37.109375,-44.43359375,-15.625,0.0
1676922863.35423,-31.73828125,-43.45703125,-48.33984375,-8.30078125,0.0
1676922863.3579817,-29.296875,-44.43359375,-46.875,-49.8046875,0.0
1676922863.3617334,5.859375,-42.96875,-48.828125,-60.546875,0.0
1676922863.3654852,-5.37109375,-52.24609375,-53.7109375,-27.83203125,0.0
1676922863.369237,-49.8046875,-48.33984375,-51.7578125,-45.41015625,0.0
1676922863.3729887,-36.1328125,-44.921875,-51.7578125,-27.83203125,0.0
1676922863.3767374,-14.16015625,-47.8515625,-46.38671875,3.41796875,0.0
1676922863.380486,-12.6953125,-45.8984375,-43.9453125,-27.83203125,0.0
1676922863.384235,-29.296875,-46.38671875,-47.8515625,-23.92578125,0.0
1676922863.3879836,-8.7890625,-49.31640625,-50.78125,13.18359375,0.0
1676922863.3917322,22.4609375,-48.828125,-54.6875,-9.27734375,0.0
1676922863.395481,-16.11328125,-50.29296875,-50.78125,-33.69140625,0.0
1676922863.3992298,-36.62109375,-51.7578125,-47.8515625,-35.64453125,0.0
1676922863.4029784,-39.55078125,-52.734375,-52.24609375,-22.94921875,0.0
1676922863.406727,-39.55078125,-55.6640625,-50.78125,-15.625,0.0
1676922863.4104757,-0.9765625,-49.31640625,-39.0625,-31.25,0.0
1676922863.4142246,-0.9765625,-48.828125,-42.96875,-22.4609375,0.0
1676922863.4179733,-40.0390625,-53.22265625,-53.22265625,-23.92578125,0.0
1676922863.4229758,-33.69140625,-49.31640625,-51.7578125,-20.5078125,0.0
1676922863.427978,-6.34765625,-53.7109375,-49.31640625,-13.671875,0.0
1676922863.4329805,-3.41796875,-63.96484375,-56.640625,-53.22265625,0.0
1676922863.4379828,-35.15625,-55.6640625,-54.19921875,-61.03515625,0.0
1676922863.4429853,-22.4609375,-47.8515625,-49.8046875,-35.15625,0.0
1676922863.4479876,16.6015625,-50.78125,-51.7578125,-38.0859375,0.0
1676922863.45299,-11.23046875,-48.828125,-47.8515625,-5.37109375,0.0
1676922863.4579926,-33.203125,-44.43359375,-53.7109375,9.765625,0.0
1676922863.4629948,-41.015625,-48.33984375,-51.7578125,-27.83203125,0.0
1676922863.4679973,-16.6015625,-51.26953125,-44.43359375,-11.23046875,0.0
1676922863.4729996,-4.8828125,-48.33984375,-50.78125,13.671875,0.0
1676922863.478002,-26.3671875,-46.875,-47.8515625,-20.99609375,0.0
1676922863.480501,-34.1796875,-48.33984375,-45.8984375,-48.33984375,0.0
1676922863.4829998,-23.92578125,-50.78125,-46.875,-30.2734375,0.0
1676922863.4854987,-10.7421875,-53.22265625,-48.33984375,-25.87890625,0.0
1676922863.4879975,-32.2265625,-55.6640625,-53.22265625,-22.4609375,0.0
1676922863.4904964,-47.36328125,-54.19921875,-57.6171875,-19.04296875,0.0
1676922863.4929953,-36.62109375,-52.734375,-63.4765625,-25.390625,0.0
1676922863.4954944,-14.6484375,-52.734375,-59.08203125,-36.1328125,0.0
1676922863.4979932,-22.4609375,-54.6875,-50.78125,-17.08984375,0.0
1676922863.500492,-47.8515625,-56.15234375,-42.96875,4.8828125,0.0
1676922863.502991,-16.11328125,-51.7578125,-42.96875,-43.45703125,0.0
1676922863.5054898,5.37109375,-49.31640625,-49.31640625,-47.8515625,0.0
1676922863.5079887,-24.90234375,-45.41015625,-53.22265625,-17.578125,0.0
1676922863.5117261,-63.4765625,-43.45703125,-48.828125,-44.921875,0.0
1676922863.5154636,-53.22265625,-48.828125,-47.36328125,-38.0859375,0.0
1676922863.519201,-20.5078125,-48.828125,-48.828125,-10.7421875,0.0
1676922863.5229385,-6.34765625,-47.8515625,-44.43359375,-33.203125,0.0
1676922863.526676,-19.04296875,-49.8046875,-43.9453125,-20.5078125,0.0
1676922863.5304136,-1.46484375,-44.43359375,-49.31640625,3.41796875,0.0
1676922863.534151,10.25390625,-48.33984375,-52.734375,-30.2734375,0.0
1676922863.5378885,-41.015625,-54.19921875,-45.8984375,-48.33984375,0.0
1676922863.541626,-53.22265625,-48.33984375,-44.43359375,-51.7578125,0.0
1676922863.5453634,-41.015625,-43.9453125,-48.33984375,-0.9765625,0.0
1676922863.5491009,-31.25,-44.43359375,-41.9921875,16.11328125,0.0
1676922863.5528383,-5.859375,-39.55078125,-39.55078125,-37.59765625,0.0
1676922863.5566206,5.859375,-39.55078125,-45.41015625,10.7421875,0.0
1676922863.5604029,-20.01953125,-44.921875,-50.29296875,18.06640625,0.0
1676922863.5641854,-25.87890625,-42.48046875,-48.33984375,-49.31640625,0.0
1676922863.5679677,8.7890625,-38.57421875,-44.921875,-36.1328125,0.0
1676922863.57175,10.25390625,-38.57421875,-52.734375,-20.99609375,0.0
1676922863.5755324,-6.34765625,-41.015625,-61.5234375,-3.41796875,0.0
1676922863.5793147,-20.01953125,-44.43359375,-61.5234375,-19.53125,0.0
1676922863.583097,-35.15625,-46.875,-54.6875,-38.0859375,0.0
1676922863.5868793,-37.59765625,-47.36328125,-53.7109375,-29.296875,0.0
1676922863.5906615,-39.55078125,-45.41015625,-57.6171875,-5.859375,0.0
1676922863.594444,-43.9453125,-47.8515625,-54.6875,-5.37109375,0.0
1676922863.5982263,-24.4140625,-47.8515625,-48.33984375,-29.296875,0.0
1676922863.603205,-19.53125,-42.96875,-49.31640625,-37.109375,0.0
1676922863.6081834,-27.83203125,-42.48046875,-54.19921875,-28.3203125,0.0
1676922863.613162,-41.50390625,-47.36328125,-55.17578125,-15.13671875,0.0
1676922863.6181405,-25.390625,-47.36328125,-56.15234375,-45.8984375,0.0
1676922863.623119,0.0,-42.96875,-58.59375,-35.15625,0.0
1676922863.6280975,-21.97265625,-42.48046875,-61.5234375,-20.5078125,0.0
1676922863.6330762,-52.734375,-41.9921875,-54.6875,-21.484375,0.0
1676922863.6380548,-33.69140625,-39.55078125,-44.921875,-26.3671875,0.0
1676922863.6430333,-2.9296875,-40.0390625,-49.8046875,-37.109375,0.0
1676922863.648012,-26.85546875,-41.015625,-46.875,-15.13671875,0.0
1676922863.6529903,-42.96875,-41.50390625,-37.109375,-21.97265625,0.0
1676922863.657969,-32.71484375,-43.9453125,-41.015625,-50.78125,0.0
1676922863.6642232,-11.71875,-38.0859375,-53.22265625,-42.48046875,0.0
1676922863.6704774,1.953125,-30.76171875,-56.640625,-15.13671875,0.0
1676922863.6767316,-18.5546875,-32.2265625,-47.36328125,-9.27734375,0.0
1676922863.6829858,-42.48046875,-32.71484375,-42.96875,-32.71484375,0.0
1676922863.68924,-32.2265625,-41.50390625,-49.8046875,-52.24609375,0.0
1676922863.6954942,-15.625,-41.9921875,-49.8046875,-33.203125,0.0
1676922863.7017481,-17.578125,-40.52734375,-44.43359375,-29.296875,0.0
1676922863.7080023,-35.64453125,-45.8984375,-43.9453125,-21.484375,0.0
1676922863.7142565,-29.78515625,-41.9921875,-45.41015625,0.48828125,0.0
1676922863.7205107,-11.71875,-44.43359375,-38.0859375,3.41796875,0.0
1676922863.726765,14.16015625,-43.9453125,-28.3203125,-13.671875,0.0
1676922863.733019,11.71875,-34.1796875,-39.0625,-19.53125,0.0
1676922863.7342668,-40.52734375,-32.2265625,-48.828125,-26.85546875,0.0
1676922863.7355142,-40.0390625,-34.1796875,-45.8984375,-51.7578125,0.0
1676922863.7367616,-15.13671875,-36.1328125,-45.41015625,-63.4765625,0.0
1676922863.7380092,-49.31640625,-37.59765625,-54.19921875,-51.26953125,0.0
1676922863.7392569,-65.91796875,-33.69140625,-58.10546875,-40.0390625,0.0
1676922863.7405043,-47.8515625,-26.85546875,-57.6171875,-48.828125,0.0
1676922863.7417517,-25.87890625,-26.3671875,-62.5,-49.31640625,0.0
1676922863.7429993,-13.18359375,-28.80859375,-65.91796875,-35.15625,0.0
1676922863.744247,-37.59765625,-22.94921875,-71.77734375,-56.640625,0.0
1676922863.7454944,-42.96875,-26.3671875,-75.68359375,-78.125,0.0
1676922863.7467418,-28.80859375,-31.25,-70.3125,-44.921875,0.0
1676922863.7479894,-10.25390625,-29.78515625,-71.77734375,-22.4609375,0.0
1676922863.7517378,-28.80859375,-31.73828125,-69.3359375,-68.359375,0.0
1676922863.755486,-67.87109375,-35.15625,-64.453125,-75.68359375,0.0
1676922863.7592344,-44.43359375,-36.62109375,-67.3828125,-54.19921875,0.0
1676922863.7629828,-27.83203125,-35.64453125,-70.80078125,-36.62109375,0.0
1676922863.7667313,-39.55078125,-33.69140625,-75.68359375,-2.44140625,0.0
1676922863.7704797,-40.0390625,-33.69140625,-66.89453125,-3.41796875,0.0
1676922863.7742279,-13.18359375,-32.71484375,-58.59375,-30.76171875,0.0
1676922863.7779763,1.46484375,-34.1796875,-64.94140625,-35.64453125,0.0
1676922863.7817247,-30.2734375,-39.55078125,-69.3359375,-21.97265625,0.0
1676922863.7854729,-47.8515625,-42.96875,-65.4296875,-43.9453125,0.0
1676922863.7892213,-27.83203125,-41.50390625,-66.40625,-57.12890625,0.0
1676922863.7929697,-24.90234375,-40.0390625,-67.3828125,-56.640625,0.0
1676922863.796706,-27.34375,-45.41015625,-63.4765625,-0.9765625,0.0
1676922863.800442,-41.015625,-42.96875,-66.40625,-6.8359375,0.0
1676922863.8041782,-42.96875,-37.109375,-68.84765625,-95.703125,0.0
1676922863.8079145,0.9765625,-37.109375,-66.40625,-66.89453125,0.0
1676922863.8116505,-10.25390625,-37.109375,-65.4296875,-33.203125,0.0
1676922863.8153868,-40.0390625,-33.69140625,-61.5234375,-33.69140625,0.0
1676922863.819123,-37.109375,-40.0390625,-63.4765625,-38.57421875,0.0
1676922863.822859,-17.578125,-46.38671875,-65.91796875,-22.94921875,0.0
1676922863.8265953,3.90625,-36.1328125,-59.08203125,-8.30078125,0.0
1676922863.8303316,-20.99609375,-33.69140625,-55.6640625,-20.5078125,0.0
1676922863.8340676,-34.1796875,-39.0625,-59.08203125,-32.71484375,0.0
1676922863.8378038,-27.34375,-42.96875,-56.15234375,-34.66796875,0.0
1676922863.841662,-27.34375,-41.9921875,-52.734375,-28.3203125,0.0
1676922863.84552,-26.3671875,-40.52734375,-56.15234375,-18.5546875,0.0
1676922863.849378,-33.69140625,-42.96875,-64.453125,-44.921875,0.0
1676922863.8532362,-29.78515625,-42.96875,-65.4296875,-46.875,0.0
1676922863.8570943,-6.34765625,-39.0625,-56.640625,-25.87890625,0.0
1676922863.8609524,-13.671875,-40.52734375,-57.12890625,-24.4140625,0.0
1676922863.8648102,-37.59765625,-39.55078125,-63.4765625,-20.01953125,0.0
1676922863.8686683,-20.5078125,-36.1328125,-60.546875,-21.484375,0.0
1676922863.8725264,2.9296875,-37.109375,-53.22265625,-32.71484375,0.0
1676922863.8763845,-16.11328125,-45.41015625,-59.08203125,-30.76171875,0.0
1676922863.8802426,-39.0625,-47.8515625,-58.10546875,7.32421875,0.0
1676922863.8841007,-28.3203125,-46.38671875,-56.640625,-26.3671875,0.0
1676922863.8877478,-22.94921875,-50.78125,-56.640625,-79.58984375,0.0
1676922863.891395,-7.32421875,-48.828125,-58.59375,-56.15234375,0.0
1676922863.8950422,-20.5078125,-48.33984375,-62.98828125,-35.15625,0.0
1676922863.8986893,-36.62109375,-55.6640625,-59.5703125,-19.53125,0.0
1676922863.9023366,-15.13671875,-53.22265625,-61.5234375,-33.69140625,0.0
1676922863.9059837,14.16015625,-46.875,-64.453125,-43.9453125,0.0
1676922863.9096308,-28.80859375,-52.24609375,-67.87109375,-31.25,0.0
1676922863.913278,-95.21484375,-53.7109375,-64.453125,-63.96484375,0.0
1676922863.9169252,-66.89453125,-55.17578125,-57.6171875,-67.87109375,0.0
1676922863.9205723,-26.3671875,-54.19921875,-62.01171875,-62.01171875,0.0
1676922863.9242196,-36.1328125,-55.17578125,-64.94140625,-43.45703125,0.0
1676922863.9278667,-25.390625,-60.05859375,-62.98828125,-22.94921875,0.0
1676922863.9316247,-21.484375,-53.22265625,-61.03515625,-43.45703125,0.0
1676922863.9353828,-32.71484375,-44.921875,-64.453125,-59.08203125,0.0
1676922863.9391408,-25.87890625,-41.015625,-57.12890625,-33.69140625,0.0
1676922863.942899,-53.22265625,-44.921875,-55.6640625,-46.38671875,0.0
1676922863.946657,-42.48046875,-52.24609375,-60.05859375,-56.640625,0.0
1676922863.9504151,-5.859375,-53.22265625,-59.08203125,-10.7421875,0.0
1676922863.954173,-10.7421875,-51.7578125,-57.12890625,-17.578125,0.0
1676922863.957931,-26.85546875,-53.7109375,-56.640625,-32.71484375,0.0
1676922863.9616892,-22.4609375,-49.8046875,-56.15234375,-47.8515625,0.0
1676922863.9654472,-9.27734375,-47.8515625,-59.5703125,-39.0625,0.0
1676922863.9692054,-3.90625,-52.734375,-59.08203125,-19.04296875,0.0
1676922863.9729633,-1.953125,-48.828125,-49.8046875,-33.69140625,0.0
1676922863.977964,-22.4609375,-45.41015625,-51.26953125,-29.78515625,0.0
1676922863.9829643,-20.99609375,-49.31640625,-56.15234375,-33.203125,0.0
1676922863.9879646,-4.8828125,-47.8515625,-57.12890625,-45.8984375,0.0
1676922863.9929652,-26.3671875,-45.8984375,-58.10546875,-56.640625,0.0
1676922863.9979658,-42.96875,-40.0390625,-60.546875,-46.875,0.0
1676922864.0029662,-43.45703125,-42.48046875,-61.03515625,-34.1796875,0.0
1676922864.0079665,-32.2265625,-44.921875,-58.59375,-23.92578125,0.0
1676922864.012967,-18.06640625,-45.8984375,-54.19921875,-15.13671875,0.0
1676922864.0179677,-25.390625,-46.875,-52.734375,-27.34375,0.0
1676922864.022968,-32.71484375,-47.8515625,-62.98828125,-42.96875,0.0
1676922864.0279684,-21.97265625,-48.828125,-58.10546875,-32.71484375,0.0
1676922864.032969,-30.76171875,-50.78125,-49.31640625,-34.1796875,0.0
1676922864.036721,-57.12890625,-48.33984375,-59.08203125,-56.640625,0.0
1676922864.0404727,-53.7109375,-45.41015625,-61.03515625,-28.80859375,0.0
1676922864.0442247,-36.1328125,-50.78125,-59.08203125,-33.69140625,0.0
1676922864.0479767,-32.2265625,-53.7109375,-57.6171875,-47.36328125,0.0
1676922864.0517285,-22.4609375,-49.8046875,-50.78125,-33.69140625,0.0
1676922864.0554805,1.953125,-46.875,-51.7578125,-13.671875,0.0
1676922864.0592325,-19.53125,-52.24609375,-61.03515625,-2.44140625,0.0
1676922864.0629842,-55.6640625,-58.10546875,-62.01171875,-17.578125,0.0
1676922864.0667362,-70.3125,-57.12890625,-56.15234375,-59.08203125,0.0
1676922864.0704882,-16.6015625,-54.19921875,-58.59375,-63.4765625,0.0
1676922864.07424,-8.7890625,-49.31640625,-56.640625,-45.41015625,0.0
1676922864.077992,-67.3828125,-56.640625,-55.17578125,-52.734375,0.0
1676922864.0829802,-69.82421875,-62.01171875,-55.6640625,-37.59765625,0.0
1676922864.0879686,-37.59765625,-58.10546875,-51.7578125,-12.20703125,0.0
1676922864.0929568,-26.85546875,-55.6640625,-53.7109375,-29.78515625,0.0
1676922864.0979452,-23.4375,-51.7578125,-50.78125,-33.69140625,0.0
1676922864.1029334,-12.6953125,-52.734375,-47.36328125,-26.85546875,0.0
1676922864.1079216,-16.11328125,-52.734375,-52.24609375,-43.9453125,0.0
1676922864.11291,-8.7890625,-53.22265625,-53.22265625,-33.203125,0.0
1676922864.1178982,-10.7421875,-49.8046875,-48.828125,-21.97265625,0.0
1676922864.1228867,-17.08984375,-45.8984375,-46.875,-13.671875,0.0
1676922864.1278749,0.0,-48.828125,-46.875,-27.83203125,0.0
1676922864.1328633,6.8359375,-50.78125,-50.78125,-40.52734375,0.0
1676922864.1378515,-25.390625,-52.24609375,-47.36328125,-38.0859375,0.0
1676922864.140463,-51.26953125,-50.78125,-41.015625,-18.06640625,0.0
1676922864.1430745,-19.53125,-49.8046875,-44.921875,-3.41796875,0.0
1676922864.1456861,-3.41796875,-51.7578125,-45.8984375,-4.8828125,0.0
1676922864.1482978,-0.9765625,-48.828125,-44.921875,-23.92578125,0.0
1676922864.1509092,-15.625,-42.48046875,-53.22265625,-20.5078125,0.0
1676922864.1535208,-50.29296875,-43.9453125,-57.6171875,-31.25,0.0
1676922864.1561325,-42.48046875,-46.875,-57.12890625,-62.5,0.0
1676922864.1587439,-17.08984375,-43.45703125,-60.05859375,-43.9453125,0.0
1676922864.1613555,-26.3671875,-36.1328125,-65.91796875,-20.99609375,0.0
1676922864.1639671,-45.41015625,-37.109375,-71.2890625,-27.83203125,0.0
1676922864.1665785,-20.01953125,-38.0859375,-67.87109375,-58.10546875,0.0
1676922864.1691902,-19.53125,-39.55078125,-59.5703125,-62.98828125,0.0
1676922864.1740885,-45.41015625,-50.78125,-60.546875,-41.9921875,0.0
1676922864.178987,-52.734375,-51.7578125,-62.01171875,-12.6953125,0.0
1676922864.1838853,-31.73828125,-42.48046875,-57.12890625,-18.5546875,0.0
1676922864.1887836,7.8125,-35.15625,-52.734375,-42.48046875,0.0
1676922864.193682,15.13671875,-32.2265625,-54.6875,-35.64453125,0.0
1676922864.1985803,-27.83203125,-36.1328125,-56.640625,-14.16015625,0.0
1676922864.2034788,-42.96875,-43.45703125,-57.12890625,-6.34765625,0.0
1676922864.2083771,-26.85546875,-47.36328125,-54.6875,-77.1484375,0.0
1676922864.2132754,-23.92578125,-42.96875,-55.17578125,-48.33984375,0.0
1676922864.218174,-31.25,-39.55078125,-59.08203125,-15.625,0.0
1676922864.2230723,-43.45703125,-45.41015625,-62.01171875,-33.69140625,0.0
1676922864.2279706,-17.08984375,-48.828125,-62.01171875,-26.85546875,0.0
1676922864.2317207,0.9765625,-51.26953125,-64.453125,-45.41015625,0.0
1676922864.2354708,-41.50390625,-54.19921875,-66.40625,-59.08203125,0.0
1676922864.239221,-57.6171875,-48.828125,-63.4765625,-41.50390625,0.0
1676922864.2429712,-43.9453125,-49.31640625,-57.6171875,-48.33984375,0.0
1676922864.2467213,-20.5078125,-52.24609375,-59.08203125,-35.15625,0.0
1676922864.2504716,-6.8359375,-47.8515625,-58.10546875,1.46484375,0.0
1676922864.2542217,-23.4375,-44.921875,-47.8515625,-24.4140625,0.0
1676922864.2579718,-39.0625,-45.8984375,-50.29296875,-50.29296875,0.0
1676922864.2617218,-30.76171875,-49.31640625,-62.01171875,-35.15625,0.0
1676922864.265472,2.9296875,-53.22265625,-57.6171875,-30.76171875,0.0
1676922864.2692223,-1.46484375,-51.26953125,-52.734375,-2.44140625,0.0
1676922864.2729723,-51.7578125,-46.875,-56.640625,-10.7421875,0.0
1676922864.2767239,-48.828125,-54.6875,-60.05859375,-76.66015625,0.0
1676922864.2804756,-32.71484375,-61.5234375,-59.5703125,-65.4296875,0.0
1676922864.2842271,-39.55078125,-58.59375,-55.6640625,-43.9453125,0.0
1676922864.287979,-39.55078125,-57.12890625,-60.546875,-35.64453125,0.0
1676922864.2917304,6.8359375,-51.26953125,-56.640625,-27.34375,0.0
1676922864.2954822,12.20703125,-46.38671875,-52.734375,-16.6015625,0.0
1676922864.2992337,-36.62109375,-55.6640625,-58.59375,-18.5546875,0.0
1676922864.3029852,-36.62109375,-52.24609375,-60.546875,-0.48828125,0.0
1676922864.306737,-17.08984375,-43.9453125,-60.05859375,-10.25390625,0.0
1676922864.3104885,3.41796875,-45.8984375,-57.6171875,-44.921875,0.0
1676922864.3142402,1.953125,-47.36328125,-53.7109375,-33.69140625,0.0
1676922864.3179917,-35.15625,-48.828125,-55.6640625,-14.6484375,0.0
1676922864.3217418,-41.50390625,-46.875,-57.6171875,-11.23046875,0.0
1676922864.3254921,-7.8125,-47.36328125,-58.10546875,-26.3671875,0.0
1676922864.3292422,13.18359375,-52.734375,-59.08203125,0.48828125,0.0
1676922864.3329926,-24.90234375,-55.17578125,-56.15234375,-29.78515625,0.0
1676922864.3367426,-54.19921875,-55.6640625,-56.15234375,-21.484375,0.0
1676922864.3404927,-42.48046875,-53.7109375,-56.15234375,-25.87890625,0.0
1676922864.344243,-2.44140625,-44.43359375,-60.546875,-58.59375,0.0
1676922864.3479931,-2.44140625,-47.36328125,-61.03515625,-39.55078125,0.0
1676922864.3517435,-54.6875,-55.6640625,-58.59375,-14.6484375,0.0
1676922864.3554935,-38.57421875,-51.26953125,-57.12890625,-39.0625,0.0
1676922864.3592439,-14.6484375,-42.48046875,-52.24609375,-56.15234375,0.0
1676922864.362994,-33.203125,-44.43359375,-56.640625,-21.97265625,0.0
1676922864.3668358,-45.8984375,-42.48046875,-58.10546875,-21.97265625,0.0
1676922864.3706777,-52.734375,-38.57421875,-54.19921875,-19.53125,0.0
1676922864.3745196,-28.3203125,-44.921875,-56.640625,-41.015625,0.0
1676922864.3783615,-12.6953125,-42.48046875,-57.6171875,-46.875,0.0
1676922864.3822033,-35.64453125,-40.52734375,-51.7578125,-36.62109375,0.0
1676922864.3860455,-51.26953125,-44.43359375,-52.24609375,-19.53125,0.0
1676922864.3898873,-24.90234375,-42.48046875,-50.29296875,-10.25390625,0.0
1676922864.3937292,1.46484375,-40.52734375,-47.8515625,-18.06640625,0.0
1676922864.397571,-29.296875,-43.9453125,-42.96875,-35.64453125,0.0
1676922864.401413,-51.26953125,-41.015625,-35.15625,-49.8046875,0.0
1676922864.4052548,-27.83203125,-34.66796875,-39.0625,-42.96875,0.0
1676922864.4090967,-13.18359375,-33.69140625,-41.015625,-29.296875,0.0
1676922864.4127584,-36.1328125,-32.71484375,-42.48046875,-11.71875,0.0
1676922864.41642,-42.48046875,-30.2734375,-44.921875,-7.32421875,0.0
1676922864.4200816,-19.04296875,-34.1796875,-41.015625,-12.6953125,0.0
1676922864.4237432,-18.5546875,-34.66796875,-38.57421875,-25.390625,0.0
1676922864.4274049,-24.90234375,-38.57421875,-40.0390625,-25.390625,0.0
1676922864.4310665,-39.0625,-44.921875,-41.9921875,-16.6015625,0.0
1676922864.434728,-44.43359375,-45.8984375,-46.38671875,-25.390625,0.0
1676922864.4383895,-22.94921875,-51.7578125,-53.22265625,-22.94921875,0.0
1676922864.4420512,-24.4140625,-55.6640625,-51.26953125,-47.36328125,0.0
1676922864.4457128,-51.26953125,-53.22265625,-52.24609375,-41.015625,0.0
1676922864.4493744,-72.75390625,-48.33984375,-53.22265625,-24.4140625,0.0
1676922864.453036,-58.10546875,-44.43359375,-54.6875,-53.7109375,0.0
1676922864.4567804,-45.41015625,-45.41015625,-53.22265625,-53.7109375,0.0
1676922864.4605248,-57.12890625,-47.8515625,-50.29296875,-33.69140625,0.0
1676922864.4642692,-49.8046875,-48.828125,-51.26953125,-25.390625,0.0
1676922864.4680133,-41.9921875,-49.31640625,-50.29296875,-38.57421875,0.0
1676922864.4717577,-18.06640625,-43.45703125,-50.78125,-55.6640625,0.0
1676922864.475502,-17.578125,-41.015625,-49.8046875,-40.0390625,0.0
1676922864.4792464,-68.359375,-40.52734375,-54.19921875,-23.92578125,0.0
1676922864.4829907,-74.70703125,-42.96875,-54.19921875,0.9765625,0.0
1676922864.4867349,-48.828125,-48.33984375,-46.38671875,-20.99609375,0.0
1676922864.4904792,-36.1328125,-51.26953125,-51.7578125,-60.05859375,0.0
1676922864.4942236,-20.01953125,-44.43359375,-61.5234375,-52.734375,0.0
1676922864.497968,-34.1796875,-36.62109375,-62.5,-60.546875,0.0
1676922864.501718,-42.96875,-46.38671875,-56.640625,-61.03515625,0.0
1676922864.505468,-33.69140625,-50.78125,-58.10546875,-53.7109375,0.0
1676922864.509218,-41.015625,-42.96875,-51.26953125,-33.69140625,0.0
1676922864.512968,-46.38671875,-42.48046875,-42.48046875,-47.36328125,0.0
1676922864.516718,-43.9453125,-55.17578125,-46.875,-50.29296875,0.0
1676922864.520468,-32.71484375,-60.05859375,-56.15234375,-28.3203125,0.0
1676922864.524218,-32.2265625,-50.78125,-60.546875,-36.62109375,0.0
1676922864.527968,-43.45703125,-56.640625,-57.12890625,-33.203125,0.0
1676922864.531718,-38.57421875,-58.59375,-56.15234375,-28.80859375,0.0
1676922864.535468,-9.765625,-53.22265625,-62.98828125,-52.734375,0.0
1676922864.539218,-23.4375,-53.22265625,-63.96484375,-38.57421875,0.0
1676922864.542968,-63.4765625,-54.6875,-55.6640625,-46.38671875,0.0
1676922864.5479598,-44.921875,-57.12890625,-58.59375,-63.4765625,0.0
1676922864.5529513,-22.4609375,-58.59375,-61.03515625,-42.96875,0.0
1676922864.557943,-34.1796875,-56.640625,-52.24609375,-11.23046875,0.0
1676922864.5629349,-47.8515625,-57.12890625,-48.828125,-20.5078125,0.0
1676922864.5679264,-35.64453125,-55.6640625,-50.78125,-55.17578125,0.0
1676922864.5729182,-21.97265625,-48.828125,-56.15234375,-51.26953125,0.0
1676922864.57791,-32.2265625,-48.828125,-56.640625,-47.36328125,0.0
1676922864.5829015,-45.41015625,-46.875,-55.6640625,-42.48046875,0.0
1676922864.5878932,-52.734375,-49.31640625,-60.05859375,-40.0390625,0.0
1676922864.592885,-32.71484375,-55.17578125,-59.08203125,-38.57421875,0.0
1676922864.5978765,-25.87890625,-54.6875,-52.24609375,-13.18359375,0.0
1676922864.6028683,-35.15625,-48.828125,-51.7578125,-18.5546875,0.0
1676922864.606647,-22.94921875,-42.96875,-51.7578125,-53.22265625,0.0
1676922864.6104257,-20.01953125,-45.41015625,-49.31640625,-33.203125,0.0
1676922864.6142044,-1.953125,-38.57421875,-43.45703125,-34.1796875,0.0
1676922864.617983,-0.9765625,-34.1796875,-39.0625,-35.15625,0.0
1676922864.6217618,-33.203125,-41.50390625,-50.78125,-7.32421875,0.0
1676922864.6255403,-20.5078125,-47.8515625,-56.640625,-14.16015625,0.0
1676922864.629319,5.37109375,-44.43359375,-43.45703125,-33.69140625,0.0
1676922864.6330976,-4.8828125,-38.57421875,-39.55078125,-16.6015625,0.0
1676922864.6368763,-27.34375,-46.875,-53.22265625,0.48828125,0.0
1676922864.640655,-46.38671875,-55.17578125,-54.19921875,-26.3671875,0.0
1676922864.6444337,-34.66796875,-49.8046875,-44.43359375,-43.45703125,0.0
1676922864.6482124,-7.32421875,-46.875,-46.875,-4.39453125,0.0
1676922864.6519427,-24.90234375,-43.9453125,-48.33984375,-6.34765625,0.0
1676922864.655673,-24.4140625,-43.45703125,-42.48046875,-30.2734375,0.0
1676922864.6594036,-4.8828125,-43.45703125,-46.875,-27.34375,0.0
1676922864.6631339,-25.390625,-41.9921875,-52.24609375,-7.8125,0.0
1676922864.6668642,-21.97265625,-45.8984375,-50.29296875,1.953125,0.0
1676922864.6705947,-45.8984375,-44.921875,-53.7109375,-26.3671875,0.0
1676922864.674325,-56.15234375,-41.015625,-55.17578125,-41.50390625,0.0
1676922864.6780553,-20.01953125,-41.9921875,-59.5703125,-55.6640625,0.0
1676922864.6817856,1.953125,-41.9921875,-62.98828125,-7.8125,0.0
1676922864.6855159,-17.08984375,-45.41015625,-53.22265625,-17.08984375,0.0
1676922864.6892464,-49.8046875,-49.8046875,-45.8984375,-47.8515625,0.0
1676922864.6929767,-36.1328125,-50.29296875,-50.29296875,-37.59765625,0.0
1676922864.6967013,-40.52734375,-51.7578125,-50.78125,-30.76171875,0.0
1676922864.7004259,-58.10546875,-58.10546875,-47.36328125,-27.34375,0.0
1676922864.7041504,-56.15234375,-60.05859375,-51.7578125,-59.5703125,0.0
1676922864.707875,-34.1796875,-57.12890625,-51.7578125,-49.8046875,0.0
1676922864.7115996,-22.4609375,-54.19921875,-55.17578125,-39.0625,0.0
1676922864.7153242,-26.85546875,-55.17578125,-58.59375,-32.2265625,0.0
1676922864.7190487,-52.734375,-52.734375,-51.26953125,-42.48046875,0.0
1676922864.7227733,-56.15234375,-51.26953125,-58.10546875,-67.3828125,0.0
1676922864.726498,-33.203125,-56.640625,-58.10546875,-20.5078125,0.0
1676922864.7302225,-38.0859375,-52.734375,-44.921875,-1.46484375,0.0
1676922864.733947,-56.640625,-46.875,-49.31640625,-32.71484375,0.0
1676922864.7376716,-53.22265625,-44.921875,-50.78125,-41.9921875,0.0
1676922864.741448,-36.1328125,-42.48046875,-47.8515625,-44.43359375,0.0
1676922864.7452245,-41.9921875,-40.52734375,-50.78125,-62.01171875,0.0
1676922864.7490008,-41.015625,-39.0625,-55.17578125,-56.15234375,0.0
1676922864.752777,-26.3671875,-40.52734375,-52.734375,-24.4140625,0.0
1676922864.7565536,-28.3203125,-41.015625,-47.36328125,-37.109375,0.0
1676922864.76033,-39.0625,-38.57421875,-55.6640625,-32.2265625,0.0
1676922864.7641063,-66.40625,-45.41015625,-61.5234375,-18.06640625,0.0
1676922864.7678828,-64.453125,-50.29296875,-60.546875,-61.5234375,0.0
1676922864.7716591,-47.8515625,-51.7578125,-53.22265625,-55.17578125,0.0
1676922864.7754354,-41.50390625,-50.78125,-48.33984375,-32.2265625,0.0
1676922864.779212,-43.9453125,-46.875,-54.19921875,-32.71484375,0.0
1676922864.7829883,-56.640625,-40.0390625,-56.640625,-28.3203125,0.0
1676922864.7867386,-38.57421875,-41.9921875,-54.6875,-18.06640625,0.0
1676922864.790489,-16.6015625,-49.31640625,-49.8046875,-31.73828125,0.0
1676922864.7942395,-33.69140625,-46.875,-49.8046875,-20.99609375,0.0
1676922864.7979898,-63.96484375,-45.8984375,-49.8046875,-34.66796875,0.0
1676922864.8017402,-57.6171875,-47.8515625,-43.45703125,-70.80078125,0.0
1676922864.8054905,-15.625,-49.31640625,-48.33984375,-59.08203125,0.0
1676922864.8092408,-22.94921875,-49.8046875,-59.08203125,-40.0390625,0.0
1676922864.8129911,-66.40625,-54.19921875,-61.03515625,-19.04296875,0.0
1676922864.8167415,-63.4765625,-59.08203125,-59.08203125,-57.12890625,0.0
1676922864.820492,-37.109375,-59.08203125,-56.15234375,-36.1328125,0.0
1676922864.8242424,-26.85546875,-54.6875,-52.24609375,-36.62109375,0.0
1676922864.8279927,-49.31640625,-55.17578125,-53.22265625,-64.94140625,0.0
1676922864.8329656,-58.59375,-52.24609375,-56.15234375,-51.7578125,0.0
1676922864.8379383,-27.34375,-55.6640625,-61.03515625,-62.98828125,0.0
1676922864.8429112,-15.13671875,-62.98828125,-61.03515625,-50.29296875,0.0
1676922864.847884,-29.296875,-59.5703125,-54.19921875,-37.59765625,0.0
1676922864.8528569,-30.76171875,-50.78125,-54.6875,-38.57421875,0.0
1676922864.8578296,-18.06640625,-46.38671875,-62.01171875,-40.52734375,0.0
1676922864.8628025,-12.6953125,-48.33984375,-62.01171875,-17.578125,0.0
1676922864.8677754,-15.13671875,-50.29296875,-52.734375,-33.203125,0.0
1676922864.8727481,-28.3203125,-46.875,-48.33984375,-37.109375,0.0
1676922864.877721,-42.48046875,-51.26953125,-55.17578125,-16.11328125,0.0
1676922864.8826938,-41.9921875,-58.10546875,-52.734375,-37.59765625,0.0
1676922864.8876667,-38.57421875,-54.19921875,-53.22265625,-48.33984375,0.0
1676922864.890196,-52.24609375,-49.31640625,-59.08203125,-37.109375,0.0
1676922864.8927255,-41.015625,-47.8515625,-58.10546875,-35.15625,0.0
1676922864.8952546,-21.484375,-50.29296875,-58.59375,-38.57421875,0.0
1676922864.897784,-32.2265625,-50.29296875,-57.12890625,-45.8984375,0.0
1676922864.9003134,-42.48046875,-44.43359375,-59.08203125,-33.69140625,0.0
1676922864.9028428,-42.48046875,-40.0390625,-57.12890625,23.4375,0.0
1676922864.9053721,-38.0859375,-42.48046875,-45.8984375,-5.859375,0.0
1676922864.9079015,-30.76171875,-46.875,-38.0859375,-48.33984375,0.0
1676922864.910431,-39.0625,-41.50390625,-43.45703125,-58.59375,0.0
1676922864.91296,-41.50390625,-46.875,-50.29296875,-42.96875,0.0
1676922864.9154894,-3.41796875,-52.24609375,-50.29296875,-24.90234375,0.0
1676922864.9180188,-3.41796875,-43.9453125,-44.43359375,-43.45703125,0.0
1676922864.9230106,-36.1328125,-39.0625,-51.26953125,-50.78125,0.0
1676922864.9280026,-53.7109375,-40.0390625,-61.5234375,-25.87890625,0.0
1676922864.9329944,-31.25,-45.8984375,-53.22265625,-16.11328125,0.0
1676922864.9379864,-13.18359375,-51.26953125,-45.41015625,-31.73828125,0.0
1676922864.9429781,-39.55078125,-50.29296875,-49.8046875,-41.015625,0.0
1676922864.94797,-77.1484375,-45.8984375,-59.5703125,-55.6640625,0.0
1676922864.952962,-78.125,-51.26953125,-61.03515625,-61.5234375,0.0
1676922864.9579537,-31.73828125,-51.26953125,-61.5234375,-70.80078125,0.0
1676922864.9629457,-30.2734375,-45.41015625,-57.6171875,-32.2265625,0.0
1676922864.9679375,-50.29296875,-41.015625,-55.6640625,-10.25390625,0.0
1676922864.9729295,-35.15625,-39.55078125,-51.7578125,-37.109375,0.0
1676922864.9779212,3.90625,-41.015625,-51.26953125,-52.24609375,0.0
1676922864.9816706,7.8125,-42.48046875,-62.98828125,-38.0859375,0.0
1676922864.98542,-9.27734375,-41.9921875,-63.96484375,-38.0859375,0.0
1676922864.9891694,-23.4375,-45.41015625,-53.22265625,-37.59765625,0.0
1676922864.9929187,-34.1796875,-48.33984375,-51.26953125,-42.48046875,0.0
1676922864.996668,-16.6015625,-44.43359375,-58.10546875,-33.69140625,0.0
1676922865.0004175,-13.671875,-36.62109375,-57.6171875,-12.6953125,0.0
1676922865.0041668,-41.015625,-39.55078125,-50.29296875,-24.90234375,0.0
1676922865.0079162,-31.73828125,-41.015625,-51.26953125,-37.109375,0.0
1676922865.0116656,-17.578125,-42.96875,-57.6171875,-40.0390625,0.0
1676922865.015415,-50.29296875,-43.9453125,-59.08203125,-34.66796875,0.0
1676922865.0191643,-64.94140625,-40.52734375,-54.19921875,-33.69140625,0.0
1676922865.0229137,-46.38671875,-45.41015625,-52.734375,-35.64453125,0.0
1676922865.0266924,-26.3671875,-45.8984375,-50.29296875,-34.1796875,0.0
1676922865.030471,-9.27734375,-46.875,-48.33984375,-22.94921875,0.0
1676922865.0342498,-31.73828125,-44.921875,-54.19921875,-35.15625,0.0
1676922865.0380285,-62.01171875,-41.015625,-56.640625,-57.12890625,0.0
1676922865.0418072,-46.38671875,-46.875,-57.6171875,-52.734375,0.0
1676922865.0455859,-21.97265625,-44.921875,-53.7109375,-22.94921875,0.0
1676922865.0493646,-21.97265625,-42.48046875,-47.36328125,-29.296875,0.0
1676922865.0531433,-41.50390625,-48.33984375,-52.734375,-40.0390625,0.0
1676922865.056922,-34.66796875,-43.9453125,-57.12890625,-41.9921875,0.0
1676922865.0607007,-19.53125,-41.9921875,-53.7109375,-40.52734375,0.0
1676922865.0644794,-20.01953125,-45.41015625,-54.19921875,-43.9453125,0.0
1676922865.068258,-38.57421875,-48.828125,-58.59375,-28.80859375,0.0
1676922865.0720785,-40.0390625,-49.31640625,-59.5703125,-44.43359375,0.0
1676922865.0758991,-27.34375,-50.29296875,-60.05859375,-71.77734375,0.0
1676922865.0797195,-26.3671875,-54.6875,-56.640625,-59.5703125,0.0
1676922865.08354,-31.73828125,-57.6171875,-55.17578125,-31.73828125,0.0
1676922865.0873606,-33.69140625,-58.59375,-55.17578125,-15.625,0.0
1676922865.091181,-23.4375,-50.78125,-48.828125,-31.73828125,0.0
1676922865.0950015,-5.859375,-46.38671875,-47.36328125,-45.41015625,0.0
1676922865.098822,-11.71875,-52.734375,-58.59375,-17.08984375,0.0
1676922865.1026425,-41.9921875,-54.6875,-55.17578125,-16.6015625,0.0
1676922865.106463,-29.296875,-48.33984375,-40.0390625,-41.015625,0.0
1676922865.1102836,-19.04296875,-48.33984375,-45.41015625,-42.48046875,0.0
1676922865.114104,-18.06640625,-51.26953125,-53.7109375,-29.78515625,0.0
1676922865.1177614,-25.390625,-51.26953125,-48.828125,-18.5546875,0.0
1676922865.1214185,-10.25390625,-46.875,-46.38671875,-38.0859375,0.0
1676922865.1250758,18.06640625,-41.50390625,-53.7109375,-29.78515625,0.0
1676922865.1287332,5.859375,-47.36328125,-57.12890625,-22.94921875,0.0
1676922865.1323903,-24.90234375,-52.734375,-59.08203125,-52.24609375,0.0
1676922865.1360476,-58.59375,-49.8046875,-53.7109375,-26.3671875,0.0
1676922865.139705,-23.4375,-47.36328125,-51.26953125,-20.5078125,0.0
1676922865.143362,-6.8359375,-49.8046875,-67.3828125,-33.69140625,0.0
1676922865.1470194,-22.94921875,-54.19921875,-64.453125,-11.71875,0.0
1676922865.1506767,-2.44140625,-52.24609375,-51.26953125,-29.296875,0.0
1676922865.1543338,-3.90625,-43.9453125,-53.22265625,-38.0859375,0.0
1676922865.1579912,-7.32421875,-46.38671875,-48.828125,-6.34765625,0.0
1676922865.1617403,-5.859375,-53.7109375,-41.50390625,-31.25,0.0
1676922865.1654897,-10.7421875,-48.33984375,-45.41015625,-52.24609375,0.0
1676922865.1692388,1.46484375,-51.7578125,-49.8046875,-23.4375,0.0
1676922865.172988,12.6953125,-57.6171875,-50.78125,26.3671875,0.0
1676922865.1767373,-16.6015625,-57.12890625,-50.78125,9.765625,0.0
1676922865.1804864,-16.11328125,-53.7109375,-52.24609375,-35.64453125,0.0
1676922865.1842356,10.7421875,-48.828125,-54.6875,-28.3203125,0.0
1676922865.187985,-14.6484375,-55.17578125,-57.12890625,-29.78515625,0.0
1676922865.191734,-20.99609375,-56.640625,-55.6640625,-30.76171875,0.0
1676922865.1954832,-17.08984375,-56.640625,-52.24609375,-36.1328125,0.0
1676922865.1992326,-35.64453125,-53.22265625,-48.33984375,-31.73828125,0.0
1676922865.2029817,-23.92578125,-55.17578125,-49.31640625,-36.1328125,0.0
1676922865.2067225,-20.99609375,-56.15234375,-52.24609375,-37.59765625,0.0
1676922865.2104633,-34.1796875,-45.41015625,-52.734375,-36.62109375,0.0
1676922865.2142038,-31.73828125,-48.828125,-51.26953125,-14.16015625,0.0
1676922865.2179446,1.953125,-44.921875,-45.41015625,2.44140625,0.0
1676922865.2216854,23.92578125,-36.62109375,-42.96875,-19.04296875,0.0
1676922865.2254262,-17.578125,-40.0390625,-50.78125,-17.08984375,0.0
1676922865.229167,-45.41015625,-39.0625,-56.640625,-39.0625,0.0
1676922865.2329078,-23.92578125,-40.0390625,-54.19921875,-55.17578125,0.0
1676922865.2366486,-16.6015625,-43.9453125,-47.36328125,-47.36328125,0.0
1676922865.240389,-26.85546875,-47.8515625,-51.7578125,-28.80859375,0.0
1676922865.24413,-41.015625,-46.875,-56.640625,-26.3671875,0.0
1676922865.2478707,-35.64453125,-44.921875,-51.26953125,-30.76171875,0.0
1676922865.251649,-17.578125,-46.875,-50.78125,-47.8515625,0.0
1676922865.255427,-14.16015625,-43.9453125,-56.640625,3.90625,0.0
1676922865.259205,-7.32421875,-50.78125,-59.5703125,-22.94921875,0.0
1676922865.2629833,-33.69140625,-50.29296875,-55.17578125,-93.75,0.0
1676922865.2667613,-41.9921875,-44.921875,-54.19921875,-72.75390625,0.0
1676922865.2705395,-17.578125,-42.48046875,-59.08203125,-24.90234375,0.0
1676922865.2743177,-27.34375,-47.8515625,-55.6640625,-25.87890625,0.0
1676922865.2780957,-32.71484375,-53.7109375,-47.36328125,-57.6171875,0.0
1676922865.281874,-17.578125,-48.828125,-43.9453125,-37.109375,0.0
1676922865.2856522,-7.8125,-52.24609375,-44.921875,-26.85546875,0.0
1676922865.2894301,-25.390625,-58.10546875,-40.52734375,-24.90234375,0.0
1676922865.2932084,-39.55078125,-57.6171875,-29.296875,-21.97265625,0.0
1676922865.298211,-20.01953125,-58.10546875,-28.80859375,-21.97265625,0.0
1676922865.3032136,-6.34765625,-61.5234375,-29.296875,1.953125,0.0
1676922865.3082163,-44.921875,-59.5703125,-28.3203125,-12.6953125,0.0
1676922865.313219,-80.56640625,-62.98828125,-28.80859375,-45.8984375,0.0
1676922865.3182216,-81.54296875,-74.70703125,-28.3203125,-40.52734375,0.0
1676922865.3232243,-46.875,-78.61328125,-34.66796875,-20.5078125,0.0
1676922865.328227,-32.2265625,-68.84765625,-36.1328125,-24.4140625,0.0
1676922865.3332295,-49.8046875,-60.546875,-32.2265625,-35.64453125,0.0
1676922865.3382323,-53.7109375,-63.4765625,-32.2265625,-6.8359375,0.0
1676922865.343235,-18.5546875,-64.94140625,-37.109375,-8.30078125,0.0
1676922865.3482375,0.48828125,-62.98828125,-36.1328125,-31.25,0.0
1676922865.3532403,-31.73828125,-66.40625,-32.2265625,-28.3203125,0.0
1676922865.3569698,-47.8515625,-66.89453125,-34.66796875,-22.4609375,0.0
1676922865.3606997,-35.64453125,-64.94140625,-38.0859375,-14.16015625,0.0
1676922865.3644292,-22.94921875,-59.08203125,-34.66796875,-22.94921875,0.0
1676922865.3681588,-34.1796875,-56.640625,-34.66796875,-17.08984375,0.0
1676922865.3718884,-50.78125,-59.5703125,-42.96875,-10.7421875,0.0
1676922865.375618,-28.80859375,-49.31640625,-41.50390625,-24.4140625,0.0
1676922865.3793478,-4.8828125,-42.96875,-32.2265625,-23.4375,0.0
1676922865.3830774,-7.32421875,-46.38671875,-33.69140625,-33.203125,0.0
1676922865.386807,-23.92578125,-52.24609375,-45.41015625,-25.87890625,0.0
1676922865.3905368,-44.921875,-56.15234375,-45.8984375,7.8125,0.0
1676922865.3942664,-42.48046875,-55.17578125,-35.15625,-20.01953125,0.0
1676922865.397996,-21.97265625,-54.6875,-38.0859375,-48.828125,0.0
1676922865.4017448,-24.90234375,-53.22265625,-41.9921875,-30.2734375,0.0
1676922865.4054937,-45.8984375,-52.734375,-38.57421875,-19.53125,0.0
1676922865.4092426,-26.3671875,-50.78125,-40.0390625,-35.15625,0.0
1676922865.4129915,-20.99609375,-49.31640625,-43.45703125,-35.15625,0.0
1676922865.4167404,-31.25,-52.24609375,-46.875,-29.78515625,0.0
1676922865.4204893,-21.97265625,-58.59375,-49.8046875,-13.671875,0.0
1676922865.424238,-19.53125,-57.12890625,-44.43359375,-28.80859375,0.0
1676922865.4279869,-5.37109375,-56.15234375,-43.45703125,-56.640625,0.0
1676922865.4317358,-23.92578125,-62.01171875,-50.78125,-35.15625,0.0
1676922865.4354846,-42.96875,-56.15234375,-48.828125,-18.5546875,0.0
1676922865.4392335,-28.80859375,-51.7578125,-48.828125,-48.33984375,0.0
1676922865.4429824,-23.4375,-57.6171875,-53.22265625,-48.33984375,0.0
1676922865.4467273,-16.11328125,-55.6640625,-55.6640625,-8.30078125,0.0
1676922865.450472,-20.5078125,-49.8046875,-48.828125,-24.4140625,0.0
1676922865.454217,-18.5546875,-45.41015625,-44.43359375,-50.29296875,0.0
1676922865.4579616,-14.16015625,-51.26953125,-49.31640625,-35.15625,0.0
1676922865.4617064,-9.27734375,-54.19921875,-46.38671875,-21.484375,0.0
1676922865.4654512,-8.7890625,-46.38671875,-52.734375,-21.484375,0.0
1676922865.469196,-50.29296875,-48.828125,-53.7109375,-44.921875,0.0
1676922865.472941,-55.6640625,-52.734375,-58.10546875,-43.9453125,0.0
1676922865.4766855,-20.99609375,-47.8515625,-64.453125,-30.2734375,0.0
1676922865.4804304,-27.83203125,-41.50390625,-56.640625,-42.96875,0.0
1676922865.4841752,-41.50390625,-39.0625,-53.22265625,-35.64453125,0.0
1676922865.48792,-38.0859375,-50.29296875,-50.78125,-34.66796875,0.0
1676922865.4916942,-47.36328125,-56.15234375,-48.33984375,-38.0859375,0.0
1676922865.4954686,-47.36328125,-50.29296875,-50.78125,-55.17578125,0.0
1676922865.4992428,-37.59765625,-49.31640625,-56.15234375,-61.5234375,0.0
1676922865.5030172,-33.69140625,-43.9453125,-55.6640625,-42.96875,0.0
1676922865.5067914,-19.04296875,-46.875,-41.50390625,-20.5078125,0.0
1676922865.5105658,-30.76171875,-52.734375,-35.15625,-27.34375,0.0
1676922865.51434,-57.6171875,-52.734375,-38.57421875,-13.671875,0.0
1676922865.518114,-46.875,-52.24609375,-44.43359375,-5.37109375,0.0
1676922865.5218885,-34.1796875,-55.17578125,-43.45703125,-57.12890625,0.0
1676922865.5256627,-22.4609375,-60.546875,-42.96875,-59.08203125,0.0
1676922865.529437,-49.8046875,-62.01171875,-45.8984375,-38.0859375,0.0
1676922865.5332112,-43.9453125,-55.17578125,-44.921875,-51.7578125,0.0
1676922865.5370378,-21.97265625,-48.828125,-43.45703125,-51.7578125,0.0
1676922865.5408642,-42.48046875,-55.6640625,-45.8984375,-46.38671875,0.0
1676922865.5446906,-46.38671875,-52.734375,-46.38671875,-29.78515625,0.0
1676922865.5485172,-51.7578125,-42.96875,-41.015625,-26.85546875,0.0
1676922865.5523438,-37.59765625,-45.8984375,-39.0625,-40.52734375,0.0
1676922865.5561702,-3.41796875,-50.78125,-39.55078125,-14.6484375,0.0
1676922865.5599966,-7.8125,-48.33984375,-50.78125,-11.23046875,0.0
1676922865.5638232,-42.48046875,-51.26953125,-50.78125,-42.48046875,0.0
1676922865.5676498,-40.52734375,-47.8515625,-41.015625,-54.6875,0.0
1676922865.5714762,-11.71875,-44.43359375,-45.8984375,-44.921875,0.0
1676922865.5753026,-8.7890625,-50.29296875,-46.38671875,-38.0859375,0.0
1676922865.5791292,-32.2265625,-47.8515625,-40.52734375,-34.1796875,0.0
1676922865.582769,-22.4609375,-49.8046875,-36.1328125,-29.78515625,0.0
1676922865.5864086,-7.8125,-44.921875,-41.50390625,-23.4375,0.0
1676922865.590048,6.34765625,-41.015625,-42.96875,-1.953125,0.0
1676922865.5936878,-21.484375,-46.875,-42.96875,-15.13671875,0.0
1676922865.5973275,-57.6171875,-48.828125,-49.8046875,-25.390625,0.0
1676922865.600967,-23.92578125,-42.96875,-47.8515625,-30.76171875,0.0
1676922865.6046066,-13.671875,-41.50390625,-50.29296875,-34.1796875,0.0
1676922865.6082463,-49.8046875,-45.41015625,-48.828125,-21.484375,0.0
1676922865.611886,-60.05859375,-44.43359375,-40.52734375,-31.73828125,0.0
1676922865.6155257,-34.66796875,-38.0859375,-43.9453125,-37.59765625,0.0
1676922865.6191652,1.953125,-37.109375,-45.41015625,-15.13671875,0.0
1676922865.6228049,6.34765625,-44.43359375,-41.9921875,-16.11328125,0.0
1676922865.6265762,-38.0859375,-49.8046875,-42.96875,-49.8046875,0.0
1676922865.6303475,-44.43359375,-47.36328125,-46.875,-41.015625,0.0
1676922865.6341188,-26.3671875,-45.8984375,-51.7578125,-52.734375,0.0
1676922865.63789,-39.55078125,-49.31640625,-51.7578125,-61.03515625,0.0
1676922865.6416614,-45.8984375,-42.96875,-48.828125,-30.2734375,0.0
1676922865.6454325,-44.921875,-43.9453125,-50.78125,-12.6953125,0.0
1676922865.6492038,-27.34375,-46.875,-52.24609375,-49.31640625,0.0
1676922865.652975,18.06640625,-41.9921875,-47.36328125,-36.62109375,0.0
1676922865.6567464,-19.04296875,-40.52734375,-43.45703125,-8.7890625,0.0
1676922865.6605177,-73.2421875,-47.36328125,-51.26953125,-34.1796875,0.0
1676922865.664289,-55.6640625,-47.8515625,-51.7578125,-48.33984375,0.0
1676922865.6680603,-41.9921875,-49.8046875,-42.48046875,-56.640625,0.0
1676922865.6730533,-45.41015625,-54.6875,-43.9453125,-50.78125,0.0
1676922865.6780462,-37.109375,-46.38671875,-45.41015625,-40.52734375,0.0
1676922865.683039,-11.23046875,-41.9921875,-43.9453125,-40.0390625,0.0
1676922865.688032,-4.39453125,-43.45703125,-45.41015625,-33.203125,0.0
1676922865.6930249,-15.625,-49.8046875,-47.36328125,-26.85546875,0.0
1676922865.6980176,-40.52734375,-50.29296875,-48.828125,-39.0625,0.0
1676922865.7030106,-24.90234375,-45.41015625,-47.36328125,-43.45703125,0.0
1676922865.7080035,4.39453125,-42.48046875,-39.55078125,-35.64453125,0.0
1676922865.7129965,0.48828125,-43.45703125,-43.9453125,-46.38671875,0.0
1676922865.7179894,-31.25,-49.31640625,-46.38671875,-28.80859375,0.0
1676922865.7229822,-41.50390625,-44.43359375,-43.45703125,-29.296875,0.0
1676922865.7279751,-4.8828125,-38.57421875,-38.57421875,-31.73828125,0.0
1676922865.7317152,-0.48828125,-46.38671875,-37.109375,-10.7421875,0.0
1676922865.735455,-44.43359375,-59.08203125,-43.45703125,-24.4140625,0.0
1676922865.739195,-60.05859375,-64.453125,-41.50390625,-35.15625,0.0
1676922865.7429352,-37.109375,-55.6640625,-40.0390625,-24.90234375,0.0
1676922865.7466753,-1.953125,-54.6875,-44.921875,-50.78125,0.0
1676922865.7504153,-24.90234375,-60.546875,-49.8046875,-48.33984375,0.0
1676922865.7541552,-42.96875,-54.6875,-39.55078125,-38.57421875,0.0
1676922865.7578952,-28.3203125,-50.29296875,-35.64453125,-43.9453125,0.0
1676922865.7616353,-13.671875,-56.15234375,-52.24609375,-26.85546875,0.0
1676922865.7653751,-14.6484375,-58.10546875,-49.31640625,-32.71484375,0.0
1676922865.7691152,-41.9921875,-54.19921875,-42.96875,-20.5078125,0.0
1676922865.7728553,-35.15625,-53.22265625,-45.8984375,-7.32421875,0.0
1676922865.7767096,-10.25390625,-55.17578125,-49.8046875,-39.55078125,0.0
1676922865.780564,-16.6015625,-54.19921875,-52.24609375,-36.62109375,0.0
1676922865.7844183,-40.52734375,-51.26953125,-44.43359375,-53.7109375,0.0
1676922865.7882726,-50.29296875,-52.734375,-47.8515625,-77.1484375,0.0
1676922865.7921271,-27.34375,-49.8046875,-48.828125,-47.36328125,0.0
1676922865.7959814,-15.625,-44.921875,-41.50390625,-12.20703125,0.0
1676922865.7998357,-36.1328125,-45.41015625,-42.48046875,-25.87890625,0.0
1676922865.8036902,-39.0625,-42.48046875,-41.9921875,-47.8515625,0.0
1676922865.8075445,-36.62109375,-42.96875,-43.45703125,-31.25,0.0
1676922865.8113987,-14.16015625,-44.921875,-41.50390625,-28.80859375,0.0
1676922865.8152533,-5.859375,-45.8984375,-37.59765625,-21.484375,0.0
1676922865.8191075,-30.76171875,-41.9921875,-41.015625,-20.99609375,0.0
1676922865.8227665,-25.87890625,-38.0859375,-44.43359375,-35.15625,0.0
1676922865.8264256,3.90625,-41.9921875,-45.8984375,-26.3671875,0.0
1676922865.8300843,5.37109375,-44.43359375,-45.41015625,-25.390625,0.0
1676922865.8337433,-7.32421875,-44.921875,-47.36328125,-7.8125,0.0
1676922865.8374023,-2.44140625,-43.45703125,-49.31640625,-29.296875,0.0
1676922865.8410614,13.18359375,-42.96875,-49.8046875,-49.8046875,0.0
1676922865.8447204,18.5546875,-39.55078125,-52.734375,-37.59765625,0.0
1676922865.8483794,-17.08984375,-39.0625,-54.19921875,-36.1328125,0.0
1676922865.8520384,-46.875,-39.55078125,-51.26953125,-25.87890625,0.0
1676922865.8556972,-39.0625,-33.69140625,-41.9921875,-39.0625,0.0
1676922865.8593562,-14.16015625,-33.69140625,-44.43359375,-39.0625,0.0
1676922865.8630152,-20.99609375,-41.9921875,-51.7578125,-15.13671875,0.0
1676922865.866762,-37.59765625,-49.31640625,-55.6640625,-36.62109375,0.0
1676922865.8705087,-49.8046875,-47.36328125,-59.08203125,-66.40625,0.0
1676922865.8742554,-46.38671875,-41.50390625,-58.59375,-62.01171875,0.0
1676922865.8780022,-42.48046875,-41.015625,-54.19921875,-40.52734375,0.0
1676922865.881749,-50.78125,-43.45703125,-57.12890625,-28.80859375,0.0
1676922865.8854957,-48.828125,-49.31640625,-55.6640625,-24.90234375,0.0
1676922865.8892426,-50.78125,-51.26953125,-48.828125,-38.0859375,0.0
1676922865.8929894,-30.2734375,-47.36328125,-56.640625,-33.69140625,0.0
1676922865.8967361,-20.99609375,-45.41015625,-60.05859375,-45.41015625,0.0
1676922865.900483,-68.359375,-44.43359375,-53.22265625,-79.1015625,0.0
1676922865.9042296,-69.82421875,-39.55078125,-50.29296875,-59.08203125,0.0
1676922865.9079764,-26.3671875,-41.9921875,-49.31640625,-46.875,0.0
1676922865.9117215,-39.55078125,-41.9921875,-43.45703125,-54.6875,0.0
1676922865.9154663,-65.4296875,-42.48046875,-41.50390625,-45.41015625,0.0
1676922865.9192114,-29.296875,-47.36328125,-48.33984375,-26.3671875,0.0
1676922865.9229565,-14.16015625,-51.7578125,-55.17578125,-34.1796875,0.0
1676922865.9267013,-44.43359375,-50.78125,-54.19921875,-53.7109375,0.0
1676922865.9304464,-59.08203125,-46.875,-49.8046875,-54.6875,0.0
1676922865.9341915,-39.55078125,-45.41015625,-50.29296875,-58.10546875,0.0
1676922865.9379363,4.39453125,-46.875,-57.6171875,-59.5703125,0.0
1676922865.9416814,-38.0859375,-49.8046875,-58.59375,-54.19921875,0.0
1676922865.9454265,-97.65625,-51.7578125,-62.01171875,-46.875,0.0
1676922865.9491713,-71.2890625,-50.78125,-60.546875,-55.17578125,0.0
1676922865.9529164,-24.90234375,-49.8046875,-55.6640625,-64.453125,0.0
1676922865.9567564,-11.23046875,-48.33984375,-57.12890625,-33.69140625,0.0
1676922865.9605963,-38.57421875,-45.8984375,-54.19921875,-21.97265625,0.0
1676922865.964436,-48.828125,-44.921875,-55.6640625,-51.7578125,0.0
1676922865.968276,-35.64453125,-42.48046875,-56.15234375,-49.8046875,0.0
1676922865.972116,-18.06640625,-45.8984375,-52.734375,-37.109375,0.0
1676922865.975956,-37.109375,-52.734375,-53.7109375,-26.3671875,0.0
1676922865.979796,-23.4375,-55.6640625,-53.22265625,-15.625,0.0
1676922865.983636,9.27734375,-46.875,-55.17578125,-20.01953125,0.0
1676922865.9874759,-3.41796875,-40.0390625,-55.6640625,-32.71484375,0.0
1676922865.9913156,-29.296875,-47.36328125,-59.08203125,4.39453125,0.0
1676922865.9951556,-53.7109375,-46.875,-62.5,11.71875,0.0
1676922865.9989955,-12.6953125,-42.48046875,-62.98828125,-44.921875,0.0
1676922866.0027769,12.6953125,-41.015625,-62.98828125,-48.828125,0.0
1676922866.0065584,-21.97265625,-39.55078125,-63.4765625,-27.83203125,0.0
1676922866.0103397,-30.2734375,-39.0625,-65.91796875,-33.203125,0.0
1676922866.014121,-27.34375,-40.52734375,-62.98828125,-37.59765625,0.0
1676922866.0179024,-17.578125,-43.45703125,-56.640625,-43.9453125,0.0
1676922866.0216837,-15.13671875,-40.52734375,-62.01171875,-33.203125,0.0
1676922866.0254653,-26.3671875,-41.015625,-70.3125,-13.671875,0.0
1676922866.0292466,-29.78515625,-43.9453125,-55.6640625,-43.9453125,0.0
1676922866.033028,-12.20703125,-40.0390625,-55.17578125,-51.7578125,0.0
1676922866.0368094,-7.32421875,-41.50390625,-59.5703125,-20.5078125,0.0
1676922866.0405908,-20.01953125,-41.9921875,-56.15234375,-6.34765625,0.0
1676922866.044372,-12.20703125,-37.59765625,-50.29296875,-8.7890625,0.0
1676922866.0492563,1.953125,-34.66796875,-48.828125,-35.64453125,0.0
1676922866.0541403,10.25390625,-37.59765625,-55.17578125,-55.6640625,0.0
1676922866.0590246,-4.8828125,-40.52734375,-54.6875,-37.59765625,0.0
1676922866.0639088,-19.53125,-38.0859375,-53.7109375,-20.99609375,0.0
1676922866.0687928,-8.30078125,-40.52734375,-54.19921875,-35.15625,0.0
1676922866.073677,-11.23046875,-43.9453125,-56.15234375,-17.578125,0.0
1676922866.0785613,-17.578125,-40.0390625,-56.15234375,-4.8828125,0.0
1676922866.0834453,-19.53125,-37.109375,-50.78125,-22.4609375,0.0
1676922866.0883296,-35.64453125,-40.52734375,-51.26953125,-26.3671875,0.0
1676922866.0932138,-24.4140625,-40.0390625,-55.6640625,-41.9921875,0.0
1676922866.0980978,-7.32421875,-42.48046875,-52.24609375,-44.921875,0.0
1676922866.102982,-22.4609375,-40.0390625,-53.7109375,-34.66796875,0.0
1676922866.1067333,-36.1328125,-37.109375,-51.7578125,-22.94921875,0.0
1676922866.1104846,-34.66796875,-41.9921875,-53.22265625,-26.85546875,0.0
1676922866.1142359,-17.578125,-42.96875,-56.640625,-32.71484375,0.0
1676922866.117987,-4.8828125,-38.57421875,-47.8515625,-36.62109375,0.0
1676922866.1217382,-29.296875,-40.52734375,-43.9453125,-5.859375,0.0
1676922866.1254895,-36.62109375,-41.9921875,-50.29296875,29.78515625,0.0
1676922866.1292408,-13.671875,-41.015625,-53.22265625,-7.32421875,0.0
1676922866.132992,-9.765625,-42.96875,-51.7578125,-30.76171875,0.0
1676922866.136743,-13.671875,-42.48046875,-55.6640625,-19.04296875,0.0
1676922866.1404943,-22.94921875,-39.0625,-52.24609375,-13.18359375,0.0
1676922866.1442456,-16.6015625,-44.921875,-43.45703125,-33.203125,0.0
1676922866.147997,-1.46484375,-44.921875,-49.8046875,-32.2265625,0.0
1676922866.151747,-12.6953125,-35.15625,-51.26953125,-6.34765625,0.0
1676922866.155497,-6.8359375,-40.52734375,-47.36328125,-12.6953125,0.0
1676922866.1592472,0.9765625,-48.33984375,-49.8046875,-22.4609375,0.0
1676922866.1629972,-7.32421875,-48.33984375,-52.734375,7.32421875,0.0
1676922866.1667473,-33.69140625,-52.24609375,-53.22265625,-15.625,0.0
1676922866.1704974,-59.08203125,-52.734375,-55.6640625,-31.25,0.0
1676922866.1742473,-35.64453125,-50.78125,-57.12890625,-31.73828125,0.0
1676922866.1779974,-19.04296875,-52.24609375,-54.6875,-37.109375,0.0
1676922866.1817474,-24.4140625,-57.12890625,-61.5234375,-26.3671875,0.0
1676922866.1854975,-37.109375,-55.17578125,-55.6640625,-52.24609375,0.0
1676922866.1892476,-42.96875,-53.22265625,-51.26953125,-40.52734375,0.0
1676922866.1929977,-25.390625,-49.8046875,-54.19921875,-14.6484375,0.0
1676922866.1967478,-21.484375,-43.9453125,-47.36328125,-6.8359375,0.0
1676922866.200498,-45.41015625,-48.828125,-49.8046875,-35.15625,0.0
1676922866.2042482,-36.1328125,-51.26953125,-54.6875,-57.12890625,0.0
1676922866.2079985,-26.3671875,-53.22265625,-55.17578125,-50.29296875,0.0
1676922866.2117486,-32.71484375,-52.734375,-57.6171875,-49.8046875,0.0
1676922866.215499,-44.43359375,-55.6640625,-57.6171875,-65.91796875,0.0
1676922866.219249,-50.29296875,-53.7109375,-50.29296875,-63.4765625,0.0
1676922866.222999,-22.4609375,-41.015625,-52.24609375,-28.3203125,0.0
1676922866.2267494,-4.8828125,-42.48046875,-54.19921875,-19.04296875,0.0
1676922866.2304995,-31.73828125,-45.8984375,-43.45703125,-19.04296875,0.0
1676922866.2342498,-31.25,-42.48046875,-44.43359375,-45.41015625,0.0
1676922866.238,3.41796875,-40.0390625,-51.26953125,-76.66015625,0.0
1676922866.2418425,2.9296875,-40.0390625,-49.31640625,-53.22265625,0.0
1676922866.245685,-38.57421875,-37.109375,-47.8515625,-30.76171875,0.0
1676922866.2495275,-55.17578125,-43.9453125,-48.33984375,-29.296875,0.0
1676922866.25337,-35.64453125,-52.734375,-45.41015625,-32.2265625,0.0
1676922866.2572126,-23.4375,-49.31640625,-50.29296875,-32.2265625,0.0
1676922866.261055,-14.6484375,-41.015625,-54.6875,-23.92578125,0.0
1676922866.2648976,-19.53125,-41.015625,-49.8046875,-40.52734375,0.0
1676922866.2687402,-34.1796875,-43.45703125,-48.33984375,-40.52734375,0.0
1676922866.2725828,-9.27734375,-45.41015625,-44.43359375,-29.78515625,0.0
1676922866.2764254,-15.625,-52.24609375,-42.96875,-59.08203125,0.0
1676922866.2802677,-48.33984375,-53.7109375,-53.22265625,-56.640625,0.0
1676922866.2841103,-39.0625,-45.41015625,-49.8046875,-45.41015625,0.0
1676922866.2877688,-20.01953125,-42.96875,-41.015625,-30.2734375,0.0
1676922866.2914274,-20.99609375,-38.57421875,-44.43359375,-5.37109375,0.0
1676922866.295086,-39.55078125,-35.15625,-45.8984375,-6.8359375,0.0
1676922866.2987447,-32.71484375,-38.0859375,-49.8046875,-28.3203125,0.0
1676922866.3024032,-24.90234375,-32.2265625,-55.6640625,-43.9453125,0.0
1676922866.3060617,-20.5078125,-36.62109375,-54.19921875,-41.9921875,0.0
1676922866.3097203,-14.6484375,-41.015625,-54.19921875,-9.765625,0.0
1676922866.3133788,-38.0859375,-43.45703125,-59.5703125,-2.9296875,0.0
1676922866.3170376,-23.4375,-48.33984375,-51.7578125,-30.76171875,0.0
1676922866.320696,-8.7890625,-44.921875,-50.29296875,-25.87890625,0.0
1676922866.3243546,-11.23046875,-42.96875,-50.29296875,-23.92578125,0.0
1676922866.3280132,-29.296875,-48.828125,-46.38671875,-29.78515625,0.0
1676922866.33173,-55.17578125,-53.22265625,-46.875,-26.85546875,0.0
1676922866.3354466,-33.69140625,-49.8046875,-51.26953125,-32.2265625,0.0
1676922866.3391633,-17.08984375,-52.24609375,-53.22265625,-22.4609375,0.0
1676922866.34288,-37.109375,-51.7578125,-50.78125,-31.25,0.0
1676922866.3465967,-58.59375,-40.52734375,-47.8515625,-37.109375,0.0
1676922866.3503134,-37.59765625,-40.52734375,-45.41015625,-23.92578125,0.0
1676922866.3540301,-29.296875,-42.48046875,-45.8984375,-40.52734375,0.0
1676922866.3577468,-22.94921875,-37.59765625,-44.921875,-22.94921875,0.0
1676922866.3614635,-23.4375,-41.50390625,-44.921875,-7.8125,0.0
1676922866.3651803,-31.73828125,-43.9453125,-47.8515625,-37.109375,0.0
1676922866.368897,-10.25390625,-44.43359375,-48.828125,-52.734375,0.0
1676922866.3726137,-21.97265625,-46.875,-44.921875,-31.73828125,0.0
1676922866.3763967,-44.921875,-42.48046875,-42.96875,-42.48046875,0.0
1676922866.3801796,-32.2265625,-42.48046875,-44.43359375,-36.62109375,0.0
1676922866.3839626,-13.671875,-44.43359375,-50.78125,-13.18359375,0.0
1676922866.3877456,-22.94921875,-41.50390625,-53.7109375,-41.015625,0.0
1676922866.3915286,-35.64453125,-41.50390625,-50.78125,-36.1328125,0.0
1676922866.3953114,-21.484375,-45.8984375,-58.59375,-19.53125,0.0
1676922866.3990943,-14.16015625,-51.7578125,-57.6171875,-29.78515625,0.0
1676922866.4028773,-13.18359375,-53.7109375,-47.8515625,-26.3671875,0.0
1676922866.4066603,-25.87890625,-51.26953125,-47.36328125,-17.578125,0.0
1676922866.4104433,-30.76171875,-47.8515625,-52.734375,-23.92578125,0.0
1676922866.4142263,-14.6484375,-41.50390625,-54.19921875,-7.8125,0.0
1676922866.4180093,-2.9296875,-39.55078125,-49.31640625,-9.27734375,0.0
1676922866.426738,-25.87890625,-42.48046875,-53.7109375,-58.10546875,0.0
1676922866.4354665,-47.36328125,-44.43359375,-66.40625,-41.9921875,0.0
1676922866.4441953,-26.3671875,-51.7578125,-67.3828125,-6.8359375,0.0
1676922866.452924,-16.6015625,-48.33984375,-50.29296875,-19.04296875,0.0
1676922866.4616525,-23.4375,-47.8515625,-42.96875,-27.83203125,0.0
1676922866.4703813,-34.1796875,-52.734375,-49.8046875,-38.57421875,0.0
1676922866.47911,-29.296875,-49.31640625,-44.43359375,-52.734375,0.0
1676922866.4878385,-20.5078125,-52.734375,-41.015625,-37.109375,0.0
1676922866.4965672,-6.34765625,-54.19921875,-45.8984375,-26.3671875,0.0
1676922866.505296,-24.4140625,-43.9453125,-45.8984375,-18.06640625,0.0
1676922866.5140245,-62.98828125,-45.41015625,-45.41015625,-25.390625,0.0
1676922866.5227532,-45.41015625,-48.33984375,-45.41015625,-47.8515625,0.0
1676922866.5242672,-22.4609375,-45.41015625,-51.7578125,-24.90234375,0.0
1676922866.525781,-34.66796875,-45.41015625,-51.26953125,-20.99609375,0.0
1676922866.5272949,-23.4375,-40.52734375,-41.9921875,-52.734375,0.0
1676922866.5288088,-9.765625,-41.015625,-43.9453125,-40.52734375,0.0
1676922866.5303226,-9.27734375,-43.9453125,-48.828125,-16.11328125,0.0
1676922866.5318365,-13.18359375,-46.38671875,-50.29296875,1.46484375,0.0
1676922866.5333505,-37.59765625,-46.38671875,-44.921875,-27.34375,0.0
1676922866.5348642,-49.31640625,-44.921875,-45.41015625,-41.9921875,0.0
1676922866.5363781,-28.80859375,-48.828125,-48.828125,-34.1796875,0.0
1676922866.537892,-23.4375,-50.78125,-44.921875,-46.875,0.0
1676922866.5394058,-40.52734375,-42.96875,-43.45703125,4.8828125,0.0
1676922866.5409198,-22.94921875,-44.921875,-45.41015625,18.5546875,0.0
1676922866.5431745,-15.625,-54.6875,-48.33984375,-35.64453125,0.0
1676922866.545429,-27.83203125,-53.7109375,-51.26953125,-47.8515625,0.0
1676922866.5476837,-47.8515625,-51.7578125,-54.6875,-54.19921875,0.0
1676922866.5499382,-45.8984375,-54.6875,-59.5703125,-45.41015625,0.0
1676922866.552193,-15.13671875,-49.8046875,-58.59375,-30.76171875,0.0
1676922866.5544477,-3.41796875,-40.0390625,-51.26953125,-7.32421875,0.0
1676922866.5567021,-33.69140625,-43.9453125,-48.33984375,-26.85546875,0.0
1676922866.5589569,-47.8515625,-52.734375,-48.828125,-40.52734375,0.0
1676922866.5612113,-14.6484375,-50.78125,-49.31640625,-36.1328125,0.0
1676922866.563466,-5.859375,-53.22265625,-51.26953125,-57.12890625,0.0
1676922866.5657206,-5.37109375,-54.6875,-50.78125,-33.69140625,0.0
1676922866.5679753,-12.20703125,-49.8046875,-54.6875,-20.01953125,0.0
1676922866.5717256,-31.73828125,-55.17578125,-65.4296875,-28.3203125,0.0
1676922866.5754757,-2.44140625,-59.5703125,-61.03515625,8.30078125,0.0
1676922866.579226,-5.37109375,-48.828125,-48.828125,-0.9765625,0.0
1676922866.582976,-26.3671875,-42.96875,-51.7578125,-58.59375,0.0
1676922866.5867264,-18.5546875,-43.45703125,-52.24609375,-52.24609375,0.0
1676922866.5904765,-12.6953125,-41.015625,-52.24609375,-43.45703125,0.0
1676922866.5942268,-9.27734375,-42.48046875,-57.12890625,-46.875,0.0
1676922866.5979772,-24.90234375,-44.921875,-56.15234375,-39.55078125,0.0
1676922866.6017272,-42.48046875,-42.48046875,-50.29296875,-11.23046875,0.0
1676922866.6054776,-14.6484375,-42.48046875,-45.8984375,-28.80859375,0.0
1676922866.6092277,-8.30078125,-44.921875,-47.8515625,-44.921875,0.0
1676922866.612978,-49.31640625,-45.8984375,-57.12890625,-10.7421875,0.0
1676922866.6167233,-64.453125,-48.33984375,-56.640625,-20.01953125,0.0
1676922866.6204686,-44.921875,-44.43359375,-47.8515625,-45.41015625,0.0
1676922866.624214,-12.20703125,-48.828125,-52.734375,-36.1328125,0.0
1676922866.6279593,13.18359375,-47.8515625,-53.7109375,-21.484375,0.0
1676922866.6317046,10.7421875,-41.015625,-52.734375,8.7890625,0.0
1676922866.63545,-33.203125,-39.55078125,-55.17578125,-21.484375,0.0
1676922866.639195,-53.22265625,-45.41015625,-53.7109375,-53.7109375,0.0
1676922866.6429403,-46.875,-46.38671875,-60.546875,-35.64453125,0.0
1676922866.6466856,-41.50390625,-40.0390625,-54.19921875,-41.015625,0.0
1676922866.650431,-39.0625,-47.36328125,-44.43359375,-32.71484375,0.0
1676922866.6541762,-15.625,-49.31640625,-44.43359375,-21.484375,0.0
1676922866.6579216,-9.765625,-44.921875,-39.55078125,-12.20703125,0.0
1676922866.661679,-27.83203125,-45.8984375,-39.0625,-25.390625,0.0
1676922866.6654363,-42.96875,-46.875,-40.0390625,-25.87890625,0.0
1676922866.6691937,-37.59765625,-48.33984375,-45.8984375,-19.04296875,0.0
1676922866.672951,-20.01953125,-48.33984375,-40.52734375,-45.41015625,0.0
1676922866.6767085,-49.31640625,-48.33984375,-38.57421875,-43.45703125,0.0
1676922866.6804657,-55.17578125,-47.36328125,-45.41015625,-22.4609375,0.0
1676922866.6842232,-21.97265625,-47.8515625,-47.8515625,-20.5078125,0.0
1676922866.6879807,0.48828125,-51.7578125,-50.78125,-33.69140625,0.0
1676922866.691738,-16.11328125,-57.12890625,-41.9921875,-34.66796875,0.0
1676922866.6954954,-47.8515625,-53.7109375,-41.50390625,-19.53125,0.0
1676922866.6992526,-41.015625,-50.29296875,-43.9453125,-29.296875,0.0
1676922866.70301,-19.04296875,-50.78125,-36.62109375,-20.01953125,0.0
1676922866.706844,-21.484375,-50.29296875,-38.57421875,-25.87890625,0.0
1676922866.710678,-38.0859375,-54.6875,-43.45703125,-40.52734375,0.0
1676922866.714512,-43.9453125,-51.7578125,-50.29296875,-29.296875,0.0
1676922866.718346,-24.90234375,-47.8515625,-47.8515625,-19.04296875,0.0
1676922866.7221801,-23.92578125,-47.36328125,-39.55078125,-10.7421875,0.0
1676922866.7260141,-54.6875,-48.828125,-43.9453125,-21.97265625,0.0
1676922866.7298484,-56.15234375,-52.734375,-47.8515625,-20.99609375,0.0
1676922866.7336824,-34.66796875,-55.6640625,-39.0625,-21.97265625,0.0
1676922866.7375164,-26.3671875,-53.22265625,-37.109375,-38.57421875,0.0
1676922866.7413504,-27.34375,-49.8046875,-39.0625,-7.8125,0.0
1676922866.7451844,-25.390625,-45.41015625,-29.78515625,14.16015625,0.0
1676922866.7490184,-31.25,-43.9453125,-37.109375,-24.90234375,0.0
1676922866.752682,-30.76171875,-46.875,-41.9921875,-55.6640625,0.0
1676922866.7563455,-59.08203125,-53.7109375,-42.48046875,-61.03515625,0.0
1676922866.7600088,-89.35546875,-53.22265625,-41.015625,-63.4765625,0.0
1676922866.7636724,-83.984375,-49.8046875,-34.66796875,-62.01171875,0.0
1676922866.767336,-76.66015625,-49.31640625,-44.921875,-75.1953125,0.0
1676922866.7709994,-101.5625,-53.7109375,-54.19921875,-77.63671875,0.0
1676922866.774663,-151.3671875,-58.59375,-55.6640625,-82.51953125,0.0
1676922866.7783265,-175.78125,-58.59375,-48.828125,-107.91015625,0.0
1676922866.78199,-158.69140625,-54.19921875,-55.17578125,-147.94921875,0.0
1676922866.7856534,-155.2734375,-52.24609375,-61.03515625,-191.40625,0.0
1676922866.789317,-210.44921875,-56.640625,-54.6875,-198.2421875,0.0
1676922866.7929804,-228.515625,-58.59375,-51.7578125,-194.3359375,0.0
1676922866.7979836,-198.2421875,-57.6171875,-57.12890625,-199.70703125,0.0
1676922866.802987,-183.10546875,-50.78125,-59.08203125,-191.40625,0.0
1676922866.8079903,-203.125,-51.7578125,-57.12890625,-176.7578125,0.0
1676922866.8129935,-220.703125,-59.08203125,-58.10546875,-189.94140625,0.0
1676922866.8179967,-179.6875,-60.546875,-59.5703125,-194.82421875,0.0
1676922866.823,-152.83203125,-58.59375,-55.17578125,-162.59765625,0.0
1676922866.8280034,-164.55078125,-56.640625,-55.17578125,-147.94921875,0.0
1676922866.8330066,-160.15625,-52.734375,-60.05859375,-124.51171875,0.0
1676922866.8380098,-148.4375,-57.12890625,-58.59375,-127.44140625,0.0
1676922866.8430133,-120.1171875,-62.5,-56.15234375,-121.09375,0.0
1676922866.8480165,-106.93359375,-64.94140625,-50.29296875,-97.16796875,0.0
1676922866.8530197,-119.140625,-63.4765625,-47.8515625,-106.93359375,0.0
1676922866.8567681,-106.93359375,-58.59375,-51.7578125,-92.7734375,0.0
1676922866.8605168,-76.66015625,-53.22265625,-49.8046875,-70.3125,0.0
1676922866.8642652,-47.8515625,-53.22265625,-47.8515625,-39.55078125,0.0
1676922866.8680139,-62.5,-55.6640625,-49.8046875,-36.62109375,0.0
1676922866.8717623,-61.03515625,-56.15234375,-56.640625,-67.3828125,0.0
1676922866.8755107,-22.4609375,-59.08203125,-57.6171875,-54.19921875,0.0
1676922866.8792593,-33.69140625,-56.640625,-49.31640625,-20.5078125,0.0
1676922866.8830078,-50.78125,-49.31640625,-45.41015625,-36.62109375,0.0
1676922866.8867564,-38.57421875,-47.8515625,-47.8515625,-31.73828125,0.0
1676922866.8905048,-26.3671875,-48.828125,-49.8046875,-17.578125,0.0
1676922866.8942535,-13.18359375,-44.43359375,-42.96875,-9.27734375,0.0
1676922866.898002,16.11328125,-42.48046875,-45.8984375,7.32421875,0.0
1676922866.9017518,6.34765625,-45.8984375,-51.7578125,0.48828125,0.0
1676922866.9055016,-20.99609375,-46.875,-45.8984375,-3.90625,0.0
1676922866.9092515,-6.8359375,-48.828125,-48.33984375,-20.99609375,0.0
1676922866.9130013,16.11328125,-48.828125,-48.33984375,7.32421875,0.0
1676922866.9167511,3.90625,-45.41015625,-45.41015625,73.73046875,0.0
1676922866.9205012,-16.11328125,-44.921875,-43.9453125,47.8515625,0.0
1676922866.924251,1.953125,-44.921875,-38.57421875,-2.9296875,0.0
1676922866.928001,22.94921875,-41.50390625,-34.1796875,28.80859375,0.0
1676922866.9317508,5.37109375,-43.9453125,-41.50390625,39.55078125,0.0
1676922866.9355006,6.34765625,-44.43359375,-39.0625,37.59765625,0.0
1676922866.9392505,31.25,-41.9921875,-34.1796875,65.91796875,0.0
1676922866.9430003,50.78125,-43.9453125,-39.0625,36.62109375,0.0
1676922866.9468687,40.0390625,-40.52734375,-46.38671875,-1.953125,0.0
1676922866.950737,-9.765625,-38.0859375,-50.78125,15.625,0.0
1676922866.954605,-4.39453125,-42.48046875,-43.9453125,35.64453125,0.0
1676922866.9584734,24.90234375,-43.9453125,-39.0625,39.0625,0.0
1676922866.9623418,24.4140625,-39.0625,-39.55078125,39.55078125,0.0
1676922866.9662101,16.6015625,-42.96875,-38.57421875,24.90234375,0.0
1676922866.9700785,14.16015625,-48.828125,-40.52734375,7.8125,0.0
1676922866.9739468,26.3671875,-46.38671875,-43.45703125,23.4375,0.0
1676922866.9778152,27.83203125,-46.875,-46.38671875,52.24609375,0.0
1676922866.9816833,14.6484375,-44.43359375,-41.015625,29.78515625,0.0
1676922866.9855516,14.6484375,-41.9921875,-39.0625,15.625,0.0
1676922866.98942,28.3203125,-42.48046875,-40.52734375,55.17578125,0.0
1676922866.9930503,48.33984375,-41.9921875,-39.55078125,25.390625,0.0
1676922866.996681,39.55078125,-42.48046875,-38.0859375,-2.44140625,0.0
1676922867.0003114,9.27734375,-45.41015625,-41.9921875,15.625,0.0
1676922867.0039418,13.18359375,-48.828125,-46.875,27.34375,0.0
1676922867.0075724,34.66796875,-45.41015625,-47.36328125,31.25,0.0
1676922867.0112028,44.43359375,-43.9453125,-44.921875,30.2734375,0.0
1676922867.0148332,19.53125,-47.8515625,-44.43359375,23.92578125,0.0
1676922867.0184639,2.9296875,-51.7578125,-49.31640625,48.33984375,0.0
1676922867.0220942,24.90234375,-48.828125,-50.29296875,55.6640625,0.0
1676922867.0257246,19.04296875,-52.734375,-44.921875,-6.8359375,0.0
1676922867.0293553,27.34375,-50.78125,-44.921875,-5.859375,0.0
1676922867.0329857,20.99609375,-44.43359375,-43.45703125,5.859375,0.0
1676922867.0367372,19.04296875,-40.0390625,-39.0625,39.0625,0.0
1676922867.0404887,49.31640625,-39.0625,-41.9921875,53.7109375,0.0
1676922867.0442402,28.80859375,-51.26953125,-42.96875,13.671875,0.0
1676922867.0479918,-4.39453125,-51.26953125,-43.45703125,-5.859375,0.0
1676922867.0517433,10.25390625,-49.8046875,-45.41015625,-22.94921875,0.0
1676922867.0554948,28.80859375,-48.828125,-50.78125,-18.06640625,0.0
1676922867.0592463,8.30078125,-41.9921875,-53.22265625,9.27734375,0.0
1676922867.0629978,-13.671875,-43.45703125,-45.8984375,42.48046875,0.0
1676922867.0667493,-1.953125,-41.9921875,-35.64453125,9.27734375,0.0
1676922867.0705009,14.16015625,-38.0859375,-36.1328125,-13.18359375,0.0
1676922867.0742524,15.625,-38.0859375,-47.8515625,5.859375,0.0
1676922867.078004,3.41796875,-34.66796875,-45.8984375,-5.859375,0.0
1676922867.0829732,14.6484375,-33.203125,-39.55078125,-8.30078125,0.0
1676922867.0879426,37.59765625,-34.66796875,-45.41015625,-1.46484375,0.0
1676922867.092912,17.578125,-42.96875,-48.828125,-5.859375,0.0
1676922867.0978813,-7.32421875,-46.875,-46.875,-3.41796875,0.0
1676922867.1028507,-8.30078125,-39.0625,-39.0625,12.6953125,0.0
1676922867.10782,10.25390625,-44.43359375,-43.45703125,-7.32421875,0.0
1676922867.1127892,8.7890625,-47.8515625,-47.8515625,-13.671875,0.0
1676922867.1177585,-19.04296875,-46.875,-41.015625,2.44140625,0.0
1676922867.1227279,-30.76171875,-49.31640625,-42.96875,10.7421875,0.0
1676922867.1276972,-16.11328125,-45.8984375,-49.31640625,9.765625,0.0
1676922867.1326666,1.46484375,-41.015625,-49.8046875,-13.18359375,0.0
1676922867.137636,-12.20703125,-43.45703125,-47.8515625,-17.578125,0.0
1676922867.1402595,-22.94921875,-46.38671875,-48.828125,-16.6015625,0.0
1676922867.1428828,-16.11328125,-46.38671875,-48.828125,-22.94921875,0.0
1676922867.1455064,-12.20703125,-49.31640625,-51.7578125,-22.94921875,0.0
1676922867.14813,-23.92578125,-52.734375,-52.734375,-16.6015625,0.0
1676922867.1507533,-29.78515625,-52.24609375,-49.8046875,-12.20703125,0.0
1676922867.1533768,-34.1796875,-52.734375,-51.26953125,-16.6015625,0.0
1676922867.1560004,-50.78125,-51.7578125,-51.26953125,-7.8125,0.0
1676922867.1586237,-37.59765625,-45.8984375,-46.875,-9.765625,0.0
1676922867.1612473,-32.2265625,-46.875,-46.875,-16.6015625,0.0
1676922867.1638708,-36.1328125,-46.38671875,-48.33984375,-0.9765625,0.0
1676922867.1664941,-16.11328125,-47.36328125,-50.29296875,-10.25390625,0.0
1676922867.1691177,-11.23046875,-45.41015625,-46.875,-44.43359375,0.0
1676922867.1741192,-30.2734375,-41.50390625,-48.33984375,-19.04296875,0.0
1676922867.1791205,-58.10546875,-44.43359375,-45.8984375,4.8828125,0.0
1676922867.184122,-38.57421875,-44.43359375,-42.96875,-15.625,0.0
1676922867.1891236,1.46484375,-39.0625,-45.8984375,-35.64453125,0.0
1676922867.194125,-8.7890625,-38.57421875,-46.875,-44.43359375,0.0
1676922867.1991265,-11.23046875,-45.8984375,-51.26953125,0.9765625,0.0
1676922867.204128,-13.18359375,-46.38671875,-42.96875,12.6953125,0.0
1676922867.2091293,-13.18359375,-41.50390625,-36.62109375,-19.04296875,0.0
1676922867.2141309,-21.484375,-42.96875,-41.015625,-14.16015625,0.0
1676922867.2191324,-52.24609375,-48.828125,-38.57421875,-26.3671875,0.0
1676922867.2241337,-40.52734375,-44.921875,-36.1328125,-30.2734375,0.0
1676922867.2291353,-27.83203125,-39.55078125,-34.1796875,-46.38671875,0.0
1676922867.2327983,-20.01953125,-43.45703125,-35.15625,-30.76171875,0.0
1676922867.2364616,-21.97265625,-44.921875,-38.0859375,-19.04296875,0.0
1676922867.2401247,-32.2265625,-46.875,-38.0859375,-39.0625,0.0
1676922867.243788,-15.625,-50.29296875,-43.45703125,-22.94921875,0.0
1676922867.247451,9.765625,-53.22265625,-47.8515625,-6.34765625,0.0
1676922867.2511144,-0.9765625,-47.8515625,-45.41015625,-8.30078125,0.0
1676922867.2547774,-26.3671875,-41.50390625,-45.41015625,-18.06640625,0.0
1676922867.2584405,-19.04296875,-43.9453125,-43.9453125,-42.96875,0.0
1676922867.2621038,-9.27734375,-45.41015625,-53.22265625,-65.91796875,0.0
1676922867.2657669,-6.34765625,-44.43359375,-59.08203125,-20.99609375,0.0
1676922867.2694302,-33.69140625,-47.36328125,-45.41015625,-16.11328125,0.0
1676922867.2730932,-41.9921875,-50.29296875,-44.43359375,-37.59765625,0.0
1676922867.2768347,-22.4609375,-50.78125,-46.38671875,-12.6953125,0.0
1676922867.280576,-14.16015625,-48.828125,-44.43359375,6.8359375,0.0
1676922867.2843175,-17.08984375,-40.52734375,-41.50390625,-27.83203125,0.0
1676922867.288059,-19.53125,-45.41015625,-41.50390625,-68.359375,0.0
1676922867.2918003,-2.44140625,-49.8046875,-47.36328125,-38.0859375,0.0
1676922867.2955418,-2.44140625,-46.38671875,-50.78125,-26.85546875,0.0
1676922867.2992833,-21.484375,-47.8515625,-48.828125,-18.5546875,0.0
1676922867.3030245,-43.9453125,-50.78125,-48.828125,-2.9296875,0.0
1676922867.306766,-27.83203125,-50.29296875,-53.7109375,-23.92578125,0.0
1676922867.3105075,-22.94921875,-53.7109375,-48.33984375,-51.26953125,0.0
1676922867.3142488,-48.33984375,-53.22265625,-44.921875,-47.36328125,0.0
1676922867.3179903,-45.41015625,-49.8046875,-48.33984375,-32.2265625,0.0
1676922867.32174,-17.578125,-50.78125,-44.921875,-23.92578125,0.0
1676922867.3254895,-1.953125,-52.24609375,-40.0390625,-33.203125,0.0
1676922867.3292394,-12.6953125,-50.29296875,-44.921875,-28.80859375,0.0
1676922867.332989,-25.390625,-46.875,-46.38671875,-5.859375,0.0
1676922867.3367386,-21.484375,-49.8046875,-45.8984375,-28.3203125,0.0
1676922867.3404882,-26.85546875,-55.6640625,-46.875,-52.734375,0.0
1676922867.3442378,-28.3203125,-58.10546875,-42.48046875,-37.59765625,0.0
1676922867.3479874,-33.203125,-57.12890625,-43.45703125,-11.71875,0.0
1676922867.351737,-44.43359375,-49.31640625,-47.8515625,-29.78515625,0.0
1676922867.3554869,-33.203125,-39.55078125,-48.33984375,-48.33984375,0.0
1676922867.3592365,-19.04296875,-38.0859375,-53.22265625,-28.80859375,0.0
1676922867.362986,-29.78515625,-45.8984375,-55.6640625,-50.78125,0.0
1676922867.3667207,-47.36328125,-42.96875,-53.7109375,-61.5234375,0.0
1676922867.3704553,-34.1796875,-36.1328125,-49.31640625,-56.15234375,0.0
1676922867.3741899,-20.99609375,-38.0859375,-50.29296875,-41.9921875,0.0
1676922867.3779244,0.9765625,-39.55078125,-49.8046875,-7.32421875,0.0
1676922867.381659,-24.4140625,-37.109375,-47.8515625,-15.625,0.0
1676922867.3853936,-59.5703125,-37.59765625,-49.31640625,-47.8515625,0.0
1676922867.389128,-25.87890625,-39.55078125,-49.31640625,-37.109375,0.0
1676922867.3928626,-14.6484375,-36.62109375,-53.22265625,-29.78515625,0.0
1676922867.3965971,-39.0625,-38.57421875,-48.828125,-37.109375,0.0
1676922867.4003317,-39.55078125,-42.96875,-48.33984375,-39.0625,0.0
1676922867.4040663,-10.25390625,-45.41015625,-54.19921875,-32.2265625,0.0
1676922867.407801,1.46484375,-48.828125,-55.17578125,-20.5078125,0.0
1676922867.4116683,-21.97265625,-46.875,-52.734375,-6.8359375,0.0
1676922867.4155354,-45.8984375,-45.8984375,-55.17578125,-23.92578125,0.0
1676922867.4194028,-29.78515625,-49.8046875,-58.10546875,-49.8046875,0.0
1676922867.4232702,-19.04296875,-43.9453125,-54.19921875,-54.6875,0.0
1676922867.4271376,-41.9921875,-40.52734375,-49.31640625,-44.43359375,0.0
1676922867.431005,-55.17578125,-45.8984375,-51.26953125,-23.4375,0.0
1676922867.4348722,-43.45703125,-45.41015625,-58.10546875,-33.203125,0.0
1676922867.4387395,-19.53125,-47.8515625,-56.640625,-47.8515625,0.0
1676922867.442607,-41.50390625,-54.19921875,-48.828125,-41.015625,0.0
1676922867.446474,-55.6640625,-52.24609375,-52.24609375,-41.9921875,0.0
1676922867.4503415,-14.6484375,-46.38671875,-52.734375,-11.71875,0.0
1676922867.4542089,-2.9296875,-49.31640625,-48.828125,-37.109375,0.0
1676922867.457857,-35.64453125,-53.7109375,-48.33984375,-57.12890625,0.0
1676922867.461505,-55.17578125,-48.828125,-47.8515625,-46.38671875,0.0
1676922867.4651532,-50.29296875,-44.43359375,-47.36328125,-27.83203125,0.0
1676922867.4688013,-27.83203125,-45.8984375,-49.31640625,-25.390625,0.0
1676922867.4724493,-15.625,-46.875,-48.828125,-20.99609375,0.0
1676922867.4760976,-31.25,-42.48046875,-47.8515625,-3.90625,0.0
1676922867.4797456,-34.66796875,-39.0625,-53.22265625,-0.9765625,0.0
1676922867.4833937,-38.0859375,-40.52734375,-47.36328125,-26.3671875,0.0
1676922867.4870417,-21.97265625,-47.8515625,-42.96875,-52.24609375,0.0
1676922867.4906898,-6.8359375,-47.8515625,-51.26953125,-41.015625,0.0
1676922867.494338,-22.4609375,-41.50390625,-51.7578125,-31.25,0.0
1676922867.497986,-9.765625,-43.45703125,-49.8046875,-25.390625,0.0
1676922867.501737,-5.37109375,-52.24609375,-49.31640625,-32.2265625,0.0
1676922867.5054884,-18.5546875,-51.7578125,-48.33984375,-24.90234375,0.0
1676922867.5092394,-21.97265625,-47.8515625,-50.29296875,6.34765625,0.0
1676922867.5129907,-36.62109375,-49.31640625,-49.31640625,-14.6484375,0.0
1676922867.5167418,-14.6484375,-46.38671875,-48.828125,-40.0390625,0.0
1676922867.520493,-18.06640625,-43.9453125,-55.17578125,-18.06640625,0.0
1676922867.524244,-50.29296875,-46.38671875,-52.734375,-24.90234375,0.0
1676922867.527995,-41.50390625,-46.38671875,-46.38671875,-25.87890625,0.0
1676922867.5317464,-3.41796875,-43.45703125,-43.45703125,-20.5078125,0.0
1676922867.5354974,7.8125,-43.9453125,-47.36328125,-10.25390625,0.0
1676922867.5392487,-33.69140625,-45.8984375,-54.6875,-16.6015625,0.0
1676922867.5429997,-72.265625,-46.38671875,-47.8515625,-38.0859375,0.0
1676922867.5480013,-47.36328125,-41.9921875,-47.36328125,-26.3671875,0.0
1676922867.5530028,-29.78515625,-39.55078125,-47.8515625,-15.13671875,0.0
1676922867.5580044,-44.43359375,-42.48046875,-48.33984375,-43.9453125,0.0
1676922867.563006,-52.24609375,-48.33984375,-47.8515625,-55.17578125,0.0
1676922867.5680075,-28.3203125,-58.10546875,-41.50390625,-39.0625,0.0
1676922867.573009,-10.25390625,-55.17578125,-40.52734375,-10.25390625,0.0
1676922867.5780106,-37.109375,-49.8046875,-45.8984375,-16.11328125,0.0
1676922867.583012,-43.45703125,-49.31640625,-53.22265625,-35.64453125,0.0
1676922867.5880136,-46.38671875,-47.8515625,-61.5234375,-52.734375,0.0
1676922867.5930152,-41.50390625,-46.875,-67.3828125,-94.7265625,0.0
1676922867.5980167,-38.0859375,-41.015625,-72.265625,-76.66015625,0.0
1676922867.6030183,-47.36328125,-35.15625,-76.66015625,-48.33984375,0.0
1676922867.6067662,-54.19921875,-29.296875,-74.70703125,-41.9921875,0.0
1676922867.610514,-37.59765625,-19.53125,-81.0546875,-56.640625,0.0
1676922867.6142619,-14.16015625,-17.08984375,-78.125,-67.87109375,0.0
1676922867.6180096,-33.69140625,-20.01953125,-80.56640625,-83.0078125,0.0
1676922867.6217575,-58.10546875,-21.484375,-87.40234375,-63.4765625,0.0
1676922867.6255054,-31.25,-20.5078125,-83.0078125,-56.640625,0.0
1676922867.6292531,-15.625,-17.08984375,-75.1953125,-62.5,0.0
1676922867.633001,-28.80859375,-21.484375,-70.3125,-48.33984375,0.0
1676922867.6367488,-27.83203125,-23.4375,-75.1953125,-32.71484375,0.0
1676922867.6404967,-11.71875,-21.97265625,-74.70703125,-29.78515625,0.0
1676922867.6442444,7.8125,-21.484375,-64.453125,-43.45703125,0.0
1676922867.6479924,-4.39453125,-25.87890625,-62.98828125,-45.41015625,0.0
1676922867.6518438,-29.78515625,-31.73828125,-67.3828125,-44.43359375,0.0
1676922867.6556952,-22.94921875,-33.203125,-64.94140625,-17.08984375,0.0
1676922867.6595464,10.7421875,-31.73828125,-59.5703125,-7.32421875,0.0
1676922867.6633978,22.4609375,-25.390625,-58.10546875,-32.2265625,0.0
1676922867.6672492,-29.78515625,-28.80859375,-62.98828125,-38.0859375,0.0
1676922867.6711006,-42.96875,-35.15625,-67.3828125,-27.83203125,0.0
1676922867.674952,-5.37109375,-32.2265625,-57.6171875,-1.46484375,0.0
1676922867.6788034,8.7890625,-28.3203125,-52.734375,-5.37109375,0.0
1676922867.6826549,-6.34765625,-33.69140625,-65.4296875,-20.01953125,0.0
1676922867.686506,-18.06640625,-37.109375,-62.98828125,-31.25,0.0
1676922867.6903574,3.41796875,-29.78515625,-62.01171875,-43.45703125,0.0
1676922867.6942089,22.4609375,-31.25,-64.94140625,-25.390625,0.0
1676922867.6978602,2.9296875,-38.0859375,-62.98828125,-18.5546875,0.0
1676922867.7015114,-28.80859375,-42.48046875,-62.01171875,-27.83203125,0.0
1676922867.7051628,-19.04296875,-49.31640625,-57.12890625,-18.06640625,0.0
1676922867.7088141,-12.20703125,-50.78125,-62.98828125,13.18359375,0.0
1676922867.7124655,17.578125,-42.48046875,-61.5234375,-13.671875,0.0
1676922867.716117,10.25390625,-39.55078125,-56.640625,-53.7109375,0.0
1676922867.719768,-44.43359375,-42.48046875,-57.12890625,-46.38671875,0.0
1676922867.7234194,-36.1328125,-41.50390625,-63.96484375,-42.48046875,0.0
1676922867.7270708,-7.32421875,-41.9921875,-65.91796875,-23.92578125,0.0
1676922867.730722,-15.625,-42.48046875,-56.15234375,-9.765625,0.0
1676922867.7343733,-30.76171875,-39.55078125,-55.17578125,-18.5546875,0.0
1676922867.7380247,-11.23046875,-36.1328125,-54.19921875,-34.66796875,0.0
1676922867.7417731,1.953125,-37.59765625,-55.6640625,-16.6015625,0.0
1676922867.7455215,-20.5078125,-38.57421875,-57.6171875,1.46484375,0.0
1676922867.74927,-43.9453125,-37.59765625,-61.5234375,-28.3203125,0.0
1676922867.7530184,-31.25,-47.8515625,-65.91796875,-53.7109375,0.0
1676922867.7567668,-20.5078125,-49.8046875,-57.12890625,-54.6875,0.0
1676922867.7605152,5.859375,-37.109375,-56.640625,-30.2734375,0.0
1676922867.7642636,12.20703125,-37.109375,-58.10546875,-26.3671875,0.0
1676922867.768012,-47.36328125,-49.8046875,-63.4765625,-3.41796875,0.0
1676922867.7717605,-63.96484375,-49.31640625,-62.98828125,-20.99609375,0.0
1676922867.7755089,-30.76171875,-41.015625,-52.24609375,-48.33984375,0.0
1676922867.7792573,-40.52734375,-39.55078125,-56.15234375,-32.2265625,0.0
1676922867.7830057,-48.828125,-38.57421875,-61.5234375,-46.38671875,0.0
1676922867.7867558,-20.01953125,-40.52734375,-54.19921875,-67.87109375,0.0
1676922867.790506,8.30078125,-38.0859375,-45.41015625,-61.5234375,0.0
1676922867.794256,-26.85546875,-36.1328125,-49.8046875,-46.38671875,0.0
1676922867.798006,-62.98828125,-45.41015625,-52.24609375,-40.52734375,0.0
1676922867.8017561,-47.8515625,-51.26953125,-53.22265625,-44.43359375,0.0
1676922867.8055062,-47.36328125,-48.33984375,-55.6640625,-62.5,0.0
1676922867.8092563,-56.15234375,-49.8046875,-56.15234375,-58.59375,0.0
1676922867.8130064,-51.26953125,-51.26953125,-54.6875,-51.7578125,0.0
1676922867.8167565,-34.1796875,-49.8046875,-48.33984375,-58.59375,0.0
1676922867.8205066,-17.578125,-51.7578125,-55.17578125,-49.31640625,0.0
1676922867.8242567,-20.5078125,-51.26953125,-60.05859375,-20.99609375,0.0
1676922867.8280067,-27.83203125,-47.8515625,-59.08203125,-44.921875,0.0
1676922867.8318334,-32.71484375,-42.96875,-56.15234375,-56.15234375,0.0
1676922867.83566,-24.4140625,-42.48046875,-51.26953125,-27.34375,0.0
1676922867.8394864,-29.78515625,-45.8984375,-51.7578125,-37.59765625,0.0
1676922867.843313,-62.01171875,-43.9453125,-48.33984375,-44.43359375,0.0
1676922867.8471396,-70.3125,-42.48046875,-47.36328125,-35.64453125,0.0
1676922867.850966,-33.203125,-41.015625,-53.7109375,-45.41015625,0.0
1676922867.8547926,10.7421875,-39.0625,-61.03515625,-44.921875,0.0
1676922867.8586192,-16.6015625,-34.1796875,-55.17578125,-24.4140625,0.0
1676922867.8624458,-56.640625,-32.71484375,-54.6875,-40.0390625,0.0
1676922867.8662724,-35.15625,-37.109375,-56.640625,-37.59765625,0.0
1676922867.8700988,-20.99609375,-40.52734375,-48.828125,-13.18359375,0.0
1676922867.8739254,-29.78515625,-42.96875,-49.31640625,-23.4375,0.0
1676922867.8788667,-33.69140625,-41.50390625,-58.59375,-35.15625,0.0
1676922867.8838081,-23.92578125,-38.57421875,-60.05859375,-26.85546875,0.0
1676922867.8887494,-18.06640625,-42.96875,-57.6171875,-43.9453125,0.0
1676922867.8936906,-30.76171875,-43.9453125,-57.12890625,-31.25,0.0
1676922867.898632,-43.9453125,-42.96875,-55.17578125,-18.06640625,0.0
1676922867.9035733,-27.83203125,-36.62109375,-59.08203125,-29.296875,0.0
1676922867.9085145,-26.85546875,-35.15625,-61.03515625,-45.41015625,0.0
1676922867.913456,-31.25,-41.9921875,-55.17578125,-57.12890625,0.0
