timestamps,TP9,Fp1,Fp2,TP10,stim
1676921971.6951535,-43.45703125,-35.64453125,-14.16015625,-34.1796875,0.0
1676921971.698898,-40.0390625,-35.15625,-28.3203125,41.015625,0.0
1676921971.702643,-34.1796875,-30.2734375,-23.92578125,80.078125,0.0
1676921971.7063875,-30.2734375,-36.1328125,-22.94921875,24.90234375,0.0
1676921971.7102368,-24.90234375,-24.4140625,-16.6015625,-24.90234375,0.0
1676921971.7140863,-22.94921875,-12.6953125,-20.99609375,7.32421875,0.0
1676921971.7179356,-35.64453125,-26.3671875,-25.390625,83.0078125,0.0
1676921971.721785,-23.92578125,-18.5546875,-22.94921875,60.05859375,0.0
1676921971.7256343,-21.97265625,-17.578125,-18.5546875,-20.99609375,0.0
1676921971.7294836,-45.41015625,-45.8984375,-28.3203125,-11.23046875,0.0
1676921971.733333,-67.87109375,-62.98828125,-42.48046875,61.5234375,0.0
1676921971.7371824,-53.7109375,-47.36328125,-19.53125,58.59375,0.0
1676921971.741032,-32.2265625,-23.92578125,-12.20703125,-10.7421875,0.0
1676921971.7448812,-27.83203125,-25.390625,-14.6484375,-13.18359375,0.0
1676921971.7487307,-29.296875,-24.4140625,-10.7421875,61.03515625,0.0
1676921971.75258,-36.62109375,-30.2734375,-21.484375,69.3359375,0.0
1676921971.757485,-40.0390625,-32.2265625,-27.34375,-3.41796875,0.0
1676921971.7623901,-50.29296875,-21.484375,-42.48046875,-44.43359375,0.0
1676921971.7672951,-46.38671875,-25.390625,-43.9453125,10.25390625,0.0
1676921971.7722,-22.94921875,-11.71875,-11.23046875,73.73046875,0.0
1676921971.7771053,-29.78515625,-26.85546875,1.46484375,27.83203125,0.0
1676921971.7820103,-47.8515625,-62.5,-20.5078125,-33.69140625,0.0
1676921971.7869153,-20.5078125,-30.76171875,-14.16015625,10.7421875,0.0
1676921971.7918205,-18.06640625,-11.71875,-1.953125,64.453125,0.0
1676921971.7967255,-30.2734375,-18.5546875,-0.9765625,36.62109375,0.0
1676921971.8016305,-37.59765625,-51.26953125,-15.625,-49.8046875,0.0
1676921971.8065357,-56.640625,-68.84765625,-36.1328125,-58.59375,0.0
1676921971.8114407,-50.78125,-26.3671875,-31.25,25.87890625,0.0
1676921971.8164387,-47.8515625,-9.765625,-26.85546875,21.484375,0.0
1676921971.8214366,-54.19921875,-29.296875,-28.3203125,-63.4765625,0.0
1676921971.8264346,-47.8515625,-42.48046875,-13.671875,-74.21875,0.0
1676921971.8314326,-42.96875,-28.3203125,-17.08984375,-2.44140625,0.0
1676921971.8364305,-36.62109375,-12.6953125,-25.87890625,19.53125,0.0
1676921971.8414283,-21.484375,-16.11328125,-7.32421875,-25.87890625,0.0
1676921971.8464262,-26.85546875,-22.4609375,-5.37109375,-84.9609375,0.0
1676921971.8514242,-43.9453125,-28.3203125,-19.53125,-47.8515625,0.0
1676921971.8564222,-55.17578125,-38.57421875,-17.578125,17.578125,0.0
1676921971.8614202,-44.43359375,-37.109375,-11.71875,-6.34765625,0.0
1676921971.8664181,-47.8515625,-25.87890625,-17.08984375,-81.54296875,0.0
1676921971.871416,-53.22265625,-46.38671875,-17.578125,-70.3125,0.0
1676921971.8739257,-45.41015625,-46.875,-14.6484375,19.53125,0.0
1676921971.8764353,-42.96875,-32.2265625,-1.953125,11.71875,0.0
1676921971.878945,-56.15234375,-48.828125,-5.859375,-80.078125,0.0
1676921971.8814547,-28.80859375,-33.69140625,-11.23046875,-59.5703125,0.0
1676921971.8839643,-28.3203125,-14.16015625,-10.25390625,28.3203125,0.0
1676921971.8864741,-47.8515625,-37.109375,-41.50390625,16.6015625,0.0
1676921971.8889837,-49.8046875,-54.6875,-54.19921875,-66.89453125,0.0
1676921971.8914933,-46.38671875,-34.1796875,-23.4375,-76.171875,0.0
1676921971.894003,-30.2734375,-35.64453125,-13.18359375,4.39453125,0.0
1676921971.8965125,-20.99609375,-19.53125,-5.859375,44.921875,0.0
1676921971.8990223,-24.4140625,-20.5078125,-7.32421875,-14.16015625,0.0
1676921971.901532,-17.578125,-39.55078125,-18.5546875,-62.01171875,0.0
1676921971.9052658,1.953125,-18.5546875,-0.9765625,24.4140625,0.0
1676921971.9089997,-25.87890625,-22.94921875,-10.7421875,46.875,0.0
1676921971.9127336,-41.50390625,-32.71484375,-35.64453125,-22.4609375,0.0
1676921971.9164677,-23.92578125,-22.4609375,-15.13671875,-69.3359375,0.0
1676921971.9202015,-0.9765625,-27.83203125,-5.859375,-30.2734375,0.0
1676921971.9239354,-19.53125,-62.01171875,-33.69140625,38.0859375,0.0
1676921971.9276693,-31.73828125,-29.78515625,-28.80859375,21.484375,0.0
1676921971.9314032,-16.6015625,1.46484375,1.953125,-41.9921875,0.0
1676921971.9351373,-2.9296875,4.8828125,11.23046875,-29.78515625,0.0
1676921971.9388711,-23.4375,-34.66796875,-24.90234375,41.9921875,0.0
1676921971.942605,-37.59765625,-62.01171875,-43.9453125,29.78515625,0.0
1676921971.946339,-27.83203125,-35.15625,-26.3671875,-33.203125,0.0
1676921971.950196,-16.11328125,-5.859375,-3.90625,-35.15625,0.0
1676921971.9540532,-20.5078125,-24.4140625,-10.25390625,29.296875,0.0
1676921971.95791,-26.3671875,-60.546875,-25.87890625,57.6171875,0.0
1676921971.9617672,-30.2734375,-40.0390625,-40.0390625,-0.48828125,0.0
1676921971.9656243,-23.92578125,-8.30078125,-33.203125,-54.6875,0.0
1676921971.9694815,-28.80859375,0.48828125,-32.2265625,-3.90625,0.0
1676921971.9733386,-33.203125,-7.32421875,-22.4609375,67.3828125,0.0
1676921971.9771957,-46.875,-40.0390625,-20.01953125,29.296875,0.0
1676921971.9810529,-28.80859375,-37.109375,-16.11328125,-49.8046875,0.0
1676921971.9849098,-28.3203125,-24.4140625,-12.20703125,-41.50390625,0.0
1676921971.988767,-41.9921875,-25.390625,-8.7890625,42.96875,0.0
1676921971.992624,-45.41015625,-48.33984375,-34.1796875,27.34375,0.0
1676921971.9962738,-56.15234375,-46.38671875,-46.38671875,-66.89453125,0.0
1676921971.9999235,-30.76171875,-1.953125,-20.01953125,-50.29296875,0.0
1676921972.0035732,-25.390625,-5.37109375,-27.34375,36.1328125,0.0
1676921972.007223,-68.84765625,-46.875,-43.9453125,29.296875,0.0
1676921972.0108726,-74.21875,-27.34375,-34.66796875,-35.64453125,0.0
1676921972.0145226,-30.76171875,-17.578125,-13.671875,-56.640625,0.0
1676921972.0181723,-23.4375,-45.41015625,-8.30078125,20.01953125,0.0
1676921972.021822,-58.59375,-41.50390625,-27.83203125,56.640625,0.0
1676921972.0254717,-62.98828125,-33.69140625,-32.2265625,-7.32421875,0.0
1676921972.0291214,-47.8515625,-23.92578125,-26.3671875,-55.6640625,0.0
1676921972.032771,-51.7578125,-20.5078125,-37.109375,-18.06640625,0.0
1676921972.0364208,-59.5703125,-47.36328125,-38.57421875,45.41015625,0.0
1676921972.0401647,-56.640625,-25.390625,-24.90234375,22.4609375,0.0
1676921972.0439088,-55.17578125,-9.765625,-10.7421875,-59.5703125,0.0
1676921972.0476527,-54.19921875,-37.59765625,-28.3203125,-54.19921875,0.0
1676921972.0513968,-61.5234375,-28.80859375,-25.87890625,43.9453125,0.0
1676921972.0551407,-49.8046875,-51.26953125,-11.71875,26.3671875,0.0
1676921972.0588846,-47.8515625,-52.24609375,-29.78515625,-48.33984375,0.0
1676921972.0626287,-53.7109375,-21.484375,-45.8984375,-52.734375,0.0
1676921972.0663726,-42.96875,-23.92578125,-41.50390625,10.25390625,0.0
1676921972.0701168,-26.85546875,-24.90234375,0.9765625,55.6640625,0.0
1676921972.0738606,-32.2265625,-16.11328125,10.7421875,-10.7421875,0.0
1676921972.0776048,-62.5,-16.11328125,-18.5546875,-62.98828125,0.0
1676921972.0813487,-58.59375,-21.484375,-33.69140625,-7.8125,0.0
1676921972.085113,-56.15234375,-46.875,-43.45703125,29.78515625,0.0
1676921972.0888777,-56.640625,-49.31640625,-31.73828125,-9.27734375,0.0
1676921972.0926423,-30.76171875,-19.04296875,-10.25390625,-55.6640625,0.0
1676921972.0964067,-30.2734375,-31.73828125,-26.3671875,-34.66796875,0.0
1676921972.100171,-55.6640625,-44.43359375,-41.015625,24.4140625,0.0
1676921972.1039357,-64.94140625,-24.4140625,-34.1796875,30.76171875,0.0
1676921972.1077003,-50.78125,-12.20703125,-37.109375,-43.45703125,0.0
1676921972.1114647,-44.43359375,-44.43359375,-43.45703125,-56.640625,0.0
1676921972.1152291,-44.921875,-46.875,-30.2734375,32.2265625,0.0
1676921972.1189938,-49.8046875,-28.80859375,-18.06640625,42.48046875,0.0
1676921972.1227584,-42.48046875,-16.6015625,-2.44140625,-19.04296875,0.0
1676921972.1265228,-23.4375,-4.8828125,9.765625,-33.69140625,0.0
1676921972.1315172,-20.99609375,-18.5546875,-6.8359375,42.96875,0.0
1676921972.1365116,-27.34375,-22.4609375,-24.4140625,73.73046875,0.0
1676921972.1415062,-22.94921875,6.8359375,-5.37109375,13.671875,0.0
1676921972.1465006,-18.06640625,14.16015625,3.90625,-30.2734375,0.0
1676921972.151495,-47.8515625,-24.90234375,-37.109375,-1.46484375,0.0
1676921972.1564894,-63.4765625,-43.45703125,-46.875,58.59375,0.0
1676921972.1614838,-59.5703125,-55.6640625,-16.6015625,22.4609375,0.0
1676921972.1664782,-50.29296875,-34.1796875,-9.765625,-53.7109375,0.0
1676921972.1714725,-21.484375,11.23046875,-21.97265625,-8.30078125,0.0
1676921972.1764672,-25.87890625,10.25390625,-3.90625,89.35546875,0.0
1676921972.1814616,-23.92578125,7.8125,13.671875,65.4296875,0.0
1676921972.186456,-39.0625,0.0,-9.765625,-31.25,0.0
1676921972.1902494,-62.01171875,-41.50390625,-36.1328125,-49.31640625,0.0
1676921972.1940432,-53.7109375,-54.19921875,-35.15625,33.203125,0.0
1676921972.1978369,-44.43359375,-40.0390625,-17.578125,50.29296875,0.0
1676921972.2016304,-51.7578125,-60.05859375,-19.53125,-29.78515625,0.0
1676921972.2054238,-46.38671875,-56.15234375,-14.6484375,-40.0390625,0.0
1676921972.2092175,-39.55078125,-18.06640625,-17.08984375,41.50390625,0.0
1676921972.2130113,-39.55078125,-8.7890625,-13.671875,74.70703125,0.0
1676921972.2168047,-42.48046875,-6.8359375,-7.32421875,11.23046875,0.0
1676921972.2205982,-42.96875,-5.859375,-18.5546875,-37.109375,0.0
1676921972.224392,-52.734375,-41.015625,-20.5078125,-0.9765625,0.0
1676921972.2281857,-67.87109375,-58.10546875,-11.23046875,44.921875,0.0
1676921972.2319791,-64.94140625,-72.265625,-14.16015625,11.23046875,0.0
1676921972.2357414,-53.7109375,-47.36328125,-25.390625,-62.5,0.0
1676921972.2395036,-55.6640625,-1.953125,-18.5546875,-32.71484375,0.0
1676921972.2432656,-31.25,0.0,-14.16015625,53.22265625,0.0
1676921972.2470279,-24.4140625,-25.87890625,-29.296875,30.76171875,0.0
1676921972.25079,-35.15625,-24.4140625,-20.01953125,-52.24609375,0.0
1676921972.2545524,-48.828125,-34.66796875,-20.99609375,-58.10546875,0.0
1676921972.2583146,-62.98828125,-42.96875,-30.76171875,20.99609375,0.0
1676921972.2620769,-59.5703125,-33.203125,-19.04296875,29.78515625,0.0
1676921972.265839,-55.17578125,-22.4609375,-25.87890625,-27.83203125,0.0
1676921972.269601,-70.80078125,-46.875,-35.15625,-83.0078125,0.0
1676921972.2733634,-62.5,-50.78125,-20.01953125,-29.296875,0.0
1676921972.2771256,-31.73828125,-7.32421875,-10.25390625,36.62109375,0.0
1676921972.2808564,-39.0625,-20.01953125,-25.390625,-24.4140625,0.0
1676921972.2845871,-53.22265625,-25.87890625,-34.1796875,-95.21484375,0.0
1676921972.2883177,-50.29296875,-22.4609375,-33.69140625,-46.38671875,0.0
1676921972.2920485,-58.59375,-55.6640625,-43.9453125,17.578125,0.0
1676921972.2957792,-37.59765625,-31.73828125,-24.90234375,6.8359375,0.0
1676921972.29951,-20.01953125,-9.27734375,9.27734375,-42.96875,0.0
1676921972.3032408,-45.41015625,-35.15625,4.8828125,-52.24609375,0.0
1676921972.3069715,-64.94140625,-36.62109375,-18.5546875,11.71875,0.0
1676921972.3107023,-76.171875,-39.0625,-43.45703125,13.18359375,0.0
1676921972.3144329,-61.03515625,-43.45703125,-40.0390625,-70.3125,0.0
1676921972.3181636,-41.9921875,-39.55078125,-20.99609375,-80.56640625,0.0
1676921972.3218944,-35.64453125,-41.9921875,-28.80859375,7.32421875,0.0
1676921972.325603,-39.0625,-21.97265625,-22.94921875,40.52734375,0.0
1676921972.3293116,-38.0859375,-11.71875,-19.04296875,-18.5546875,0.0
1676921972.3330202,-27.83203125,-30.2734375,-24.4140625,-70.80078125,0.0
1676921972.3367288,-26.85546875,-27.83203125,0.9765625,7.32421875,0.0
1676921972.3404374,-37.59765625,-23.92578125,-0.48828125,54.6875,0.0
1676921972.3441458,-50.29296875,-42.96875,-23.4375,-10.25390625,0.0
1676921972.3478544,-56.640625,-44.921875,-34.1796875,-72.265625,0.0
1676921972.351563,-55.17578125,-33.69140625,-32.71484375,-19.04296875,0.0
1676921972.3552716,-45.8984375,-36.62109375,-22.94921875,58.59375,0.0
1676921972.3589802,-23.92578125,-46.38671875,-19.04296875,26.3671875,0.0
1676921972.3626888,-20.5078125,-17.08984375,-16.6015625,-45.8984375,0.0
1676921972.3663974,-29.296875,-33.69140625,-22.94921875,-55.17578125,0.0
1676921972.3701472,-31.73828125,-49.31640625,-11.71875,24.4140625,0.0
1676921972.373897,-28.80859375,-1.46484375,-12.20703125,34.1796875,0.0
1676921972.377647,-23.4375,-7.32421875,-12.6953125,-43.9453125,0.0
1676921972.3813968,-37.109375,-39.55078125,-16.11328125,-69.82421875,0.0
1676921972.3851466,-59.08203125,-41.50390625,-43.45703125,-26.85546875,0.0
1676921972.3888965,-50.78125,-29.296875,-28.3203125,20.99609375,0.0
1676921972.3926463,-21.97265625,-17.578125,-11.23046875,-11.23046875,0.0
1676921972.3963962,-16.11328125,-29.296875,-16.11328125,-60.05859375,0.0
1676921972.400146,-22.4609375,-41.9921875,-16.11328125,-12.20703125,0.0
1676921972.4038959,-32.71484375,-33.69140625,-9.765625,33.69140625,0.0
1676921972.4076457,-37.59765625,-12.20703125,-9.765625,-3.41796875,0.0
1676921972.4113955,-55.17578125,-22.94921875,-23.92578125,-93.75,0.0
1676921972.4152741,-52.24609375,-41.015625,-28.3203125,-67.87109375,0.0
1676921972.4191525,-20.01953125,1.953125,-8.7890625,52.24609375,0.0
1676921972.4230309,-44.43359375,-18.06640625,-20.01953125,21.484375,0.0
1676921972.4269094,-55.17578125,-62.01171875,-33.203125,-92.28515625,0.0
1676921972.430788,-26.85546875,-37.109375,-16.11328125,-64.94140625,0.0
1676921972.4346664,-33.69140625,-19.53125,-24.90234375,27.34375,0.0
1676921972.4385448,-49.31640625,-38.0859375,-38.0859375,19.53125,0.0
1676921972.4424233,-51.26953125,-44.921875,-23.92578125,-62.01171875,0.0
1676921972.446302,-51.7578125,-32.71484375,-26.85546875,-91.796875,0.0
1676921972.4501803,-31.73828125,-25.87890625,-29.296875,-4.8828125,0.0
1676921972.4540586,-14.6484375,0.0,-0.9765625,47.8515625,0.0
1676921972.4579372,-41.50390625,-25.390625,-17.578125,-27.83203125,0.0
1676921972.4615684,-59.5703125,-64.94140625,-42.96875,-95.703125,0.0
1676921972.4651995,-63.4765625,-49.8046875,-51.7578125,-55.6640625,0.0
1676921972.4688303,-48.33984375,-15.625,-40.0390625,7.32421875,0.0
1676921972.4724615,-49.8046875,-28.80859375,-35.64453125,-5.37109375,0.0
1676921972.4760926,-65.4296875,-28.80859375,-31.25,-74.70703125,0.0
1676921972.4797235,-34.1796875,-4.39453125,-14.16015625,-52.24609375,0.0
1676921972.4833546,-18.06640625,-24.90234375,-20.01953125,36.1328125,0.0
1676921972.4869857,-31.25,-24.90234375,-18.06640625,18.06640625,0.0
1676921972.4906168,-45.8984375,-12.6953125,-24.4140625,-73.2421875,0.0
1676921972.494248,-41.015625,-20.99609375,-24.90234375,-60.546875,0.0
1676921972.4978788,-28.80859375,-18.5546875,-17.08984375,32.2265625,0.0
1676921972.50151,-39.55078125,-22.94921875,-33.203125,27.34375,0.0
1676921972.5065048,-53.22265625,-40.0390625,-30.2734375,-58.10546875,0.0
1676921972.5114996,-70.3125,-46.38671875,-27.83203125,-100.09765625,0.0
1676921972.5164948,-51.26953125,-26.85546875,-37.109375,-22.94921875,0.0
1676921972.5214896,-41.50390625,-26.3671875,-37.59765625,35.64453125,0.0
1676921972.5264845,-47.8515625,-62.01171875,-34.66796875,-19.53125,0.0
1676921972.5314794,-49.8046875,-42.96875,-23.4375,-72.75390625,0.0
1676921972.5364742,-41.50390625,-6.34765625,-26.3671875,-34.66796875,0.0
1676921972.541469,-41.015625,-19.04296875,-35.64453125,17.578125,0.0
1676921972.546464,-40.52734375,-36.1328125,-21.484375,2.9296875,0.0
1676921972.551459,-20.01953125,-51.7578125,-3.41796875,-34.1796875,0.0
1676921972.556454,-5.37109375,-32.71484375,-11.71875,-18.06640625,0.0
1676921972.5614488,-24.90234375,-15.13671875,-29.78515625,28.3203125,0.0
1676921972.565208,-51.7578125,-24.90234375,-26.3671875,19.53125,0.0
1676921972.5689673,-54.6875,-27.34375,-38.57421875,-65.4296875,0.0
1676921972.5727265,-46.875,-23.92578125,-53.22265625,-84.9609375,0.0
1676921972.5764856,-25.390625,-10.7421875,-39.55078125,12.6953125,0.0
1676921972.5802448,-36.1328125,-20.99609375,-43.9453125,24.4140625,0.0
1676921972.584004,-55.17578125,-17.08984375,-40.52734375,-41.50390625,0.0
1676921972.5877633,-31.25,-18.06640625,-43.45703125,-79.58984375,0.0
1676921972.5915225,-9.27734375,-25.87890625,-42.96875,-17.08984375,0.0
1676921972.5952816,-28.80859375,-22.94921875,-34.66796875,46.38671875,0.0
1676921972.599041,-51.7578125,-13.671875,-29.78515625,-8.7890625,0.0
1676921972.6028001,-20.5078125,-8.30078125,-11.23046875,-76.66015625,0.0
1676921972.6065593,-28.3203125,-40.0390625,-33.203125,-50.29296875,0.0
1676921972.6102974,-41.9921875,-35.64453125,-45.41015625,33.69140625,0.0
1676921972.6140356,-23.92578125,-4.8828125,-23.92578125,21.484375,0.0
1676921972.6177735,-24.90234375,-15.625,-10.7421875,-62.01171875,0.0
1676921972.6215117,-26.85546875,-20.99609375,-20.01953125,-56.640625,0.0
1676921972.6252499,-30.76171875,-24.90234375,-31.73828125,29.78515625,0.0
1676921972.628988,-48.33984375,-42.48046875,-31.73828125,18.5546875,0.0
1676921972.6327262,-56.640625,-27.34375,-42.48046875,-77.1484375,0.0
1676921972.6364644,-41.50390625,-24.4140625,-35.15625,-69.82421875,0.0
1676921972.6402025,-42.96875,-31.73828125,-49.31640625,23.92578125,0.0
1676921972.6439404,-41.50390625,-11.71875,-40.52734375,35.15625,0.0
1676921972.6476786,-37.109375,-29.78515625,-25.390625,-23.4375,0.0
1676921972.6514168,-12.20703125,-21.484375,0.9765625,-52.734375,0.0
1676921972.6551669,-8.30078125,2.44140625,7.8125,-0.9765625,0.0
1676921972.658917,-37.109375,-23.4375,-37.109375,33.69140625,0.0
1676921972.6626673,-48.33984375,-43.45703125,-45.41015625,-11.23046875,0.0
1676921972.6664174,-36.62109375,-40.52734375,-12.6953125,-67.3828125,0.0
1676921972.6701674,-32.2265625,-22.4609375,-12.20703125,-44.43359375,0.0
1676921972.6739178,-32.2265625,-28.80859375,-33.69140625,20.5078125,0.0
1676921972.6776679,-27.34375,-37.59765625,-18.06640625,12.20703125,0.0
1676921972.681418,-36.62109375,-30.2734375,-18.5546875,-65.91796875,0.0
1676921972.685168,-38.57421875,-29.296875,-28.3203125,-64.94140625,0.0
1676921972.688918,-42.48046875,-22.4609375,-17.578125,23.4375,0.0
1676921972.6926684,-51.26953125,-10.7421875,-27.83203125,22.94921875,0.0
1676921972.6964185,-54.19921875,-11.23046875,-41.50390625,-56.640625,0.0
1676921972.7001708,-53.22265625,-35.64453125,-30.76171875,-88.8671875,0.0
1676921972.7039227,-33.203125,-21.484375,1.953125,-6.8359375,0.0
1676921972.707675,-36.1328125,0.0,-9.27734375,28.3203125,0.0
1676921972.711427,-46.38671875,-32.2265625,-30.76171875,-41.9921875,0.0
1676921972.7151792,-35.64453125,-32.2265625,-21.97265625,-87.40234375,0.0
1676921972.7189312,-34.1796875,-14.6484375,-20.99609375,-40.52734375,0.0
1676921972.7226834,-37.59765625,-37.109375,-21.484375,34.66796875,0.0
1676921972.7264357,-34.1796875,-57.12890625,-22.94921875,19.53125,0.0
1676921972.7301877,-48.828125,-38.57421875,-32.2265625,-85.44921875,0.0
1676921972.73394,-42.48046875,-7.8125,-25.390625,-63.96484375,0.0
1676921972.7376919,-25.390625,1.953125,-1.953125,41.9921875,0.0
1676921972.741444,-43.45703125,-20.5078125,-16.11328125,4.39453125,0.0
1676921972.7451923,-61.03515625,-45.8984375,-32.71484375,-93.26171875,0.0
1676921972.7489405,-47.8515625,-36.62109375,-30.76171875,-86.42578125,0.0
1676921972.7526884,-11.71875,-15.625,-21.484375,14.16015625,0.0
1676921972.7564366,-15.625,-33.69140625,-21.484375,31.25,0.0
1676921972.7601848,-30.2734375,-62.98828125,-26.3671875,-38.57421875,0.0
1676921972.7639327,-46.875,-62.01171875,-46.875,-87.890625,0.0
1676921972.767681,-35.15625,-19.53125,-29.296875,-4.39453125,0.0
1676921972.771429,-35.15625,-11.23046875,-16.11328125,53.7109375,0.0
1676921972.7751772,-43.45703125,-20.01953125,-40.52734375,-25.390625,0.0
1676921972.7789254,-54.19921875,-26.85546875,-33.203125,-91.30859375,0.0
1676921972.7826734,-48.828125,-20.99609375,-10.7421875,-29.78515625,0.0
1676921972.7864215,-33.69140625,-9.765625,-4.8828125,45.41015625,0.0
1676921972.7902503,-45.41015625,-9.765625,-8.30078125,14.6484375,0.0
1676921972.7940793,-36.1328125,-20.99609375,-20.5078125,-58.59375,0.0
1676921972.797908,-46.875,-47.36328125,-28.80859375,-53.7109375,0.0
1676921972.801737,-64.94140625,-52.24609375,-29.78515625,22.94921875,0.0
1676921972.8055658,-49.31640625,-32.71484375,-24.4140625,25.390625,0.0
1676921972.8093948,-40.52734375,-46.38671875,-23.4375,-51.26953125,0.0
1676921972.8132236,-45.8984375,-47.8515625,-24.4140625,-47.8515625,0.0
1676921972.8170524,-53.22265625,-32.2265625,-33.203125,20.5078125,0.0
1676921972.8208814,-54.19921875,-19.53125,-36.62109375,34.1796875,0.0
1676921972.8247101,-46.38671875,-12.6953125,-15.625,-17.08984375,0.0
1676921972.8285391,-45.41015625,-24.4140625,-6.8359375,-61.03515625,0.0
1676921972.832368,-31.25,-39.55078125,-12.20703125,3.90625,0.0
1676921972.8361392,-48.828125,-59.5703125,-46.38671875,41.015625,0.0
1676921972.8399107,-47.36328125,-24.4140625,-54.6875,-12.6953125,0.0
1676921972.843682,-32.71484375,-6.8359375,-18.06640625,-62.01171875,0.0
1676921972.8474536,-41.9921875,-34.1796875,-20.01953125,-47.36328125,0.0
1676921972.851225,-49.8046875,-33.203125,-38.0859375,17.08984375,0.0
1676921972.8549962,-43.9453125,-30.76171875,-21.484375,8.7890625,0.0
1676921972.8587677,-32.2265625,-45.8984375,-12.6953125,-58.59375,0.0
1676921972.862539,-28.80859375,-39.55078125,-24.4140625,-62.5,0.0
1676921972.8663106,-34.1796875,-16.11328125,-28.80859375,13.18359375,0.0
1676921972.870082,-58.10546875,-19.53125,-35.64453125,10.25390625,0.0
1676921972.8738534,-64.453125,-48.33984375,-43.45703125,-87.40234375,0.0
1676921972.8776248,-66.40625,-52.24609375,-35.15625,-116.69921875,0.0
1676921972.8825274,-61.5234375,-26.85546875,-25.390625,-20.99609375,0.0
1676921972.8874302,-63.96484375,-23.92578125,-20.5078125,12.20703125,0.0
1676921972.8923328,-59.5703125,-29.78515625,-28.80859375,-69.3359375,0.0
1676921972.8972354,-48.33984375,-34.1796875,-40.0390625,-102.05078125,0.0
1676921972.9021382,-48.828125,-69.82421875,-30.2734375,-35.64453125,0.0
1676921972.9070408,-70.80078125,-72.75390625,-37.109375,19.53125,0.0
1676921972.9119434,-80.56640625,-25.390625,-37.109375,-26.3671875,0.0
1676921972.9168463,-45.41015625,-18.06640625,-18.06640625,-103.02734375,0.0
1676921972.9217489,-53.22265625,-47.36328125,-27.34375,-75.68359375,0.0
1676921972.9266515,-54.6875,-49.31640625,-30.76171875,14.6484375,0.0
1676921972.9315543,-33.69140625,-26.3671875,-13.671875,6.34765625,0.0
1676921972.936457,-55.17578125,-32.71484375,-18.5546875,-88.37890625,0.0
1676921972.9402027,-53.7109375,-41.50390625,-33.203125,-93.26171875,0.0
1676921972.9439483,-42.96875,-26.3671875,-26.85546875,0.0,0.0
1676921972.9476938,-45.41015625,-33.203125,-26.3671875,1.953125,0.0
1676921972.9514396,-41.015625,-30.2734375,-36.62109375,-57.12890625,0.0
1676921972.9551854,-25.87890625,-13.671875,-21.97265625,-64.453125,0.0
1676921972.958931,-30.2734375,-30.76171875,-23.4375,-4.39453125,0.0
1676921972.9626765,-30.2734375,-53.22265625,-22.4609375,47.8515625,0.0
1676921972.9664223,-46.875,-40.52734375,-18.5546875,-9.765625,0.0
1676921972.970168,-56.15234375,-27.83203125,-43.45703125,-89.35546875,0.0
1676921972.9739137,-37.59765625,-34.1796875,-45.8984375,-15.625,0.0
1676921972.9776592,-49.8046875,-42.96875,-45.8984375,34.1796875,0.0
1676921972.981405,-38.57421875,-32.2265625,-27.34375,0.48828125,0.0
1676921972.9851542,-36.62109375,-36.62109375,-21.97265625,-62.98828125,0.0
1676921972.9889035,-41.015625,-43.9453125,-28.80859375,-58.59375,0.0
1676921972.9926527,-31.25,-45.41015625,-24.90234375,24.4140625,0.0
1676921972.996402,-31.73828125,-44.43359375,-19.04296875,24.4140625,0.0
1676921973.0001512,-22.4609375,-22.4609375,-3.90625,-35.64453125,0.0
1676921973.0039005,-14.6484375,-23.4375,-13.18359375,-45.8984375,0.0
1676921973.0076497,-16.11328125,-11.23046875,-36.1328125,13.18359375,0.0
1676921973.0113988,-16.6015625,-10.7421875,-41.015625,29.78515625,0.0
1676921973.0151482,-34.66796875,-36.1328125,-44.921875,-40.0390625,0.0
1676921973.0188973,-52.734375,-58.59375,-46.875,-91.796875,0.0
1676921973.0226467,-38.0859375,-54.6875,-31.73828125,-22.4609375,0.0
1676921973.0263958,-20.5078125,-19.53125,-13.18359375,47.36328125,0.0
1676921973.0301661,-8.30078125,-19.04296875,-6.8359375,18.06640625,0.0
1676921973.0339365,-15.625,-28.80859375,-6.34765625,-57.6171875,0.0
1676921973.037707,-27.34375,-23.92578125,-14.6484375,-31.73828125,0.0
1676921973.0414774,-28.3203125,-23.4375,-19.53125,42.96875,0.0
1676921973.0452478,-22.94921875,-14.6484375,-20.01953125,11.71875,0.0
1676921973.0490184,-18.06640625,-6.34765625,-20.99609375,-45.8984375,0.0
1676921973.0527887,-33.203125,-25.390625,-39.55078125,-42.48046875,0.0
1676921973.056559,-49.8046875,-54.19921875,-52.24609375,14.16015625,0.0
1676921973.0603294,-24.4140625,-41.50390625,-13.18359375,34.1796875,0.0
1676921973.0640998,-4.8828125,-18.06640625,7.32421875,-31.73828125,0.0
1676921973.0678704,0.9765625,-20.01953125,-5.37109375,-46.875,0.0
1676921973.0716407,-10.25390625,-34.66796875,-6.8359375,34.1796875,0.0
1676921973.0754688,-31.73828125,-36.1328125,-27.34375,40.0390625,0.0
1676921973.079297,-16.11328125,-36.62109375,-31.25,-20.99609375,0.0
1676921973.083125,-31.25,-27.34375,-28.80859375,-61.03515625,0.0
1676921973.0869532,-32.2265625,-9.27734375,-31.73828125,-1.46484375,0.0
1676921973.0907812,-28.80859375,-29.78515625,-28.3203125,45.41015625,0.0
1676921973.0946093,-31.73828125,-29.296875,-27.83203125,-11.71875,0.0
1676921973.0984375,-32.2265625,-26.3671875,-36.1328125,-66.40625,0.0
1676921973.1022656,-26.85546875,-44.921875,-17.578125,-10.7421875,0.0
1676921973.1060936,-20.5078125,-30.2734375,-18.5546875,58.10546875,0.0
1676921973.109922,-21.97265625,-17.08984375,-34.66796875,37.59765625,0.0
1676921973.11375,-37.109375,-15.625,-33.69140625,-44.921875,0.0
1676921973.117578,-29.296875,-20.99609375,-39.55078125,-45.41015625,0.0
1676921973.121233,-36.62109375,-34.1796875,-27.34375,36.62109375,0.0
1676921973.1248882,-46.875,-23.92578125,-9.27734375,41.015625,0.0
1676921973.1285431,-21.97265625,-22.4609375,-19.53125,-25.390625,0.0
1676921973.1321983,-29.78515625,-15.625,-38.0859375,-46.38671875,0.0
1676921973.1358533,-28.80859375,-12.6953125,-24.90234375,34.1796875,0.0
1676921973.1395082,-43.9453125,-33.69140625,-8.7890625,51.26953125,0.0
1676921973.1431634,-41.9921875,-43.45703125,-17.578125,-2.44140625,0.0
1676921973.1468184,-17.08984375,-41.50390625,-34.1796875,-30.76171875,0.0
1676921973.1504736,-22.4609375,-20.01953125,-24.4140625,3.90625,0.0
1676921973.1541286,-42.48046875,-25.390625,-12.6953125,46.38671875,0.0
1676921973.1577837,-33.203125,-27.83203125,-9.765625,23.92578125,0.0
1676921973.1614387,-24.90234375,-21.484375,-7.32421875,-36.62109375,0.0
1676921973.1651914,-40.52734375,-25.87890625,-13.671875,-23.4375,0.0
1676921973.1689441,-62.98828125,-28.3203125,-20.99609375,42.48046875,0.0
1676921973.1726968,-57.12890625,-22.94921875,-18.5546875,35.15625,0.0
1676921973.1764495,-55.17578125,-21.484375,-18.5546875,-43.9453125,0.0
1676921973.1802022,-70.80078125,-33.69140625,-30.76171875,-51.7578125,0.0
1676921973.183955,-62.01171875,-31.25,-22.94921875,46.38671875,0.0
1676921973.1877077,-53.22265625,-15.625,-13.671875,70.80078125,0.0
1676921973.1914604,-45.8984375,-25.87890625,-10.7421875,-12.6953125,0.0
1676921973.195213,-51.7578125,-55.6640625,-23.4375,-64.453125,0.0
1676921973.1989658,-57.12890625,-34.66796875,-24.4140625,3.41796875,0.0
1676921973.2027185,-41.50390625,-8.30078125,-6.8359375,63.96484375,0.0
1676921973.2064712,-43.45703125,-29.296875,-25.390625,15.13671875,0.0
1676921973.210261,-51.26953125,-21.97265625,-38.0859375,-53.7109375,0.0
1676921973.2140512,-34.66796875,-7.8125,-20.01953125,-10.7421875,0.0
1676921973.2178411,-44.43359375,-31.25,-20.5078125,41.9921875,0.0
1676921973.221631,-46.875,-30.2734375,-26.3671875,1.953125,0.0
1676921973.225421,-52.734375,-26.85546875,-29.78515625,-74.21875,0.0
1676921973.2292109,-46.38671875,-28.80859375,-22.94921875,-34.1796875,0.0
1676921973.233001,-50.78125,-41.015625,-21.97265625,48.828125,0.0
1676921973.236791,-77.63671875,-56.640625,-36.1328125,17.578125,0.0
1676921973.2405808,-59.5703125,-52.24609375,-35.15625,-55.6640625,0.0
1676921973.244371,-31.25,-17.08984375,-27.34375,-21.97265625,0.0
1676921973.2481608,-48.33984375,-14.16015625,-15.625,55.17578125,0.0
1676921973.2519507,-44.43359375,-27.83203125,-20.5078125,43.45703125,0.0
1676921973.2569,-36.62109375,-23.92578125,-44.43359375,-28.80859375,0.0
1676921973.2618494,-49.8046875,-29.296875,-42.48046875,-62.98828125,0.0
1676921973.266799,-32.2265625,-41.50390625,-35.64453125,1.46484375,0.0
1676921973.2717483,-41.9921875,-51.26953125,-49.8046875,41.50390625,0.0
1676921973.2766976,-41.50390625,-42.48046875,-38.0859375,-5.859375,0.0
1676921973.281647,-12.6953125,-14.6484375,-9.27734375,-45.41015625,0.0
1676921973.2865963,-21.97265625,-4.8828125,-14.6484375,-2.9296875,0.0
1676921973.2915456,-46.875,-15.625,-32.71484375,49.31640625,0.0
1676921973.296495,-31.25,-17.08984375,-24.90234375,33.69140625,0.0
1676921973.3014445,-21.97265625,-29.78515625,-26.85546875,-32.71484375,0.0
1676921973.3063939,-24.90234375,-34.66796875,-26.3671875,-41.50390625,0.0
1676921973.3113432,-29.296875,-37.59765625,-32.2265625,37.109375,0.0
1676921973.315198,-37.109375,-42.48046875,-44.921875,36.62109375,0.0
1676921973.3190527,-43.9453125,-40.52734375,-31.25,-54.6875,0.0
1676921973.3229074,-40.0390625,-41.50390625,-21.484375,-69.82421875,0.0
1676921973.3267622,-16.6015625,-20.99609375,-28.80859375,21.97265625,0.0
1676921973.330617,-14.16015625,-28.80859375,-32.2265625,41.9921875,0.0
1676921973.3344717,-52.24609375,-47.8515625,-36.1328125,-32.2265625,0.0
1676921973.3383267,-68.359375,-42.96875,-32.2265625,-83.49609375,0.0
1676921973.3421814,-24.4140625,-32.2265625,-9.27734375,-23.92578125,0.0
1676921973.3460362,-26.3671875,-24.90234375,-4.8828125,33.69140625,0.0
1676921973.349891,-26.85546875,-19.53125,-0.48828125,-10.25390625,0.0
1676921973.3537457,-21.484375,-10.7421875,-1.46484375,-86.9140625,0.0
1676921973.3576005,-46.38671875,-39.0625,-21.484375,-61.03515625,0.0
1676921973.3612497,-40.0390625,-26.85546875,-23.4375,27.83203125,0.0
1676921973.364899,-45.41015625,-30.76171875,-34.66796875,-10.7421875,0.0
1676921973.3685484,-32.2265625,-61.5234375,-22.4609375,-84.9609375,0.0
1676921973.3721976,-38.0859375,-52.24609375,-30.76171875,-71.2890625,0.0
1676921973.3758469,-47.36328125,-33.203125,-43.9453125,7.32421875,0.0
1676921973.379496,-37.59765625,-23.4375,-33.69140625,17.08984375,0.0
1676921973.3831453,-31.25,-28.3203125,-24.90234375,-42.48046875,0.0
1676921973.3867946,-26.3671875,-26.3671875,-18.06640625,-73.73046875,0.0
1676921973.3904438,-41.015625,-20.99609375,-15.13671875,9.765625,0.0
1676921973.3940933,-28.80859375,-1.46484375,-1.953125,55.6640625,0.0
1676921973.3977425,-31.73828125,-20.5078125,-19.53125,-37.109375,0.0
1676921973.4013917,-47.8515625,-35.15625,-33.203125,-91.796875,0.0
1676921973.405206,-39.55078125,-21.484375,-27.83203125,-30.76171875,0.0
1676921973.4090202,-48.828125,-46.875,-29.296875,22.4609375,0.0
1676921973.4128344,-49.31640625,-44.921875,-38.57421875,-18.06640625,0.0
1676921973.4166486,-39.0625,-40.52734375,-38.0859375,-80.56640625,0.0
1676921973.4204628,-25.87890625,-28.80859375,-26.3671875,-34.1796875,0.0
1676921973.4242773,-29.78515625,-14.16015625,-21.484375,28.80859375,0.0
1676921973.4280915,-35.64453125,-22.4609375,-22.4609375,0.9765625,0.0
1676921973.4319057,-41.015625,-33.69140625,-31.73828125,-73.73046875,0.0
1676921973.43572,-53.7109375,-48.33984375,-26.3671875,-77.63671875,0.0
1676921973.4395342,-44.921875,-42.48046875,-24.90234375,8.7890625,0.0
1676921973.4433484,-39.0625,-36.1328125,-41.015625,19.04296875,0.0
1676921973.4471626,-42.96875,-29.296875,-23.4375,-45.8984375,0.0
1676921973.4508517,-33.69140625,-22.94921875,-1.46484375,-68.84765625,0.0
1676921973.4545407,-35.64453125,-45.41015625,-14.6484375,-2.44140625,0.0
1676921973.45823,-57.12890625,-54.6875,-53.7109375,16.6015625,0.0
1676921973.461919,-55.17578125,-22.94921875,-32.71484375,-27.83203125,0.0
1676921973.4656081,-43.9453125,-21.484375,-2.9296875,-72.75390625,0.0
1676921973.4692974,-41.9921875,-30.2734375,-30.76171875,-43.9453125,0.0
1676921973.4729865,-50.29296875,-36.1328125,-52.734375,27.83203125,0.0
1676921973.4766755,-61.03515625,-35.15625,-36.62109375,20.01953125,0.0
1676921973.4803646,-47.36328125,-24.4140625,-22.94921875,-59.5703125,0.0
1676921973.4840536,-38.0859375,-15.13671875,-29.78515625,-53.7109375,0.0
1676921973.487743,-56.15234375,-11.71875,-28.3203125,24.4140625,0.0
1676921973.491432,-57.12890625,-32.2265625,-37.59765625,1.953125,0.0
1676921973.495279,-42.96875,-32.2265625,-30.2734375,-76.66015625,0.0
1676921973.4991262,-41.50390625,-35.15625,-15.625,-80.078125,0.0
1676921973.5029733,-33.69140625,-22.94921875,-21.484375,-2.9296875,0.0
1676921973.5068204,-21.97265625,-3.90625,-9.765625,14.6484375,0.0
1676921973.5106676,-21.484375,-6.8359375,-4.8828125,-50.29296875,0.0
1676921973.514515,-25.390625,-16.6015625,-27.34375,-84.47265625,0.0
1676921973.518362,-38.0859375,-28.3203125,-27.34375,-18.06640625,0.0
1676921973.5222092,-62.98828125,-38.57421875,-43.45703125,10.25390625,0.0
1676921973.5260563,-83.0078125,-52.24609375,-56.640625,-79.58984375,0.0
1676921973.5299034,-61.5234375,-37.59765625,-28.80859375,-124.51171875,0.0
1676921973.5337505,-36.62109375,-24.4140625,-3.90625,-53.7109375,0.0
1676921973.5375977,-53.22265625,-20.99609375,-15.13671875,5.37109375,0.0
1676921973.5412543,-53.7109375,-24.4140625,-18.5546875,-28.80859375,0.0
1676921973.5449107,-35.15625,-35.64453125,4.39453125,-92.7734375,0.0
1676921973.5485673,-25.87890625,-24.90234375,7.8125,-57.6171875,0.0
1676921973.5522237,-31.25,-12.6953125,-5.37109375,12.6953125,0.0
1676921973.5558803,-52.24609375,-43.9453125,-23.4375,-21.97265625,0.0
1676921973.559537,-70.80078125,-60.05859375,-47.8515625,-101.07421875,0.0
1676921973.5631933,-61.03515625,-11.23046875,-30.76171875,-85.44921875,0.0
1676921973.56685,-49.31640625,-2.44140625,-10.7421875,-0.48828125,0.0
1676921973.5705063,-50.29296875,-23.92578125,-32.2265625,1.46484375,0.0
1676921973.574163,-53.22265625,-34.1796875,-29.296875,-81.0546875,0.0
1676921973.5778193,-49.8046875,-40.0390625,-6.8359375,-103.02734375,0.0
1676921973.581476,-23.92578125,-31.25,3.90625,-22.4609375,0.0
1676921973.5852323,-42.96875,-52.734375,-11.23046875,0.48828125,0.0
1676921973.5889885,-66.89453125,-32.2265625,-22.4609375,-49.31640625,0.0
1676921973.5927448,-56.640625,-32.2265625,-18.5546875,-94.23828125,0.0
1676921973.5965009,-60.05859375,-39.0625,-20.01953125,-64.453125,0.0
1676921973.6002572,-54.6875,-26.3671875,-22.4609375,-0.48828125,0.0
1676921973.6040134,-29.78515625,-15.13671875,-0.9765625,1.46484375,0.0
1676921973.6077697,-29.78515625,-24.90234375,-11.23046875,-62.98828125,0.0
1676921973.611526,-45.8984375,-41.015625,-35.15625,-78.125,0.0
1676921973.615282,-56.15234375,-35.64453125,-18.06640625,-1.46484375,0.0
1676921973.6190383,-64.94140625,-34.1796875,-9.765625,8.7890625,0.0
1676921973.6227946,-56.640625,-28.3203125,-13.18359375,-64.94140625,0.0
1676921973.626551,-32.2265625,-23.92578125,-4.8828125,-81.54296875,0.0
1676921973.6315432,-17.578125,-6.34765625,1.46484375,15.625,0.0
1676921973.6365352,-49.8046875,-20.01953125,-13.18359375,21.484375,0.0
1676921973.6415272,-68.84765625,-27.83203125,-12.6953125,-51.7578125,0.0
1676921973.6465194,-43.9453125,-12.20703125,0.0,-84.9609375,0.0
1676921973.6515117,-52.24609375,-44.43359375,-30.76171875,-48.33984375,0.0
1676921973.6565037,-70.3125,-63.96484375,-32.71484375,12.20703125,0.0
1676921973.6614957,-65.4296875,-49.8046875,-17.578125,-12.6953125,0.0
1676921973.666488,-65.4296875,-22.4609375,-24.4140625,-83.49609375,0.0
1676921973.6714802,-67.3828125,-6.8359375,-23.92578125,-58.10546875,0.0
1676921973.6764722,-68.359375,-19.04296875,-9.765625,37.59765625,0.0
1676921973.6814642,-53.7109375,-8.30078125,-2.44140625,27.34375,0.0
1676921973.6864564,-75.68359375,-18.5546875,-27.83203125,-83.49609375,0.0
1676921973.6902041,-66.89453125,-29.296875,-17.578125,-78.125,0.0
1676921973.6939516,-38.0859375,-10.25390625,10.25390625,33.69140625,0.0
1676921973.6976993,-70.80078125,-35.64453125,-15.13671875,22.4609375,0.0
1676921973.701447,-83.49609375,-55.17578125,-35.15625,-66.89453125,0.0
1676921973.7051945,-77.1484375,-44.921875,-33.69140625,-88.37890625,0.0
1676921973.7089422,-65.91796875,-33.203125,-15.625,11.23046875,0.0
1676921973.7126899,-58.10546875,-27.34375,-36.1328125,45.41015625,0.0
1676921973.7164373,-74.21875,-26.3671875,-62.5,-33.69140625,0.0
1676921973.720185,-65.4296875,-19.04296875,-25.87890625,-67.3828125,0.0
1676921973.7239327,-62.01171875,-28.80859375,-15.625,-15.13671875,0.0
1676921973.7276802,-75.1953125,-22.94921875,-27.34375,30.2734375,0.0
1676921973.731428,-53.22265625,-25.390625,-37.59765625,-0.48828125,0.0
1676921973.7352242,-42.96875,-38.0859375,-28.3203125,-54.19921875,0.0
1676921973.7390206,-49.8046875,-34.1796875,-20.01953125,-39.0625,0.0
1676921973.742817,-28.80859375,-27.83203125,-13.18359375,33.69140625,0.0
1676921973.7466133,-31.25,-33.69140625,-18.06640625,16.11328125,0.0
1676921973.7504096,-39.55078125,-26.85546875,-33.203125,-51.7578125,0.0
1676921973.7542062,-21.97265625,-14.16015625,-34.66796875,-36.1328125,0.0
1676921973.7580025,-35.64453125,-33.203125,-44.921875,9.765625,0.0
1676921973.7617989,-47.8515625,-53.22265625,-44.921875,20.5078125,0.0
1676921973.7655952,-37.59765625,-40.0390625,-30.76171875,-25.390625,0.0
1676921973.7693915,-45.41015625,-27.34375,-29.296875,-73.2421875,0.0
1676921973.7731879,-38.57421875,-23.92578125,-28.80859375,-14.16015625,0.0
1676921973.7769842,-32.71484375,-26.3671875,-14.16015625,31.25,0.0
1676921973.7806876,-32.2265625,-35.15625,-3.90625,-15.13671875,0.0
1676921973.7843907,-23.92578125,-25.390625,-16.6015625,-63.96484375,0.0
1676921973.788094,-28.3203125,-34.1796875,-42.48046875,-16.6015625,0.0
1676921973.7917974,-39.0625,-34.1796875,-46.38671875,43.9453125,0.0
1676921973.7955005,-32.2265625,-28.80859375,-32.2265625,0.0,0.0
1676921973.7992039,-29.296875,-41.50390625,-8.7890625,-72.265625,0.0
1676921973.8029072,-34.1796875,-36.62109375,-1.953125,-60.05859375,0.0
1676921973.8066103,-22.4609375,-11.71875,-18.06640625,35.15625,0.0
1676921973.8103137,-31.73828125,-6.34765625,-19.53125,39.0625,0.0
1676921973.814017,-62.5,-34.66796875,-26.85546875,-80.078125,0.0
1676921973.8177202,-54.6875,-52.24609375,-35.64453125,-91.30859375,0.0
1676921973.8214235,-42.48046875,-34.66796875,-29.296875,9.765625,0.0
1676921973.8251727,-42.96875,-36.62109375,-21.97265625,31.73828125,0.0
1676921973.8289218,-34.66796875,-39.55078125,-12.20703125,-31.25,0.0
1676921973.832671,-18.5546875,-12.6953125,-18.5546875,-60.546875,0.0
1676921973.83642,-19.53125,-46.38671875,-41.015625,-13.671875,0.0
1676921973.8401692,-43.45703125,-57.6171875,-40.52734375,20.99609375,0.0
1676921973.8439183,-51.26953125,-23.4375,-37.59765625,-20.5078125,0.0
1676921973.8476675,-46.875,-20.5078125,-44.921875,-87.890625,0.0
1676921973.8514166,-39.0625,-33.69140625,-44.921875,-41.015625,0.0
1676921973.8551657,-41.50390625,-27.83203125,-34.1796875,33.69140625,0.0
1676921973.8589149,-32.71484375,-21.97265625,-25.390625,2.9296875,0.0
1676921973.862664,-18.5546875,-19.04296875,-13.18359375,-62.01171875,0.0
1676921973.866413,-29.296875,-39.0625,-8.30078125,-55.17578125,0.0
1676921973.870165,-18.06640625,-51.26953125,-11.23046875,21.97265625,0.0
1676921973.873917,-23.4375,-25.87890625,-17.578125,18.06640625,0.0
1676921973.8776693,-24.90234375,-17.08984375,-39.0625,-60.05859375,0.0
1676921973.8814213,-21.484375,-37.59765625,-50.29296875,-77.1484375,0.0
1676921973.8851733,-19.53125,-32.2265625,-27.34375,2.44140625,0.0
1676921973.8889253,-25.390625,-23.4375,-7.32421875,32.2265625,0.0
1676921973.8926773,-28.80859375,-41.015625,-4.39453125,-19.04296875,0.0
1676921973.8964293,-17.578125,-27.83203125,-5.859375,-61.03515625,0.0
1676921973.9001813,-19.53125,-14.6484375,-14.16015625,-20.99609375,0.0
1676921973.9039335,-29.296875,-12.20703125,-26.3671875,31.25,0.0
1676921973.9076855,-34.66796875,-21.484375,-46.38671875,-24.4140625,0.0
1676921973.9114375,-25.390625,-47.36328125,-41.50390625,-98.14453125,0.0
1676921973.9151816,-16.11328125,-36.62109375,-34.66796875,-61.03515625,0.0
1676921973.918926,-19.04296875,-15.625,-27.83203125,16.11328125,0.0
1676921973.9226701,-20.5078125,-16.11328125,-19.04296875,2.9296875,0.0
1676921973.9264143,-36.1328125,-32.2265625,-41.50390625,-84.47265625,0.0
1676921973.9301586,-34.66796875,-37.109375,-33.69140625,-85.44921875,0.0
1676921973.9339027,-19.53125,-36.62109375,-14.6484375,7.32421875,0.0
1676921973.9376469,-40.52734375,-71.2890625,-40.0390625,5.859375,0.0
1676921973.9413912,-58.59375,-65.91796875,-36.62109375,-79.58984375,0.0
1676921973.9451354,-39.55078125,-20.99609375,-20.5078125,-90.33203125,0.0
1676921973.9488795,-18.5546875,-16.11328125,-31.73828125,-18.06640625,0.0
1676921973.9526238,-22.94921875,-21.484375,-32.71484375,7.8125,0.0
1676921973.956368,-41.015625,-28.3203125,-53.22265625,-59.5703125,0.0
1676921973.9602354,-25.87890625,-8.7890625,-31.25,-94.7265625,0.0
1676921973.9641027,-24.90234375,-25.87890625,-22.94921875,-57.6171875,0.0
1676921973.96797,-58.59375,-55.17578125,-54.19921875,-12.6953125,0.0
1676921973.9718373,-61.5234375,-62.98828125,-49.8046875,-35.15625,0.0
1676921973.9757047,-51.7578125,-57.12890625,-31.73828125,-95.703125,0.0
1676921973.9795718,-38.57421875,-23.4375,-23.4375,-54.19921875,0.0
1676921973.9834392,-47.36328125,-16.11328125,-19.04296875,35.64453125,0.0
1676921973.9873066,-63.4765625,-51.7578125,-29.78515625,2.9296875,0.0
1676921973.991174,-39.0625,-40.0390625,-23.92578125,-73.2421875,0.0
1676921973.9950414,-37.109375,-12.20703125,-7.32421875,-51.26953125,0.0
1676921973.9989085,-76.171875,-41.9921875,-43.45703125,3.41796875,0.0
1676921974.002776,-53.22265625,-45.8984375,-36.1328125,11.71875,0.0
1676921974.0076652,-33.69140625,-34.66796875,-15.13671875,-42.48046875,0.0
1676921974.0125542,-39.0625,-28.80859375,-19.53125,-63.4765625,0.0
1676921974.0174434,-34.1796875,-30.2734375,-16.11328125,-0.9765625,0.0
1676921974.0223324,-45.41015625,-26.85546875,-29.78515625,32.2265625,0.0
1676921974.0272217,-38.57421875,-20.99609375,-19.53125,-9.765625,0.0
1676921974.0321107,-15.13671875,-29.296875,3.41796875,-60.05859375,0.0
1676921974.037,-22.94921875,-36.1328125,6.8359375,-17.578125,0.0
1676921974.0418892,-50.29296875,-32.71484375,-18.5546875,15.13671875,0.0
1676921974.0467782,-67.3828125,-27.83203125,-29.296875,-20.5078125,0.0
1676921974.0516675,-58.10546875,-28.80859375,-26.85546875,-68.359375,0.0
1676921974.0565565,-19.53125,-5.859375,-36.62109375,-39.55078125,0.0
1676921974.0614457,-17.578125,-15.13671875,-28.3203125,33.69140625,0.0
1676921974.0652108,-56.640625,-57.6171875,-18.5546875,5.859375,0.0
1676921974.0689757,-59.5703125,-31.73828125,-4.8828125,-77.63671875,0.0
1676921974.0727408,-39.55078125,-14.16015625,-5.37109375,-75.1953125,0.0
1676921974.076506,-40.52734375,-14.6484375,-25.390625,13.18359375,0.0
1676921974.0802708,-52.734375,-26.3671875,-26.85546875,32.2265625,0.0
1676921974.0840359,-36.1328125,-44.43359375,-14.16015625,-21.484375,0.0
1676921974.087801,-36.1328125,-40.0390625,-11.71875,-56.15234375,0.0
1676921974.0915658,-50.29296875,-32.2265625,-25.87890625,-22.94921875,0.0
1676921974.095331,-41.015625,-6.34765625,-32.71484375,25.87890625,0.0
1676921974.099096,-27.83203125,2.44140625,-10.7421875,8.30078125,0.0
1676921974.102861,-40.52734375,-21.97265625,-25.87890625,-89.84375,0.0
1676921974.106626,-71.2890625,-51.7578125,-71.2890625,-102.5390625,0.0
1676921974.110355,-54.6875,-51.7578125,-49.8046875,-6.8359375,0.0
1676921974.1140838,-55.6640625,-33.203125,-18.5546875,-15.625,0.0
1676921974.1178126,-66.89453125,-36.62109375,-21.97265625,-103.02734375,0.0
1676921974.1215417,-56.15234375,-41.50390625,-33.203125,-87.40234375,0.0
1676921974.1252706,-43.9453125,-49.31640625,-30.2734375,10.7421875,0.0
1676921974.1289995,-34.1796875,-37.59765625,-24.4140625,14.6484375,0.0
1676921974.1327283,-38.57421875,-18.06640625,-41.9921875,-62.01171875,0.0
1676921974.1364572,-25.87890625,-18.06640625,-20.01953125,-62.5,0.0
1676921974.1401863,-35.15625,-32.71484375,-25.87890625,8.7890625,0.0
1676921974.1439152,-38.0859375,-29.296875,-58.59375,20.01953125,0.0
1676921974.147644,-16.11328125,-16.6015625,-22.4609375,-20.5078125,0.0
1676921974.151373,-7.8125,-17.578125,-7.8125,-59.5703125,0.0
1676921974.1551278,-21.97265625,-10.25390625,-29.78515625,-13.671875,0.0
1676921974.1588826,-41.50390625,-27.83203125,-31.25,21.97265625,0.0
1676921974.1626375,-53.7109375,-53.7109375,-34.1796875,-33.203125,0.0
1676921974.1663923,-56.640625,-23.92578125,-30.76171875,-90.33203125,0.0
1676921974.1701472,-35.15625,-7.32421875,-26.3671875,-51.7578125,0.0
1676921974.173902,-41.015625,-39.0625,-41.015625,16.11328125,0.0
1676921974.1776571,-57.6171875,-55.17578125,-42.96875,0.0,0.0
1676921974.181412,-45.8984375,-29.296875,-34.1796875,-62.01171875,0.0
1676921974.1851668,-27.34375,-13.18359375,-22.94921875,-52.734375,0.0
1676921974.1889217,-15.625,4.8828125,2.9296875,36.1328125,0.0
1676921974.1926765,-24.4140625,-9.765625,-7.8125,41.50390625,0.0
1676921974.1964314,-16.6015625,-24.4140625,-19.04296875,-34.66796875,0.0
1676921974.200281,-24.90234375,-11.71875,-11.71875,-75.68359375,0.0
1676921974.2041302,-45.41015625,-19.53125,-23.4375,-3.41796875,0.0
1676921974.2079797,-45.41015625,-28.3203125,-25.87890625,34.1796875,0.0
1676921974.211829,-43.45703125,-44.43359375,-32.71484375,-26.3671875,0.0
1676921974.2156785,-48.33984375,-49.8046875,-39.55078125,-90.8203125,0.0
1676921974.2195277,-39.55078125,-28.3203125,-16.11328125,-23.4375,0.0
1676921974.2233772,-36.62109375,-9.765625,5.859375,56.640625,0.0
1676921974.2272267,-22.94921875,0.0,7.8125,30.76171875,0.0
1676921974.231076,-14.16015625,-10.7421875,-4.8828125,-48.828125,0.0
1676921974.2349255,-40.52734375,-46.875,-23.4375,-64.453125,0.0
1676921974.2387748,-61.5234375,-58.59375,-36.1328125,13.18359375,0.0
1676921974.2426243,-42.96875,-32.2265625,-30.76171875,20.01953125,0.0
1676921974.2462735,-33.203125,-0.9765625,-27.34375,-53.7109375,0.0
1676921974.2499228,-36.1328125,-13.18359375,-14.16015625,-55.6640625,0.0
1676921974.2535717,-34.1796875,-39.0625,-18.06640625,20.5078125,0.0
1676921974.257221,-33.203125,-21.97265625,-25.390625,40.52734375,0.0
1676921974.2608702,-25.87890625,-8.30078125,-4.8828125,-14.16015625,0.0
1676921974.2645192,-21.97265625,-9.27734375,9.765625,-50.29296875,0.0
1676921974.2681684,-32.71484375,-16.11328125,-0.9765625,4.39453125,0.0
1676921974.2718177,-44.43359375,-24.90234375,-9.27734375,51.7578125,0.0
1676921974.275467,-60.05859375,-24.90234375,-2.44140625,-9.765625,0.0
1676921974.2791162,-74.21875,-30.2734375,-22.94921875,-105.95703125,0.0
1676921974.2827652,-69.3359375,-35.64453125,-38.57421875,-72.265625,0.0
1676921974.2864144,-71.2890625,-26.3671875,-21.97265625,-9.765625,0.0
1676921974.2901664,-94.7265625,-20.01953125,-14.16015625,-42.48046875,0.0
1676921974.2939186,-142.08984375,-27.34375,-42.96875,-154.296875,0.0
1676921974.2976708,-174.31640625,-36.62109375,-62.01171875,-173.33984375,0.0
1676921974.3014228,-185.05859375,-32.2265625,-70.3125,-108.3984375,0.0
1676921974.3051748,-200.68359375,-3.41796875,-63.4765625,-141.11328125,0.0
1676921974.308927,-215.8203125,-9.765625,-61.03515625,-236.328125,0.0
1676921974.3126793,-245.1171875,-20.5078125,-72.75390625,-268.06640625,0.0
1676921974.3164313,-264.16015625,-17.08984375,-78.61328125,-205.078125,0.0
1676921974.3201833,-288.0859375,-25.390625,-94.7265625,-205.56640625,0.0
1676921974.3239355,-287.59765625,-20.99609375,-101.5625,-270.99609375,0.0
1676921974.3276877,-269.04296875,-4.8828125,-84.47265625,-288.57421875,0.0
1676921974.3314397,-250.0,-3.90625,-77.1484375,-227.05078125,0.0
1676921974.3351903,-249.0234375,-0.9765625,-85.44921875,-187.98828125,0.0
1676921974.3389409,-231.4453125,-21.484375,-100.5859375,-208.0078125,0.0
1676921974.3426914,-220.21484375,-15.13671875,-87.40234375,-263.671875,0.0
1676921974.3464417,-232.91015625,-10.7421875,-72.75390625,-244.140625,0.0
1676921974.3501923,-215.33203125,-18.06640625,-83.0078125,-160.15625,0.0
1676921974.3539429,-173.33984375,-0.9765625,-77.1484375,-145.5078125,0.0
1676921974.3576934,-160.64453125,-22.94921875,-55.17578125,-201.171875,0.0
1676921974.361444,-163.0859375,-66.40625,-48.33984375,-183.59375,0.0
1676921974.3651943,-135.7421875,-40.0390625,-58.59375,-74.70703125,0.0
1676921974.368945,-122.0703125,-23.92578125,-50.78125,-54.19921875,0.0
1676921974.3726954,-90.8203125,-26.85546875,-38.0859375,-104.00390625,0.0
1676921974.376446,-67.87109375,-21.484375,-32.2265625,-102.05078125,0.0
1676921974.381445,-50.29296875,-25.87890625,-22.94921875,-16.6015625,0.0
1676921974.386444,-31.73828125,-25.390625,-18.5546875,31.73828125,0.0
1676921974.391443,-10.25390625,-37.59765625,-1.953125,2.44140625,0.0
1676921974.396442,-9.27734375,-40.52734375,-24.4140625,-49.31640625,0.0
1676921974.401441,-17.578125,-39.55078125,-48.33984375,-6.8359375,0.0
1676921974.40644,4.8828125,-41.50390625,-4.39453125,83.0078125,0.0
1676921974.411439,30.2734375,-30.2734375,12.6953125,65.4296875,0.0
1676921974.416438,26.3671875,-44.921875,-12.20703125,-13.671875,0.0
1676921974.421437,50.78125,-55.17578125,-6.8359375,31.25,0.0
1676921974.426436,82.03125,-32.71484375,8.30078125,139.16015625,0.0
1676921974.431435,70.3125,-33.69140625,10.25390625,102.05078125,0.0
1676921974.436434,55.17578125,-30.76171875,1.46484375,17.08984375,0.0
1676921974.440181,70.80078125,-16.6015625,-0.48828125,37.109375,0.0
1676921974.4439282,92.28515625,-24.4140625,8.7890625,113.76953125,0.0
1676921974.4476752,79.1015625,-19.04296875,12.20703125,110.3515625,0.0
1676921974.4514222,67.87109375,-15.13671875,14.16015625,37.109375,0.0
1676921974.4551694,58.59375,-34.66796875,11.23046875,6.34765625,0.0
1676921974.4589164,66.40625,-55.17578125,4.8828125,82.03125,0.0
1676921974.4626634,65.91796875,-49.31640625,-2.44140625,116.2109375,0.0
1676921974.4664106,50.29296875,-43.9453125,-6.34765625,53.22265625,0.0
1676921974.4701576,53.7109375,-36.62109375,-8.30078125,15.13671875,0.0
1676921974.4739046,59.08203125,-34.1796875,-11.71875,67.3828125,0.0
1676921974.4776518,56.640625,-41.50390625,-9.27734375,111.328125,0.0
1676921974.4813988,53.7109375,-48.828125,-9.765625,77.63671875,0.0
1676921974.4851513,61.5234375,-26.3671875,20.01953125,28.80859375,0.0
1676921974.4889038,74.70703125,-3.90625,30.2734375,38.0859375,0.0
1676921974.4926562,51.7578125,-19.53125,-4.39453125,84.9609375,0.0
1676921974.4964087,40.0390625,-34.1796875,-20.5078125,77.63671875,0.0
1676921974.5001612,42.96875,-37.109375,-16.11328125,8.7890625,0.0
1676921974.5039139,35.15625,-36.62109375,-26.85546875,1.46484375,0.0
1676921974.5076663,41.50390625,-27.83203125,-34.1796875,80.56640625,0.0
1676921974.5114188,54.19921875,-34.66796875,-8.30078125,94.7265625,0.0
1676921974.5151713,54.19921875,-40.0390625,1.953125,43.9453125,0.0
1676921974.5189238,44.921875,-31.25,-7.8125,-0.9765625,0.0
1676921974.5226762,38.57421875,-20.99609375,-3.90625,48.33984375,0.0
1676921974.5264287,30.2734375,-29.296875,-2.9296875,94.23828125,0.0
1676921974.5301752,37.59765625,-44.921875,-7.32421875,42.48046875,0.0
1676921974.5339217,25.390625,-43.9453125,-18.5546875,-37.109375,0.0
1676921974.537668,29.296875,-31.25,-18.06640625,2.9296875,0.0
1676921974.5414145,46.38671875,-20.5078125,6.34765625,86.42578125,0.0
1676921974.545161,42.48046875,-9.765625,2.44140625,57.6171875,0.0
1676921974.5489073,34.66796875,-26.85546875,-6.34765625,-20.99609375,0.0
1676921974.5526538,7.32421875,-48.828125,-24.4140625,-23.92578125,0.0
1676921974.5564003,-2.44140625,-57.12890625,-37.109375,48.828125,0.0
1676921974.5601468,23.4375,-51.26953125,-18.5546875,67.87109375,0.0
1676921974.5638933,20.99609375,-45.41015625,-17.578125,-21.484375,0.0
1676921974.5676396,7.8125,-33.203125,-11.71875,-38.57421875,0.0
1676921974.571386,40.52734375,-18.06640625,-9.27734375,62.98828125,0.0
1676921974.5751438,24.4140625,-24.90234375,-22.94921875,71.77734375,0.0
1676921974.5789013,25.87890625,-11.23046875,-13.671875,7.32421875,0.0
1676921974.5826588,40.52734375,3.41796875,-1.46484375,-23.4375,0.0
1676921974.5864165,6.8359375,-26.85546875,-9.27734375,5.859375,0.0
1676921974.5901742,-30.76171875,-58.59375,-30.2734375,39.0625,0.0
1676921974.5939317,-17.578125,-66.40625,-29.296875,12.20703125,0.0
1676921974.5976892,-2.44140625,-42.96875,-14.6484375,-45.41015625,0.0
1676921974.6014469,-8.30078125,-33.69140625,-14.16015625,-13.18359375,0.0
1676921974.6052046,-0.9765625,-47.8515625,-24.90234375,56.640625,0.0
1676921974.608962,14.6484375,-30.76171875,-23.4375,41.50390625,0.0
1676921974.6127195,9.27734375,-3.90625,-8.30078125,-30.76171875,0.0
1676921974.6164773,17.578125,-12.20703125,-8.7890625,-13.671875,0.0
1676921974.620325,2.44140625,-37.59765625,-32.71484375,49.31640625,0.0
1676921974.624173,2.9296875,-20.99609375,-23.92578125,31.25,0.0
1676921974.6280208,27.34375,0.0,14.6484375,-19.04296875,0.0
1676921974.6318684,-3.90625,-29.78515625,-15.625,-48.828125,0.0
1676921974.6357162,-18.06640625,-47.8515625,-50.29296875,-8.7890625,0.0
1676921974.639564,-16.6015625,-29.296875,-34.1796875,19.04296875,0.0
1676921974.6434119,-9.765625,-36.62109375,-19.53125,-12.20703125,0.0
1676921974.6472597,-20.5078125,-57.12890625,-30.2734375,-64.94140625,0.0
1676921974.6511073,-33.69140625,-44.43359375,-33.69140625,-25.87890625,0.0
1676921974.6549551,-22.4609375,-20.01953125,-18.5546875,49.31640625,0.0
1676921974.658803,-25.390625,-28.80859375,-2.9296875,14.16015625,0.0
1676921974.6626508,-42.96875,-49.8046875,-22.94921875,-79.58984375,0.0
1676921974.6663008,-13.18359375,-24.90234375,-16.11328125,-45.8984375,0.0
1676921974.669951,-7.8125,-32.2265625,-15.13671875,26.85546875,0.0
1676921974.6736012,-31.73828125,-44.921875,-28.80859375,-8.7890625,0.0
1676921974.677251,-40.52734375,-23.4375,-27.34375,-87.40234375,0.0
1676921974.680901,-49.8046875,-43.45703125,-35.15625,-89.84375,0.0
1676921974.6845512,-46.38671875,-44.921875,-27.83203125,3.41796875,0.0
1676921974.6882014,-41.9921875,-43.45703125,-28.80859375,21.484375,0.0
1676921974.6918514,-49.31640625,-57.6171875,-37.59765625,-62.98828125,0.0
1676921974.6955013,-53.22265625,-46.38671875,-33.203125,-104.00390625,0.0
1676921974.6991515,-24.4140625,-42.48046875,-23.4375,-17.08984375,0.0
1676921974.7028017,1.953125,-22.94921875,-12.6953125,42.48046875,0.0
1676921974.7064517,-10.25390625,-5.37109375,-0.9765625,-19.04296875,0.0
1676921974.7102048,-44.921875,-30.76171875,-24.90234375,-106.93359375,0.0
1676921974.713958,-56.15234375,-44.43359375,-49.31640625,-57.12890625,0.0
1676921974.717711,-41.9921875,-29.78515625,-40.0390625,18.06640625,0.0
1676921974.7214642,-31.73828125,-31.73828125,-28.3203125,-20.5078125,0.0
1676921974.7252173,-37.59765625,-42.96875,-16.6015625,-91.796875,0.0
1676921974.7289705,-30.2734375,-45.41015625,-16.6015625,-46.38671875,0.0
1676921974.7327237,-21.97265625,-60.05859375,-22.4609375,46.38671875,0.0
1676921974.736477,-22.94921875,-25.87890625,-16.6015625,22.4609375,0.0
1676921974.74023,-40.0390625,-11.23046875,-28.80859375,-81.0546875,0.0
1676921974.743983,-45.41015625,-38.0859375,-33.69140625,-86.9140625,0.0
1676921974.7477362,-30.76171875,-34.1796875,-20.5078125,16.6015625,0.0
1676921974.7514894,-39.0625,-14.6484375,-18.06640625,28.80859375,0.0
1676921974.7564816,-9.765625,4.39453125,-5.37109375,-34.1796875,0.0
1676921974.7614737,-10.7421875,-16.11328125,-9.27734375,-75.68359375,0.0
1676921974.766466,-20.01953125,-30.2734375,-46.875,-15.625,0.0
1676921974.7714581,-31.73828125,-43.45703125,-57.6171875,27.34375,0.0
1676921974.7764504,-5.37109375,-33.69140625,-1.953125,3.90625,0.0
1676921974.7814426,0.0,-25.87890625,-8.30078125,-57.6171875,0.0
1676921974.7864347,-40.52734375,-40.52734375,-58.10546875,-70.80078125,0.0
1676921974.791427,-16.11328125,-33.203125,-33.69140625,1.46484375,0.0
1676921974.7964191,-29.78515625,-35.15625,-35.64453125,-27.83203125,0.0
1676921974.8014112,-52.734375,-20.99609375,-51.7578125,-100.09765625,0.0
1676921974.8064034,-27.83203125,-0.9765625,-28.3203125,-65.91796875,0.0
1676921974.8113956,-24.4140625,-6.8359375,-23.4375,9.27734375,0.0
1676921974.8151333,-45.41015625,-32.71484375,-33.203125,3.41796875,0.0
1676921974.818871,-33.203125,-57.12890625,-26.85546875,-50.29296875,0.0
1676921974.8226085,-25.390625,-45.41015625,-34.66796875,-67.3828125,0.0
1676921974.8263462,-34.66796875,-15.625,-44.43359375,-16.6015625,0.0
1676921974.8300838,-52.24609375,-29.296875,-39.0625,-2.44140625,0.0
1676921974.8338215,-36.1328125,-45.41015625,-22.4609375,-46.38671875,0.0
1676921974.8375592,-15.625,-30.2734375,-33.203125,-73.73046875,0.0
1676921974.841297,-22.94921875,-21.484375,-41.015625,-13.671875,0.0
1676921974.8450346,-19.53125,-22.4609375,-18.5546875,49.8046875,0.0
1676921974.848772,-13.18359375,-33.203125,-9.765625,4.8828125,0.0
1676921974.8525097,-34.1796875,-33.69140625,-33.203125,-97.16796875,0.0
1676921974.8562474,-30.2734375,-18.5546875,-41.50390625,-60.546875,0.0
1676921974.8601115,-35.64453125,-50.78125,-45.8984375,7.8125,0.0
1676921974.8639753,-46.38671875,-62.5,-52.24609375,-30.2734375,0.0
1676921974.8678393,-18.5546875,-24.90234375,-27.34375,-82.51953125,0.0
1676921974.8717031,-9.27734375,-21.484375,-38.0859375,-62.98828125,0.0
1676921974.8755672,-39.0625,-32.2265625,-51.26953125,-0.48828125,0.0
1676921974.8794312,-31.73828125,-33.69140625,-5.859375,5.37109375,0.0
1676921974.883295,-42.48046875,-37.109375,-20.99609375,-87.40234375,0.0
1676921974.887159,-64.94140625,-32.71484375,-46.38671875,-118.1640625,0.0
1676921974.891023,-38.57421875,-12.20703125,-20.5078125,-0.48828125,0.0
1676921974.894887,-45.8984375,-18.5546875,-20.01953125,22.94921875,0.0
1676921974.8987508,-67.87109375,-44.921875,-32.71484375,-72.75390625,0.0
1676921974.9026148,-62.5,-41.015625,-32.2265625,-115.234375,0.0
1676921974.9062662,-43.9453125,-11.71875,-20.99609375,-46.38671875,0.0
1676921974.9099174,-61.5234375,-21.484375,-38.57421875,-5.37109375,0.0
1676921974.9135687,-51.26953125,-38.0859375,-32.2265625,-28.80859375,0.0
1676921974.91722,-54.19921875,-55.17578125,-17.578125,-90.33203125,0.0
1676921974.9208713,-45.8984375,-35.64453125,-9.27734375,-63.4765625,0.0
1676921974.9245226,-32.2265625,2.44140625,-3.41796875,27.83203125,0.0
1676921974.928174,-49.31640625,-8.7890625,-20.99609375,0.0,0.0
1676921974.9318252,-60.546875,-29.78515625,-38.57421875,-73.2421875,0.0
1676921974.9354765,-53.22265625,-36.62109375,-31.25,-45.8984375,0.0
1676921974.939128,-28.3203125,-39.55078125,-10.7421875,24.4140625,0.0
1676921974.942779,-49.8046875,-52.24609375,-20.5078125,6.34765625,0.0
1676921974.9464304,-62.5,-55.17578125,-31.73828125,-62.5,0.0
1676921974.9514258,-58.10546875,-25.390625,-34.1796875,-87.40234375,0.0
1676921974.956421,-68.84765625,-33.203125,-34.66796875,-26.3671875,0.0
1676921974.9614162,-55.17578125,-33.203125,-12.6953125,30.2734375,0.0
1676921974.9664116,-46.38671875,-24.90234375,-10.25390625,-8.7890625,0.0
1676921974.971407,-62.01171875,-45.8984375,-27.34375,-68.84765625,0.0
1676921974.9764023,-47.36328125,-35.64453125,-30.76171875,-31.25,0.0
1676921974.9813974,-44.43359375,-20.5078125,-24.4140625,28.80859375,0.0
1676921974.9863927,-44.921875,-17.578125,-14.16015625,15.13671875,0.0
1676921974.991388,-40.0390625,-14.16015625,-19.53125,-65.4296875,0.0
1676921974.9963832,-65.4296875,-43.45703125,-38.0859375,-82.51953125,0.0
1676921975.0013785,-62.98828125,-58.59375,-40.0390625,5.37109375,0.0
1676921975.006374,-46.875,-35.64453125,-28.80859375,6.34765625,0.0
1676921975.0088801,-53.7109375,-25.87890625,-42.96875,-85.44921875,0.0
1676921975.0113862,-51.26953125,-20.5078125,-41.015625,-78.125,0.0
1676921975.0138922,-41.9921875,-22.4609375,-35.15625,8.7890625,0.0
1676921975.0163984,-47.8515625,-46.38671875,-41.50390625,6.8359375,0.0
1676921975.0189047,-40.0390625,-46.38671875,-36.1328125,-52.734375,0.0
1676921975.0214107,-33.69140625,-32.2265625,-34.1796875,-86.42578125,0.0
1676921975.0239167,-32.71484375,-27.83203125,-33.69140625,-30.2734375,0.0
1676921975.026423,-49.31640625,-38.0859375,-41.9921875,4.39453125,0.0
1676921975.0289292,-64.94140625,-56.15234375,-48.828125,-43.9453125,0.0
1676921975.0314353,-54.19921875,-49.31640625,-42.48046875,-93.75,0.0
1676921975.0339413,-39.0625,-23.92578125,-33.69140625,-34.1796875,0.0
1676921975.0364475,-31.73828125,-2.9296875,-22.94921875,64.94140625,0.0
1676921975.0402954,-52.24609375,-22.94921875,-28.80859375,5.37109375,0.0
1676921975.0441432,-49.8046875,-33.203125,-36.1328125,-85.9375,0.0
1676921975.0479913,-32.2265625,-23.92578125,-22.94921875,-55.6640625,0.0
1676921975.051839,-39.0625,-39.55078125,-20.5078125,16.6015625,0.0
1676921975.055687,-57.12890625,-50.29296875,-35.15625,0.9765625,0.0
1676921975.059535,-50.29296875,-25.390625,-26.85546875,-53.22265625,0.0
1676921975.0633829,-22.4609375,-20.99609375,-34.1796875,-52.734375,0.0
1676921975.0672307,-26.3671875,-27.83203125,-30.76171875,9.27734375,0.0
1676921975.0710785,-33.69140625,-19.53125,-9.27734375,24.4140625,0.0
1676921975.0749264,-25.87890625,-23.92578125,-25.87890625,-41.9921875,0.0
1676921975.0787745,-32.2265625,-22.94921875,-34.66796875,-88.37890625,0.0
1676921975.0826223,-27.34375,-9.765625,-26.85546875,-25.87890625,0.0
1676921975.0862818,-27.34375,-5.37109375,-10.7421875,46.875,0.0
1676921975.0899413,-28.3203125,-43.9453125,-24.4140625,-1.46484375,0.0
1676921975.0936007,-16.11328125,-32.71484375,-33.203125,-58.59375,0.0
1676921975.09726,-18.5546875,-6.8359375,-20.5078125,-18.06640625,0.0
1676921975.1009195,-25.390625,-25.87890625,-12.20703125,50.78125,0.0
1676921975.104579,-22.94921875,-31.25,-6.8359375,36.1328125,0.0
1676921975.1082385,-29.296875,-23.92578125,-26.85546875,-31.73828125,0.0
1676921975.111898,-39.0625,-49.8046875,-26.85546875,-38.0859375,0.0
1676921975.1155572,-58.10546875,-52.24609375,-33.69140625,10.7421875,0.0
1676921975.1192167,-52.734375,-5.859375,-27.34375,21.484375,0.0
1676921975.1228762,-50.78125,-13.671875,-24.4140625,-45.8984375,0.0
1676921975.1265357,-63.4765625,-38.57421875,-32.2265625,-74.21875,0.0
1676921975.1327791,-41.50390625,-18.5546875,-0.9765625,27.34375,0.0
1676921975.1390228,-48.828125,-33.69140625,-6.34765625,54.6875,0.0
1676921975.1452665,-66.89453125,-50.29296875,-39.0625,-29.296875,0.0
1676921975.15151,-63.96484375,-40.0390625,-24.90234375,-61.5234375,0.0
1676921975.1577535,-43.9453125,-46.875,-21.484375,1.46484375,0.0
1676921975.1639972,-30.76171875,-31.25,-32.71484375,53.22265625,0.0
1676921975.1702409,-39.0625,-26.85546875,-17.08984375,9.27734375,0.0
1676921975.1764843,-56.15234375,-42.96875,-9.765625,-70.3125,0.0
1676921975.1827278,-30.76171875,-32.71484375,-21.484375,-32.71484375,0.0
1676921975.1889715,-22.4609375,-28.80859375,-29.78515625,45.8984375,0.0
1676921975.1952152,-45.8984375,-38.57421875,-21.484375,13.18359375,0.0
1676921975.2014587,-27.34375,-21.97265625,-4.8828125,-39.0625,0.0
1676921975.2039564,-24.90234375,-26.3671875,-15.13671875,-40.52734375,0.0
1676921975.2064543,-42.96875,-44.43359375,-38.0859375,0.0,0.0
1676921975.208952,-59.08203125,-27.83203125,-52.734375,10.7421875,0.0
1676921975.2114499,-58.59375,-21.484375,-56.640625,-56.15234375,0.0
1676921975.2139475,-43.9453125,-35.15625,-45.41015625,-82.51953125,0.0
1676921975.2164454,-37.109375,-21.484375,-32.71484375,12.20703125,0.0
1676921975.218943,-28.80859375,-18.5546875,-40.0390625,42.96875,0.0
1676921975.2214408,-28.80859375,-41.015625,-55.17578125,-34.1796875,0.0
1676921975.2239387,-32.2265625,-52.734375,-60.546875,-93.26171875,0.0
1676921975.2264364,-33.203125,-30.76171875,-50.29296875,-41.9921875,0.0
1676921975.2289343,-44.43359375,-29.296875,-45.8984375,27.34375,0.0
1676921975.231432,-46.38671875,-54.6875,-40.0390625,-7.32421875,0.0
1676921975.2351809,-34.1796875,-26.85546875,-32.2265625,-52.24609375,0.0
1676921975.2389297,-13.18359375,-4.39453125,-22.4609375,-4.8828125,0.0
1676921975.2426784,-21.484375,-26.3671875,-36.62109375,36.1328125,0.0
1676921975.2464273,-28.3203125,-33.69140625,-40.0390625,13.18359375,0.0
1676921975.2501762,-7.8125,-35.64453125,-12.20703125,-36.62109375,0.0
1676921975.2539248,-13.671875,-49.8046875,-12.6953125,-23.4375,0.0
1676921975.2576737,-6.8359375,-23.92578125,-6.34765625,38.57421875,0.0
1676921975.2614226,-3.90625,14.6484375,4.39453125,52.734375,0.0
1676921975.2651715,-18.5546875,-4.8828125,-31.25,-13.671875,0.0
1676921975.2689204,0.48828125,-22.94921875,-40.0390625,-62.5,0.0
1676921975.272669,-1.46484375,-17.08984375,-15.13671875,-6.34765625,0.0
1676921975.276418,-37.109375,-31.73828125,-27.34375,33.69140625,0.0
1676921975.2801664,-10.25390625,-24.4140625,-18.06640625,5.37109375,0.0
1676921975.2839148,-1.46484375,-9.27734375,0.9765625,-46.875,0.0
1676921975.2876632,-39.0625,-21.97265625,-10.25390625,-30.76171875,0.0
1676921975.2914116,-41.9921875,-21.484375,-2.44140625,36.1328125,0.0
1676921975.29516,-24.4140625,-15.13671875,-12.20703125,14.6484375,0.0
1676921975.2989087,-15.13671875,6.8359375,-10.7421875,-46.875,0.0
1676921975.3026571,-23.92578125,-5.37109375,-8.30078125,-41.9921875,0.0
1676921975.3064055,-52.734375,-51.26953125,-31.25,10.7421875,0.0
1676921975.310154,-43.45703125,-35.15625,-20.5078125,11.23046875,0.0
1676921975.3139024,-33.203125,-16.11328125,-9.27734375,-65.4296875,0.0
1676921975.3176508,-41.015625,-19.04296875,-25.390625,-87.40234375,0.0
1676921975.3213992,-26.85546875,-15.13671875,-23.92578125,6.8359375,0.0
1676921975.3251545,-31.25,-14.6484375,-12.6953125,34.1796875,0.0
1676921975.3289099,-30.2734375,-15.625,-20.99609375,-40.52734375,0.0
1676921975.3326654,-39.55078125,-24.4140625,-37.59765625,-88.37890625,0.0
1676921975.3364208,-50.29296875,-36.1328125,-36.1328125,-33.69140625,0.0
1676921975.340176,-41.50390625,-43.9453125,-20.01953125,21.97265625,0.0
1676921975.3439314,-22.94921875,-20.99609375,-13.18359375,-18.5546875,0.0
1676921975.3476868,-40.52734375,-25.87890625,-17.08984375,-88.8671875,0.0
1676921975.351442,-43.9453125,-46.875,-8.7890625,-54.6875,0.0
1676921975.3551974,-19.53125,-25.87890625,-8.7890625,14.6484375,0.0
1676921975.358953,-35.64453125,-10.7421875,-28.3203125,-23.92578125,0.0
1676921975.3627083,-50.29296875,-31.73828125,-26.3671875,-111.328125,0.0
1676921975.3664637,-50.29296875,-31.25,-15.13671875,-103.02734375,0.0
1676921975.3714623,-44.43359375,-14.6484375,-41.50390625,-5.37109375,0.0
1676921975.376461,-46.38671875,-33.69140625,-34.1796875,-6.34765625,0.0
1676921975.3814597,-51.26953125,-39.0625,-15.625,-94.23828125,0.0
1676921975.3864582,-56.15234375,-21.484375,-33.203125,-113.76953125,0.0
1676921975.3914568,-50.78125,-23.4375,-24.90234375,-31.73828125,0.0
1676921975.3964555,-43.45703125,-29.78515625,-5.859375,12.6953125,0.0
1676921975.4014542,-34.66796875,-13.18359375,2.9296875,-38.0859375,0.0
1676921975.406453,-46.875,-24.4140625,-13.18359375,-89.84375,0.0
1676921975.4114513,-44.43359375,-47.36328125,-28.3203125,-65.91796875,0.0
1676921975.41645,-35.64453125,-41.50390625,-20.99609375,-6.34765625,0.0
1676921975.4214487,-34.1796875,-6.34765625,-22.94921875,-13.18359375,0.0
1676921975.4264474,-27.34375,-13.671875,-35.15625,-91.796875,0.0
1676921975.4289458,-50.29296875,-36.1328125,-36.1328125,-86.9140625,0.0
1676921975.4314442,-60.546875,-18.06640625,-38.57421875,-12.20703125,0.0
1676921975.4339423,-50.78125,-25.87890625,-28.80859375,-25.390625,0.0
1676921975.4364407,-52.734375,-44.921875,-20.01953125,-97.16796875,0.0
1676921975.438939,-64.453125,-40.52734375,-35.64453125,-98.14453125,0.0
1676921975.4414375,-66.89453125,-36.1328125,-29.296875,-4.8828125,0.0
1676921975.4439359,-38.57421875,-41.015625,-12.20703125,16.11328125,0.0
1676921975.4464343,-37.109375,-53.22265625,-27.83203125,-62.98828125,0.0
1676921975.4489326,-39.55078125,-51.26953125,-31.73828125,-83.984375,0.0
1676921975.4514308,-23.4375,-36.1328125,-17.08984375,2.44140625,0.0
1676921975.4539292,-20.5078125,-12.6953125,-4.39453125,72.75390625,0.0
1676921975.4564276,-51.26953125,-17.08984375,-26.3671875,-1.46484375,0.0
1676921975.4601843,-48.828125,-39.55078125,-45.8984375,-91.30859375,0.0
1676921975.4639413,-27.34375,-17.578125,-23.4375,-41.015625,0.0
1676921975.467698,-41.50390625,-20.99609375,-36.1328125,16.11328125,0.0
1676921975.4714549,-58.10546875,-47.8515625,-53.7109375,-27.83203125,0.0
1676921975.4752119,-53.7109375,-36.1328125,-36.1328125,-98.14453125,0.0
1676921975.4789686,-48.828125,-24.4140625,-28.3203125,-65.91796875,0.0
1676921975.4827254,-55.6640625,-52.734375,-38.0859375,27.34375,0.0
1676921975.4864824,-56.640625,-43.9453125,-44.43359375,-6.34765625,0.0
1676921975.4902391,-37.59765625,-18.06640625,-34.1796875,-75.1953125,0.0
1676921975.493996,-30.2734375,-7.32421875,-23.92578125,-62.01171875,0.0
1676921975.497753,-40.0390625,-14.16015625,-41.9921875,0.48828125,0.0
1676921975.5015097,-45.8984375,-20.5078125,-40.52734375,20.01953125,0.0
1676921975.5065005,-56.15234375,-29.296875,-31.73828125,-41.015625,0.0
1676921975.5114915,-51.26953125,-27.83203125,-36.1328125,-77.63671875,0.0
1676921975.5164824,-59.5703125,-21.97265625,-43.45703125,-16.11328125,0.0
1676921975.5214732,-65.91796875,-42.96875,-35.15625,30.2734375,0.0
1676921975.5264642,-47.36328125,-48.33984375,-33.203125,-16.6015625,0.0
1676921975.531455,-57.6171875,-37.109375,-47.8515625,-69.3359375,0.0
1676921975.5364459,-64.94140625,-23.92578125,-24.90234375,-30.76171875,0.0
1676921975.541437,-60.05859375,-15.13671875,-15.625,29.78515625,0.0
1676921975.5464277,-62.01171875,-23.92578125,-22.4609375,-3.90625,0.0
1676921975.5514185,-56.15234375,-25.390625,-20.01953125,-77.1484375,0.0
1676921975.5564096,-56.640625,-37.109375,-31.25,-64.94140625,0.0
1676921975.5614004,-55.17578125,-29.78515625,-18.06640625,25.87890625,0.0
1676921975.5651553,-45.41015625,-32.71484375,-20.01953125,21.97265625,0.0
1676921975.5689101,-34.1796875,-39.0625,-21.484375,-44.921875,0.0
1676921975.572665,-29.78515625,-14.6484375,-2.9296875,-53.22265625,0.0
1676921975.5764198,-35.64453125,-20.5078125,-18.06640625,5.859375,0.0
1676921975.5801747,-52.24609375,-45.8984375,-31.25,40.0390625,0.0
1676921975.5839295,-60.05859375,-41.015625,-28.80859375,-23.92578125,0.0
1676921975.5876846,-44.43359375,-28.80859375,-19.04296875,-88.8671875,0.0
1676921975.5914395,-29.296875,-13.18359375,-1.953125,-18.5546875,0.0
1676921975.5951943,-30.2734375,-22.4609375,9.27734375,55.6640625,0.0
1676921975.5989492,-44.921875,-41.015625,-11.23046875,-9.765625,0.0
1676921975.602704,-52.734375,-26.85546875,-17.578125,-90.8203125,0.0
1676921975.606459,-58.10546875,-37.109375,-35.15625,-65.4296875,0.0
1676921975.6102066,-52.734375,-38.0859375,-32.71484375,12.20703125,0.0
1676921975.6139543,-46.38671875,-36.1328125,-41.015625,-14.6484375,0.0
1676921975.617702,-42.96875,-36.62109375,-40.52734375,-85.44921875,0.0
1676921975.6214495,-27.83203125,-23.4375,-25.87890625,-54.6875,0.0
1676921975.6251972,-29.296875,-32.71484375,-34.1796875,18.5546875,0.0
1676921975.6289449,-41.015625,-39.55078125,-31.73828125,21.97265625,0.0
1676921975.6326926,-45.41015625,-46.38671875,-29.296875,-49.31640625,0.0
1676921975.6364403,-45.41015625,-61.03515625,-27.34375,-78.61328125,0.0
1676921975.6401877,-43.9453125,-27.83203125,-22.4609375,13.671875,0.0
1676921975.6439354,-54.19921875,-11.23046875,-19.04296875,44.921875,0.0
1676921975.6476831,-53.22265625,-30.2734375,-36.1328125,-46.38671875,0.0
1676921975.6514308,-60.546875,-50.29296875,-36.1328125,-86.42578125,0.0
1676921975.65519,-46.875,-31.25,-22.4609375,-1.953125,0.0
1676921975.6589494,-41.50390625,-25.87890625,-23.4375,50.29296875,0.0
1676921975.6627088,-57.6171875,-41.50390625,-21.97265625,-2.44140625,0.0
1676921975.666468,-61.03515625,-38.0859375,-31.25,-77.63671875,0.0
1676921975.670227,-48.828125,-26.85546875,-31.25,-40.52734375,0.0
1676921975.6739864,-40.0390625,-21.484375,-24.4140625,48.33984375,0.0
1676921975.6777458,-67.87109375,-58.59375,-29.78515625,3.41796875,0.0
1676921975.681505,-64.453125,-58.59375,-25.87890625,-67.3828125,0.0
1676921975.685264,-54.19921875,-30.2734375,-26.3671875,-45.8984375,0.0
1676921975.6890235,-43.9453125,-33.203125,-23.4375,15.625,0.0
1676921975.6927829,-43.9453125,-35.15625,-9.27734375,24.90234375,0.0
1676921975.696542,-53.7109375,-22.94921875,-28.80859375,-43.9453125,0.0
1676921975.7003286,-37.59765625,-15.625,-35.64453125,-70.80078125,0.0
1676921975.7041154,-46.875,-27.34375,-25.87890625,-15.13671875,0.0
1676921975.707902,-65.4296875,-46.875,-21.97265625,16.6015625,0.0
1676921975.7116888,-38.0859375,-41.015625,-24.90234375,-17.08984375,0.0
1676921975.7154753,-21.97265625,-13.18359375,-28.80859375,-62.98828125,0.0
1676921975.7192621,-48.828125,-25.390625,-32.71484375,-30.2734375,0.0
1676921975.7230487,-57.6171875,-49.8046875,-36.1328125,31.25,0.0
1676921975.7268353,-41.015625,-31.25,-22.4609375,11.71875,0.0
1676921975.730622,-52.24609375,-25.390625,-21.97265625,-61.03515625,0.0
1676921975.7344086,-42.48046875,-27.83203125,-36.1328125,-44.43359375,0.0
1676921975.7381954,-25.390625,-10.25390625,-37.109375,26.85546875,0.0
1676921975.741982,-34.66796875,-12.20703125,-46.875,11.23046875,0.0
1676921975.746936,-33.69140625,-7.8125,-23.92578125,-51.26953125,0.0
1676921975.7518902,-37.59765625,-13.671875,-5.859375,-55.17578125,0.0
1676921975.756844,-42.48046875,-26.3671875,-25.87890625,21.484375,0.0
1676921975.7617981,-41.9921875,-20.99609375,-32.2265625,35.64453125,0.0
1676921975.7667522,-45.41015625,-27.34375,-26.85546875,-36.1328125,0.0
1676921975.7717063,-41.015625,-35.64453125,-24.4140625,-60.546875,0.0
1676921975.7766604,-21.484375,-29.78515625,-21.97265625,11.71875,0.0
1676921975.7816145,-37.59765625,-17.08984375,-30.2734375,66.89453125,0.0
1676921975.7865686,-68.359375,-29.296875,-47.36328125,-16.11328125,0.0
1676921975.7915225,-45.41015625,-15.625,-21.97265625,-78.61328125,0.0
1676921975.7964766,-29.78515625,-16.11328125,-4.8828125,-11.71875,0.0
1676921975.8014307,-34.1796875,-47.8515625,-15.625,45.41015625,0.0
1676921975.8039298,-39.0625,-26.85546875,-27.83203125,15.13671875,0.0
1676921975.8064291,-61.03515625,-28.80859375,-43.45703125,-65.4296875,0.0
1676921975.8089283,-59.5703125,-25.390625,-40.52734375,-53.7109375,0.0
1676921975.8114274,-49.8046875,-14.6484375,-32.2265625,28.80859375,0.0
1676921975.8139267,-50.29296875,-24.90234375,-25.87890625,29.296875,0.0
1676921975.8164258,-44.43359375,-29.296875,-30.2734375,-51.26953125,0.0
1676921975.818925,-49.31640625,-39.55078125,-41.015625,-59.08203125,0.0
1676921975.8214242,-45.8984375,-42.96875,-33.69140625,15.13671875,0.0
1676921975.8239233,-41.015625,-24.90234375,3.90625,32.2265625,0.0
1676921975.8264225,-52.734375,-42.96875,-13.671875,-28.3203125,0.0
1676921975.8289218,-72.75390625,-43.45703125,-52.734375,-79.1015625,0.0
1676921975.831421,-53.22265625,-20.5078125,-25.390625,-14.16015625,0.0
1676921975.835175,-44.43359375,-17.578125,-11.71875,36.62109375,0.0
1676921975.8389292,-51.7578125,-35.15625,-11.71875,-8.7890625,0.0
1676921975.8426833,-47.36328125,-45.41015625,-18.06640625,-76.171875,0.0
1676921975.8464377,-46.38671875,-32.2265625,-46.38671875,-43.9453125,0.0
1676921975.8501918,-49.8046875,-31.73828125,-42.48046875,32.71484375,0.0
1676921975.853946,-33.203125,-31.25,-11.71875,17.578125,0.0
1676921975.8577,-23.92578125,-30.76171875,4.8828125,-51.7578125,0.0
1676921975.8614542,-36.62109375,-42.96875,-4.39453125,-52.24609375,0.0
1676921975.8652086,-32.2265625,-44.43359375,-18.5546875,24.90234375,0.0
1676921975.8689628,-36.1328125,-26.85546875,-19.04296875,31.73828125,0.0
1676921975.872717,-65.91796875,-19.53125,-42.96875,-55.6640625,0.0
1676921975.876471,-63.4765625,-21.97265625,-34.66796875,-91.796875,0.0
1676921975.8814683,-31.25,-10.7421875,-9.765625,0.9765625,0.0
1676921975.8864658,-44.921875,-19.04296875,-34.66796875,28.3203125,0.0
1676921975.8914633,-64.453125,-25.87890625,-36.1328125,-30.2734375,0.0
1676921975.8964605,-59.08203125,-36.62109375,-21.484375,-74.70703125,0.0
1676921975.9014578,-59.08203125,-48.33984375,-36.1328125,-33.203125,0.0
1676921975.9064553,-85.9375,-39.55078125,-36.62109375,16.11328125,0.0
1676921975.9114528,-84.47265625,-46.875,-27.34375,-32.2265625,0.0
1676921975.91645,-83.0078125,-57.12890625,-26.85546875,-99.609375,0.0
1676921975.9214473,-67.3828125,-37.109375,-9.27734375,-52.734375,0.0
1676921975.9264448,-52.24609375,-22.94921875,-20.99609375,37.59765625,0.0
1676921975.9314423,-57.12890625,-24.4140625,-32.71484375,12.20703125,0.0
1676921975.9364395,-55.6640625,-41.015625,-16.11328125,-67.3828125,0.0
1676921975.9401872,-44.921875,-31.73828125,-20.99609375,-52.734375,0.0
1676921975.9439352,-27.83203125,-13.671875,-35.15625,32.71484375,0.0
1676921975.9476829,-48.33984375,-28.3203125,-35.64453125,16.11328125,0.0
1676921975.9514306,-53.22265625,-43.9453125,-13.671875,-57.12890625,0.0
1676921975.9551785,-48.828125,-50.78125,-5.37109375,-70.80078125,0.0
1676921975.9589262,-57.12890625,-45.8984375,-23.92578125,-0.9765625,0.0
1676921975.962674,-40.52734375,-21.97265625,-31.25,42.96875,0.0
1676921975.9664218,-41.9921875,-39.0625,-27.83203125,-24.4140625,0.0
1676921975.9701695,-61.03515625,-60.546875,-39.0625,-94.7265625,0.0
1676921975.9739172,-58.10546875,-51.26953125,-40.0390625,-32.2265625,0.0
1676921975.9776652,-44.921875,-19.04296875,-26.85546875,37.109375,0.0
1676921975.981413,-34.66796875,-7.8125,-15.625,1.46484375,0.0
1676921975.9851665,-27.83203125,-31.25,-24.4140625,-59.08203125,0.0
1676921975.9889202,-26.85546875,-52.24609375,-32.71484375,-35.64453125,0.0
1676921975.9926739,-17.08984375,-29.296875,-5.37109375,50.78125,0.0
1676921975.9964278,-49.31640625,-41.9921875,-19.04296875,14.6484375,0.0
1676921976.0001814,-81.0546875,-52.734375,-51.7578125,-77.1484375,0.0
1676921976.003935,-59.08203125,-32.71484375,-43.45703125,-58.59375,0.0
1676921976.0076888,-28.3203125,-20.5078125,-24.4140625,25.390625,0.0
1676921976.0114424,-27.34375,-9.27734375,-23.92578125,45.8984375,0.0
1676921976.0151963,-32.2265625,-26.3671875,-45.8984375,-14.6484375,0.0
1676921976.01895,-22.4609375,-19.53125,-37.59765625,-59.08203125,0.0
1676921976.0227036,-32.71484375,-16.11328125,-20.01953125,-4.8828125,0.0
1676921976.0264573,-44.921875,-27.34375,-20.99609375,44.921875,0.0
1676921976.0302072,-32.71484375,-28.80859375,-28.80859375,-1.46484375,0.0
1676921976.033957,-44.921875,-37.109375,-31.73828125,-78.125,0.0
1676921976.0377069,-46.38671875,-50.78125,-33.69140625,-39.0625,0.0
1676921976.0414567,-24.4140625,-22.94921875,-18.06640625,50.29296875,0.0
1676921976.0452065,-38.57421875,-5.37109375,-18.06640625,10.7421875,0.0
1676921976.0489564,-52.734375,-18.5546875,-25.87890625,-73.2421875,0.0
1676921976.0527065,-28.80859375,-21.97265625,-22.94921875,-50.29296875,0.0
1676921976.0564563,-25.390625,-34.1796875,-23.92578125,35.64453125,0.0
1676921976.0602062,-37.109375,-31.73828125,-41.50390625,46.875,0.0
1676921976.063956,-27.34375,-10.7421875,-29.296875,-29.78515625,0.0
1676921976.0677059,-36.1328125,-21.484375,-18.5546875,-56.640625,0.0
1676921976.0714557,-34.1796875,-47.36328125,-36.62109375,21.97265625,0.0
1676921976.075204,-26.85546875,-43.9453125,-28.3203125,46.38671875,0.0
1676921976.0789523,-31.25,-39.0625,-27.34375,-29.296875,0.0
1676921976.0827005,-16.6015625,-24.90234375,-20.99609375,-57.12890625,0.0
1676921976.0864487,-8.7890625,-10.7421875,-8.30078125,17.08984375,0.0
1676921976.090197,-30.76171875,-24.4140625,-27.83203125,52.734375,0.0
1676921976.0939453,-27.83203125,-22.94921875,-32.71484375,5.37109375,0.0
1676921976.0976934,-17.08984375,-24.4140625,-18.5546875,-59.5703125,0.0
1676921976.1014419,-34.1796875,-53.22265625,-19.53125,-38.0859375,0.0
1676921976.10519,-42.48046875,-60.546875,-26.3671875,31.73828125,0.0
1676921976.1089382,-36.1328125,-44.921875,-17.08984375,14.6484375,0.0
1676921976.1126866,-34.66796875,-30.2734375,-22.94921875,-55.17578125,0.0
1676921976.1164348,-25.390625,-27.34375,-24.4140625,-43.9453125,0.0
1676921976.1214814,-37.109375,-20.99609375,-27.83203125,25.390625,0.0
1676921976.1265283,-41.9921875,-22.4609375,-44.43359375,10.25390625,0.0
1676921976.1315749,-44.921875,-32.71484375,-33.203125,-68.359375,0.0
1676921976.1366215,-50.78125,-26.3671875,-23.4375,-69.82421875,0.0
1676921976.141668,-20.5078125,-17.578125,-4.39453125,26.85546875,0.0
1676921976.1467147,-43.9453125,-41.015625,-25.87890625,33.203125,0.0
1676921976.1517615,-54.19921875,-38.0859375,-42.48046875,-28.80859375,0.0
1676921976.1568081,-39.55078125,-40.52734375,-38.57421875,-69.82421875,0.0
1676921976.1618547,-32.71484375,-43.9453125,-19.53125,-16.6015625,0.0
1676921976.1669016,-41.015625,-36.62109375,-13.671875,51.7578125,0.0
1676921976.1719482,-41.50390625,-14.16015625,-26.3671875,5.37109375,0.0
1676921976.1769948,-35.64453125,-23.4375,-21.97265625,-69.82421875,0.0
1676921976.1795485,-39.0625,-21.484375,-23.4375,-39.55078125,0.0
1676921976.1821022,-17.578125,-0.9765625,6.8359375,55.17578125,0.0
1676921976.1846557,-23.4375,-23.92578125,13.671875,39.0625,0.0
1676921976.1872094,-57.12890625,-47.8515625,-33.203125,-72.265625,0.0
1676921976.189763,-43.45703125,-31.73828125,-49.31640625,-84.9609375,0.0
1676921976.1923165,-15.13671875,-25.390625,-27.83203125,23.92578125,0.0
1676921976.1948702,-24.4140625,-34.66796875,-33.69140625,30.2734375,0.0
1676921976.197424,-47.36328125,-24.90234375,-50.29296875,-74.21875,0.0
1676921976.1999776,-32.2265625,-7.8125,-20.99609375,-91.796875,0.0
1676921976.2025313,-15.625,-25.87890625,-30.76171875,-14.6484375,0.0
1676921976.2050848,-42.48046875,-59.08203125,-65.91796875,15.13671875,0.0
1676921976.2076385,-34.1796875,-32.71484375,-41.015625,-27.83203125,0.0
1676921976.211297,-24.4140625,-18.5546875,-29.296875,-76.171875,0.0
1676921976.2149558,-8.30078125,-10.25390625,-38.0859375,-13.671875,0.0
1676921976.2186143,-27.83203125,-15.13671875,-36.1328125,43.9453125,0.0
1676921976.222273,-62.01171875,-47.36328125,-39.0625,-11.71875,0.0
1676921976.2259316,-27.34375,-36.1328125,-32.71484375,-79.1015625,0.0
1676921976.2295904,-24.4140625,-17.08984375,-27.34375,-49.31640625,0.0
1676921976.233249,-33.203125,-15.625,-17.08984375,41.50390625,0.0
1676921976.2369075,-37.109375,-21.97265625,-41.015625,13.671875,0.0
1676921976.2405663,-36.62109375,-23.92578125,-54.19921875,-73.2421875,0.0
1676921976.2442248,-36.62109375,-30.76171875,-20.5078125,-66.89453125,0.0
1676921976.2478836,-44.921875,-40.0390625,-14.6484375,19.04296875,0.0
1676921976.251542,-52.734375,-24.4140625,-29.78515625,19.04296875,0.0
1676921976.2565446,-52.24609375,-21.484375,-30.76171875,-58.10546875,0.0
1676921976.2615473,-47.36328125,-26.85546875,-22.4609375,-82.51953125,0.0
1676921976.26655,-31.73828125,-29.78515625,-23.4375,-8.7890625,0.0
1676921976.2715526,-32.71484375,-29.296875,-38.57421875,25.87890625,0.0
1676921976.276555,-46.875,-14.16015625,-29.296875,-21.484375,0.0
1676921976.2815578,-39.0625,-20.5078125,-23.4375,-72.265625,0.0
1676921976.2865605,-39.0625,-24.4140625,-29.78515625,-32.71484375,0.0
1676921976.291563,-45.41015625,-8.30078125,-15.13671875,39.55078125,0.0
1676921976.2965655,-41.015625,-23.4375,-17.578125,5.859375,0.0
1676921976.3015683,-36.62109375,-54.6875,-27.83203125,-59.5703125,0.0
1676921976.306571,-30.2734375,-33.69140625,-21.97265625,-30.76171875,0.0
1676921976.3115735,-28.3203125,-20.01953125,-15.625,36.62109375,0.0
1676921976.315312,-40.52734375,-36.62109375,-16.11328125,11.23046875,0.0
1676921976.3190506,-52.734375,-38.0859375,-26.3671875,-68.359375,0.0
1676921976.322789,-62.01171875,-41.015625,-20.99609375,-71.77734375,0.0
1676921976.3265274,-48.33984375,-18.5546875,-24.90234375,6.34765625,0.0
1676921976.330266,-16.11328125,5.859375,-12.6953125,41.015625,0.0
1676921976.3340044,-41.50390625,-26.3671875,-14.6484375,-49.31640625,0.0
1676921976.3377428,-64.94140625,-61.5234375,-25.390625,-114.74609375,0.0
1676921976.3414814,-48.828125,-44.921875,-20.5078125,-41.015625,0.0
1676921976.3452199,-50.78125,-42.96875,-36.62109375,13.671875,0.0
1676921976.3489583,-45.8984375,-48.33984375,-43.9453125,-24.90234375,0.0
1676921976.352697,-34.66796875,-14.16015625,-33.69140625,-84.47265625,0.0
1676921976.3564353,-41.015625,-14.16015625,-27.83203125,-59.5703125,0.0
1676921976.3601768,-42.96875,-25.87890625,-15.13671875,22.4609375,0.0
1676921976.3639183,-43.9453125,-24.90234375,-11.23046875,16.6015625,0.0
1676921976.3676598,-55.17578125,-33.69140625,-26.3671875,-74.21875,0.0
1676921976.3714013,-68.84765625,-54.6875,-43.9453125,-87.890625,0.0
1676921976.3751428,-66.89453125,-52.24609375,-36.1328125,-4.8828125,0.0
1676921976.3788843,-46.38671875,-43.45703125,-21.484375,19.04296875,0.0
1676921976.3826256,-39.55078125,-59.08203125,-34.1796875,-47.36328125,0.0
1676921976.386367,-54.6875,-34.66796875,-51.7578125,-79.58984375,0.0
1676921976.3901086,-51.7578125,-22.4609375,-42.48046875,6.8359375,0.0
1676921976.39385,-38.0859375,-28.3203125,-32.71484375,36.62109375,0.0
1676921976.3975916,-40.52734375,-19.04296875,-43.45703125,-36.1328125,0.0
1676921976.401333,-40.52734375,-28.3203125,-32.2265625,-86.42578125,0.0
1676921976.4052467,-47.8515625,-28.3203125,-22.94921875,-27.83203125,0.0
1676921976.4091604,-45.8984375,-28.3203125,-15.625,44.921875,0.0
1676921976.413074,-23.92578125,-41.9921875,-18.5546875,0.48828125,0.0
1676921976.4169877,-39.0625,-41.50390625,-49.31640625,-83.0078125,0.0
1676921976.4209013,-41.50390625,-21.484375,-50.78125,-56.15234375,0.0
1676921976.4248152,-29.296875,-25.87890625,-30.2734375,19.04296875,0.0
1676921976.4287288,-32.2265625,-33.203125,-22.4609375,1.953125,0.0
1676921976.4326425,-32.71484375,-33.203125,-26.3671875,-67.87109375,0.0
1676921976.436556,-35.15625,-34.66796875,-35.15625,-58.10546875,0.0
1676921976.4404697,-12.6953125,-23.4375,-13.671875,35.64453125,0.0
1676921976.4443834,-2.44140625,-35.15625,-3.41796875,52.734375,0.0
1676921976.448297,-6.8359375,-28.3203125,-26.3671875,-34.1796875,0.0
1676921976.451894,-5.859375,-13.671875,-31.25,-67.87109375,0.0
1676921976.455491,-22.4609375,-29.78515625,-25.390625,-3.90625,0.0
1676921976.459088,-34.66796875,-16.6015625,-35.64453125,29.78515625,0.0
1676921976.462685,-34.1796875,-0.9765625,-22.94921875,-18.06640625,0.0
1676921976.4662821,-43.9453125,-17.08984375,-16.6015625,-85.44921875,0.0
1676921976.4698792,-49.31640625,-22.4609375,-29.78515625,-56.640625,0.0
1676921976.4734762,-38.57421875,-15.625,-14.16015625,20.99609375,0.0
1676921976.4770732,-29.78515625,-41.015625,-25.390625,10.7421875,0.0
1676921976.4806702,-0.9765625,-29.296875,-21.97265625,-36.62109375,0.0
1676921976.4842672,-10.7421875,-21.97265625,-16.11328125,-40.52734375,0.0
1676921976.4878643,-23.4375,-31.73828125,-24.90234375,23.4375,0.0
1676921976.4914613,-18.5546875,-23.4375,-19.04296875,43.45703125,0.0
1676921976.4953015,-44.43359375,-40.52734375,-44.921875,-48.33984375,0.0
1676921976.4991417,-39.0625,-31.73828125,-48.33984375,-65.4296875,0.0
1676921976.5029817,1.953125,-8.7890625,-39.55078125,40.52734375,0.0
1676921976.5068219,1.46484375,5.859375,-34.1796875,48.828125,0.0
1676921976.510662,-22.94921875,-43.45703125,-24.90234375,-29.296875,0.0
1676921976.5145023,-11.23046875,-55.6640625,-29.78515625,-61.03515625,0.0
1676921976.5183425,15.13671875,4.39453125,-9.765625,20.01953125,0.0
1676921976.5221827,-3.90625,-1.953125,-16.6015625,70.80078125,0.0
1676921976.526023,-32.2265625,-41.9921875,-34.66796875,-12.6953125,0.0
1676921976.5298629,-39.55078125,-44.43359375,-35.64453125,-80.56640625,0.0
1676921976.533703,-27.83203125,-42.96875,-35.15625,-27.83203125,0.0
1676921976.5375433,-23.92578125,-30.76171875,-33.203125,28.3203125,0.0
1676921976.542453,-23.4375,-25.390625,-37.109375,8.7890625,0.0
1676921976.5473628,2.9296875,-15.625,-12.6953125,-35.64453125,0.0
1676921976.5522723,-0.48828125,-17.08984375,-13.18359375,-21.97265625,0.0
1676921976.557182,-3.41796875,-21.484375,-33.69140625,45.8984375,0.0
1676921976.5620918,-8.30078125,-41.50390625,-26.3671875,41.50390625,0.0
1676921976.5670013,-30.76171875,-55.17578125,-23.92578125,-37.59765625,0.0
1676921976.571911,-31.25,-41.9921875,-21.484375,-41.015625,0.0
1676921976.5768209,-29.296875,-33.203125,-26.85546875,35.15625,0.0
1676921976.5817306,-39.0625,-36.62109375,-36.62109375,39.0625,0.0
1676921976.5866404,-32.2265625,-14.6484375,-26.85546875,-17.08984375,0.0
1676921976.5915499,-31.73828125,-21.97265625,-14.6484375,-40.0390625,0.0
1676921976.5964596,-15.625,-35.64453125,-10.7421875,8.30078125,0.0
1676921976.5990615,-17.578125,-34.1796875,-12.6953125,51.26953125,0.0
1676921976.6016634,-41.9921875,-35.15625,-22.94921875,12.20703125,0.0
1676921976.6042652,-55.6640625,-21.484375,-34.1796875,-61.03515625,0.0
1676921976.606867,-64.94140625,-27.83203125,-36.1328125,-42.48046875,0.0
1676921976.609469,-48.33984375,-40.0390625,-29.296875,34.66796875,0.0
1676921976.6120706,-36.62109375,-24.90234375,-13.671875,35.15625,0.0
1676921976.6146724,-47.8515625,-37.109375,-12.6953125,-47.8515625,0.0
1676921976.6172743,-35.64453125,-30.2734375,-14.6484375,-47.8515625,0.0
1676921976.6198761,-30.2734375,-18.06640625,-7.8125,41.50390625,0.0
1676921976.622478,-29.296875,-19.04296875,-6.8359375,54.6875,0.0
1676921976.6250799,-51.26953125,-31.25,-17.578125,-34.66796875,0.0
1676921976.6276817,-50.78125,-22.94921875,1.46484375,-67.87109375,0.0
1676921976.6326218,-27.83203125,-11.71875,6.34765625,15.625,0.0
1676921976.6375618,-44.43359375,-39.0625,-30.2734375,44.921875,0.0
1676921976.6425018,-32.71484375,-32.2265625,-25.390625,-9.27734375,0.0
1676921976.6474416,-26.85546875,-20.5078125,-15.13671875,-62.01171875,0.0
1676921976.6523817,-57.12890625,-40.0390625,-21.484375,-26.3671875,0.0
1676921976.6573217,-78.125,-47.36328125,-31.73828125,22.94921875,0.0
1676921976.6622617,-42.48046875,-16.11328125,-25.390625,-3.90625,0.0
1676921976.6672018,-32.2265625,-6.34765625,-17.578125,-70.3125,0.0
1676921976.6721416,-51.7578125,-20.99609375,-8.7890625,-33.69140625,0.0
1676921976.6770816,-25.87890625,-23.92578125,-2.44140625,54.19921875,0.0
1676921976.6820216,-37.109375,-37.109375,-17.08984375,17.578125,0.0
1676921976.6869617,-33.69140625,-23.4375,-4.39453125,-58.10546875,0.0
1676921976.6906683,-34.1796875,-34.66796875,-9.765625,-58.59375,0.0
1676921976.6943748,-37.59765625,-51.7578125,-22.94921875,19.53125,0.0
1676921976.6980815,-27.83203125,-40.0390625,-15.625,36.62109375,0.0
1676921976.701788,-46.38671875,-31.25,-33.69140625,-48.33984375,0.0
1676921976.7054946,-39.0625,-5.37109375,-24.4140625,-57.12890625,0.0
1676921976.7092013,-16.11328125,-19.53125,-20.99609375,35.64453125,0.0
1676921976.7129078,-37.109375,-40.52734375,-26.3671875,44.43359375,0.0
1676921976.7166145,-39.55078125,-18.5546875,-3.41796875,-21.97265625,0.0
1676921976.720321,-28.80859375,-22.94921875,-19.04296875,-71.2890625,0.0
1676921976.7240276,-30.76171875,-45.8984375,-35.15625,-22.94921875,0.0
1676921976.727734,-32.71484375,-41.015625,-15.625,35.15625,0.0
1676921976.7314408,-32.71484375,-19.04296875,-18.5546875,-3.90625,0.0
1676921976.7351885,-34.1796875,-2.9296875,-29.78515625,-66.89453125,0.0
1676921976.7389362,-32.2265625,-12.6953125,-27.83203125,-44.43359375,0.0
1676921976.742684,-23.92578125,-24.90234375,-38.0859375,32.71484375,0.0
1676921976.7464316,-45.8984375,-48.33984375,-58.59375,-7.8125,0.0
1676921976.7501793,-43.9453125,-29.296875,-33.203125,-84.47265625,0.0
1676921976.753927,-10.25390625,-1.46484375,-4.8828125,-53.7109375,0.0
1676921976.7576747,-12.20703125,-36.1328125,-19.53125,14.16015625,0.0
1676921976.7614224,-45.8984375,-47.36328125,-35.15625,4.39453125,0.0
1676921976.76517,-33.69140625,-24.4140625,-27.83203125,-36.1328125,0.0
1676921976.7689178,-32.71484375,-37.59765625,-21.484375,-72.75390625,0.0
1676921976.7726655,-57.12890625,-46.38671875,-36.1328125,-53.7109375,0.0
1676921976.7764132,-59.08203125,-37.109375,-49.8046875,-2.9296875,0.0
1676921976.780205,-28.3203125,-14.16015625,-36.62109375,-20.99609375,0.0
1676921976.7839966,-28.80859375,0.9765625,-27.34375,-80.56640625,0.0
1676921976.7877884,-48.828125,-19.53125,-31.25,-52.24609375,0.0
1676921976.79158,-51.26953125,-55.17578125,-39.55078125,6.34765625,0.0
1676921976.7953718,-48.33984375,-38.57421875,-31.25,-16.11328125,0.0
1676921976.7991633,-59.08203125,-13.18359375,-23.92578125,-79.1015625,0.0
1676921976.8029552,-59.5703125,-38.0859375,-30.2734375,-74.70703125,0.0
1676921976.806747,-48.33984375,-35.15625,-31.73828125,-1.953125,0.0
1676921976.8105385,-47.36328125,-14.16015625,-15.13671875,14.6484375,0.0
1676921976.8143303,-43.9453125,-29.296875,-0.9765625,-53.7109375,0.0
1676921976.818122,-52.734375,-60.05859375,-38.0859375,-101.07421875,0.0
1676921976.8219137,-63.96484375,-50.29296875,-57.12890625,-43.45703125,0.0
1676921976.8256721,-42.48046875,-34.1796875,-38.0859375,-9.765625,0.0
1676921976.8294306,-20.99609375,-41.015625,-18.06640625,-49.8046875,0.0
1676921976.833189,-28.80859375,-41.50390625,-16.6015625,-96.19140625,0.0
1676921976.8369474,-40.0390625,-29.296875,-24.90234375,-52.24609375,0.0
1676921976.8407059,-52.734375,-23.4375,-21.484375,-3.41796875,0.0
1676921976.8444643,-54.6875,-19.04296875,-9.27734375,-40.52734375,0.0
1676921976.8482227,-70.80078125,-51.7578125,-22.94921875,-109.375,0.0
1676921976.8519812,-62.98828125,-61.5234375,-26.85546875,-65.4296875,0.0
1676921976.8557396,-23.4375,-30.2734375,-11.71875,20.99609375,0.0
1676921976.859498,-28.80859375,-39.0625,-9.27734375,-3.41796875,0.0
1676921976.8632565,-43.45703125,-51.7578125,-9.27734375,-74.70703125,0.0
1676921976.867015,-23.4375,-36.1328125,-6.34765625,-65.4296875,0.0
1676921976.8707175,-33.203125,-23.4375,-9.27734375,9.765625,0.0
1676921976.8744202,-39.55078125,-32.71484375,-19.04296875,3.90625,0.0
1676921976.8781228,-47.8515625,-70.3125,-39.55078125,-83.984375,0.0
1676921976.8818254,-56.640625,-57.6171875,-34.1796875,-112.3046875,0.0
1676921976.885528,-50.29296875,-28.80859375,-17.08984375,-29.78515625,0.0
1676921976.8892307,-48.828125,-27.34375,-20.01953125,1.953125,0.0
1676921976.8929331,-42.48046875,-33.69140625,-12.20703125,-47.36328125,0.0
1676921976.8966358,-48.828125,-43.45703125,-20.99609375,-89.35546875,0.0
1676921976.9003384,-45.41015625,-32.71484375,-21.97265625,-53.7109375,0.0
1676921976.904041,-46.38671875,-32.71484375,-13.18359375,-0.48828125,0.0
1676921976.9077437,-40.52734375,-11.71875,-5.859375,-21.97265625,0.0
1676921976.9114463,-43.9453125,-17.08984375,-11.71875,-96.19140625,0.0
1676921976.9152036,-56.15234375,-55.17578125,-55.17578125,-105.95703125,0.0
1676921976.9189608,-44.921875,-31.73828125,-39.55078125,-18.06640625,0.0
1676921976.922718,-34.66796875,-16.6015625,-7.8125,-12.20703125,0.0
1676921976.9264755,-52.24609375,-41.015625,-25.390625,-102.5390625,0.0
1676921976.9302328,-43.9453125,-14.16015625,-3.90625,-88.8671875,0.0
1676921976.93399,-37.109375,-10.7421875,-13.18359375,-3.90625,0.0
1676921976.9377472,-55.6640625,-42.96875,-39.0625,13.671875,0.0
1676921976.9415045,-44.921875,-48.33984375,-28.3203125,-52.734375,0.0
1676921976.945262,-30.76171875,-41.50390625,-24.90234375,-94.23828125,0.0
1676921976.9490192,-52.24609375,-26.85546875,-19.53125,-24.90234375,0.0
1676921976.9527764,-59.08203125,-15.625,-28.3203125,7.8125,0.0
1676921976.9565337,-29.296875,-27.34375,-33.203125,-34.1796875,0.0
1676921976.9602816,-34.1796875,-33.203125,-25.87890625,-83.984375,0.0
1676921976.9640296,-26.85546875,-30.76171875,-16.6015625,-45.8984375,0.0
1676921976.9677775,-17.578125,-24.90234375,-13.671875,34.66796875,0.0
1676921976.9715254,-37.59765625,-33.203125,-16.6015625,-1.46484375,0.0
1676921976.9752734,-39.55078125,-33.69140625,-0.9765625,-83.49609375,0.0
1676921976.9790213,-13.18359375,-37.59765625,3.41796875,-41.9921875,0.0
1676921976.9827693,-27.34375,-59.08203125,-29.78515625,31.73828125,0.0
1676921976.9865172,-60.546875,-53.7109375,-31.73828125,-7.32421875,0.0
1676921976.9902651,-55.6640625,-47.8515625,-25.390625,-83.49609375,0.0
1676921976.994013,-39.0625,-34.1796875,-32.71484375,-81.0546875,0.0
1676921976.997761,-40.0390625,-11.23046875,-26.3671875,5.859375,0.0
1676921977.001509,-25.87890625,-1.953125,-19.53125,32.2265625,0.0
1676921977.0065045,-20.5078125,-8.7890625,-26.3671875,-47.8515625,0.0
1676921977.0115,-25.390625,-5.37109375,-6.8359375,-78.125,0.0
1676921977.0164955,-41.50390625,-21.484375,-8.30078125,-28.80859375,0.0
1676921977.021491,-42.48046875,-32.2265625,-20.01953125,1.953125,0.0
1676921977.0264864,-37.109375,-36.62109375,-13.671875,-23.4375,0.0
1676921977.031482,-22.94921875,-24.90234375,-4.8828125,-59.5703125,0.0
1676921977.0364776,-42.48046875,-34.66796875,-37.109375,-42.48046875,0.0
1676921977.041473,-56.15234375,-47.36328125,-47.8515625,12.6953125,0.0
1676921977.0464685,-46.38671875,-15.13671875,-25.390625,3.41796875,0.0
1676921977.051464,-42.48046875,-19.04296875,-31.73828125,-61.5234375,0.0
1676921977.0564594,-48.33984375,-18.5546875,-23.92578125,-57.12890625,0.0
1676921977.061455,-45.8984375,-14.16015625,-20.5078125,29.78515625,0.0
1676921977.065206,-45.8984375,-35.64453125,-43.9453125,20.5078125,0.0
1676921977.0689569,-43.9453125,-48.33984375,-34.1796875,-58.59375,0.0
1676921977.0727077,-36.62109375,-44.43359375,-30.76171875,-72.75390625,0.0
1676921977.0764587,-36.62109375,-22.94921875,-31.73828125,7.32421875,0.0
1676921977.0802097,-26.3671875,-20.5078125,-9.765625,38.57421875,0.0
1676921977.0839605,-30.76171875,-21.97265625,-15.625,-15.13671875,0.0
1676921977.0877113,-47.8515625,-14.16015625,-23.4375,-56.640625,0.0
1676921977.0914624,-36.1328125,-16.6015625,-25.87890625,-12.6953125,0.0
1676921977.0952134,-40.0390625,-43.9453125,-41.9921875,34.1796875,0.0
1676921977.0989642,-10.7421875,-39.0625,-30.76171875,14.16015625,0.0
1676921977.102715,-19.53125,-9.765625,-30.2734375,-64.94140625,0.0
1676921977.106466,-36.1328125,-15.13671875,-45.8984375,-43.45703125,0.0
1676921977.1102152,-40.52734375,-44.43359375,-37.109375,29.78515625,0.0
1676921977.113964,-35.64453125,-45.8984375,-18.06640625,15.625,0.0
1676921977.1177132,-28.80859375,-24.4140625,-8.30078125,-51.7578125,0.0
1676921977.1214623,-21.97265625,-2.9296875,1.953125,-43.9453125,0.0
1676921977.1252112,-6.8359375,2.9296875,16.6015625,61.5234375,0.0
1676921977.1289604,-39.55078125,-36.1328125,-16.6015625,35.64453125,0.0
1676921977.1327095,-49.8046875,-43.45703125,-37.109375,-58.59375,0.0
1676921977.1364584,-47.8515625,-22.94921875,-38.57421875,-67.87109375,0.0
1676921977.1402075,-44.921875,-26.85546875,-52.24609375,9.765625,0.0
1676921977.1439567,-24.4140625,-16.6015625,-30.2734375,50.78125,0.0
1676921977.1477056,-24.4140625,-23.4375,-23.92578125,-10.7421875,0.0
1676921977.1514547,-23.92578125,-26.3671875,-24.4140625,-60.05859375,0.0
1676921977.1552048,-30.76171875,-20.01953125,-6.34765625,-5.37109375,0.0
1676921977.1589549,-38.0859375,-25.87890625,-11.23046875,38.0859375,0.0
1676921977.162705,-25.87890625,-29.78515625,-27.83203125,0.9765625,0.0
1676921977.166455,-23.92578125,-19.53125,-20.5078125,-52.24609375,0.0
1676921977.170205,-13.18359375,-20.01953125,-15.13671875,-26.3671875,0.0
1676921977.1739552,-28.3203125,-30.76171875,-34.66796875,29.296875,0.0
1676921977.1777053,-43.9453125,-45.41015625,-52.24609375,5.859375,0.0
1676921977.1814554,-40.52734375,-32.71484375,-48.828125,-59.5703125,0.0
1676921977.1852055,-32.71484375,-24.4140625,-34.1796875,-44.43359375,0.0
1676921977.1889555,-15.13671875,-26.85546875,-30.76171875,36.1328125,0.0
1676921977.1927056,-24.90234375,-28.3203125,-26.85546875,31.73828125,0.0
1676921977.1964557,-36.1328125,-46.38671875,-10.25390625,-35.64453125,0.0
1676921977.2002058,-38.57421875,-61.03515625,-23.92578125,-69.82421875,0.0
1676921977.2039557,-29.296875,-28.80859375,-15.625,-6.34765625,0.0
1676921977.2077057,-49.8046875,-19.53125,-25.390625,36.62109375,0.0
1676921977.2114558,-54.6875,-45.41015625,-50.29296875,-21.484375,0.0
1676921977.215206,-28.80859375,-28.3203125,-27.34375,-69.3359375,0.0
1676921977.218956,-37.59765625,-8.30078125,-27.83203125,-14.16015625,0.0
1676921977.2227058,-60.546875,-22.94921875,-42.96875,25.390625,0.0
1676921977.226456,-53.22265625,-25.390625,-53.22265625,-12.6953125,0.0
1676921977.230206,-39.0625,-10.7421875,-35.15625,-66.89453125,0.0
1676921977.2339559,-38.0859375,-43.9453125,-33.203125,-59.5703125,0.0
1676921977.237706,-36.1328125,-61.03515625,-46.875,26.3671875,0.0
1676921977.241456,-39.55078125,-21.484375,-27.34375,28.80859375,0.0
1676921977.2452035,-47.8515625,-8.30078125,-9.27734375,-58.10546875,0.0
1676921977.248951,-57.12890625,-45.8984375,-25.390625,-83.0078125,0.0
1676921977.2526982,-35.64453125,-50.29296875,-29.78515625,7.8125,0.0
1676921977.2564456,-21.484375,-19.53125,-17.578125,32.71484375,0.0
1676921977.260193,-51.26953125,-34.1796875,-23.4375,-53.7109375,0.0
1676921977.2639403,-40.52734375,-29.78515625,-32.2265625,-78.125,0.0
1676921977.2676878,3.90625,-17.08984375,-19.04296875,7.8125,0.0
1676921977.2714353,-21.97265625,-42.48046875,-29.296875,39.0625,0.0
1676921977.2751827,-53.22265625,-43.45703125,-41.015625,-39.55078125,0.0
1676921977.2789302,-61.5234375,-45.8984375,-52.24609375,-115.234375,0.0
1676921977.2826774,-38.0859375,-29.296875,-42.48046875,-61.03515625,0.0
1676921977.2864249,-41.50390625,-20.99609375,-21.97265625,14.16015625,0.0
1676921977.2902756,-47.36328125,-38.57421875,-17.578125,-2.44140625,0.0
1676921977.2941263,-42.48046875,-48.33984375,-18.06640625,-72.265625,0.0
1676921977.297977,-42.48046875,-17.578125,-17.578125,-59.08203125,0.0
1676921977.3018274,-34.1796875,-12.6953125,-15.625,18.5546875,0.0
1676921977.3056781,-36.62109375,-33.69140625,-25.390625,4.39453125,0.0
1676921977.3095288,-46.38671875,-28.80859375,-29.296875,-74.70703125,0.0
1676921977.3133795,-20.99609375,-15.13671875,-11.71875,-70.80078125,0.0
1676921977.3172302,-22.94921875,-28.80859375,-21.97265625,-6.8359375,0.0
1676921977.3210807,-39.55078125,-32.71484375,-25.390625,2.9296875,0.0
1676921977.3249314,-34.66796875,-21.484375,-25.87890625,-50.78125,0.0
1676921977.328782,-52.734375,-27.83203125,-40.0390625,-104.98046875,0.0
1676921977.3326328,-38.57421875,-35.64453125,-35.15625,-42.48046875,0.0
1676921977.3362935,-25.390625,-19.53125,-20.01953125,24.90234375,0.0
1676921977.3399544,-48.33984375,-20.5078125,-34.66796875,-36.1328125,0.0
1676921977.343615,-54.19921875,-25.390625,-35.15625,-104.00390625,0.0
1676921977.3472757,-43.45703125,-24.90234375,-29.296875,-66.40625,0.0
1676921977.3509364,-32.2265625,-20.99609375,-27.34375,18.5546875,0.0
1676921977.354597,-35.64453125,-21.484375,-25.87890625,18.06640625,0.0
1676921977.358258,-36.1328125,-31.25,-20.99609375,-57.12890625,0.0
1676921977.3619187,-32.2265625,-29.296875,-24.90234375,-71.77734375,0.0
1676921977.3655794,-33.69140625,-31.25,-28.3203125,3.41796875,0.0
1676921977.3692403,-60.05859375,-63.96484375,-33.203125,-4.8828125,0.0
1676921977.372901,-68.359375,-65.91796875,-48.33984375,-91.30859375,0.0
1676921977.3765616,-42.48046875,-35.15625,-43.9453125,-95.703125,0.0
1676921977.381555,-26.85546875,-5.37109375,-7.8125,-1.46484375,0.0
1676921977.3865488,-32.71484375,-24.4140625,-12.20703125,16.6015625,0.0
1676921977.3915424,-39.0625,-33.203125,-38.57421875,-53.22265625,0.0
1676921977.3965359,-47.36328125,-41.9921875,-37.59765625,-99.609375,0.0
1676921977.4015293,-24.90234375,-57.6171875,-21.484375,-42.48046875,0.0
1676921977.406523,11.71875,-10.25390625,0.48828125,53.7109375,0.0
1676921977.4115167,-29.78515625,-29.78515625,-30.76171875,-10.7421875,0.0
1676921977.41651,-85.44921875,-39.0625,-50.29296875,-127.9296875,0.0
1676921977.4215035,-86.42578125,-24.90234375,-30.2734375,-86.9140625,0.0
1676921977.4264972,-51.26953125,-25.87890625,-16.11328125,31.73828125,0.0
1676921977.431491,-44.921875,-21.484375,-19.53125,19.04296875,0.0
1676921977.4364843,-61.03515625,-42.48046875,-43.9453125,-86.42578125,0.0
1676921977.440229,-46.875,-53.7109375,-33.69140625,-79.1015625,0.0
1676921977.4439733,-34.1796875,-48.828125,-8.7890625,13.18359375,0.0
1676921977.447718,-43.9453125,-35.64453125,-3.41796875,28.3203125,0.0
1676921977.4514623,-43.9453125,-37.59765625,-20.01953125,-45.41015625,0.0
1676921977.4552069,-32.2265625,-30.76171875,-6.34765625,-68.359375,0.0
1676921977.4589515,-30.76171875,-18.06640625,-3.90625,0.9765625,0.0
1676921977.4626958,-35.64453125,-18.5546875,-20.99609375,29.296875,0.0
1676921977.4664404,-35.15625,0.48828125,-21.97265625,-5.859375,0.0
1676921977.4701848,-43.45703125,-11.71875,-40.0390625,-59.5703125,0.0
1676921977.4739294,-24.90234375,-28.3203125,-47.8515625,-33.69140625,0.0
1676921977.4776738,-38.57421875,-40.52734375,-34.1796875,10.25390625,0.0
1676921977.4814184,-62.5,-50.29296875,-30.2734375,-23.4375,0.0
1676921977.4851637,-48.828125,-31.73828125,-34.1796875,-78.125,0.0
1676921977.488909,-29.296875,-24.90234375,-19.53125,-49.31640625,0.0
1676921977.4926543,-20.5078125,-30.2734375,0.0,35.64453125,0.0
1676921977.4963996,-28.80859375,-39.0625,-13.18359375,17.08984375,0.0
1676921977.500145,-34.1796875,-28.80859375,-28.3203125,-71.2890625,0.0
1676921977.5038905,-27.83203125,-23.92578125,-21.484375,-75.1953125,0.0
1676921977.5076358,-18.06640625,-14.6484375,-22.94921875,12.20703125,0.0
1676921977.5113811,-19.04296875,-12.20703125,-24.90234375,39.55078125,0.0
1676921977.5151265,-30.2734375,-49.31640625,-33.69140625,-25.87890625,0.0
1676921977.5188718,-60.546875,-56.15234375,-40.52734375,-93.75,0.0
1676921977.522617,-82.03125,-40.52734375,-40.0390625,-53.22265625,0.0
1676921977.5263624,-83.984375,-52.24609375,-32.71484375,6.8359375,0.0
1676921977.5302174,-48.828125,-54.6875,-4.8828125,-11.71875,0.0
1676921977.5340724,-15.13671875,-35.64453125,-1.46484375,-61.03515625,0.0
1676921977.5379272,-29.78515625,-28.80859375,-45.8984375,-51.26953125,0.0
1676921977.5417821,-26.85546875,-31.73828125,-28.80859375,15.13671875,0.0
1676921977.5456371,-34.1796875,-40.52734375,-6.8359375,-0.48828125,0.0
1676921977.549492,-52.24609375,-33.69140625,-43.9453125,-87.40234375,0.0
1676921977.5533469,-58.10546875,-44.921875,-61.5234375,-96.19140625,0.0
1676921977.5572019,-45.41015625,-46.875,-28.3203125,-0.9765625,0.0
1676921977.5610569,-36.1328125,-28.3203125,-12.6953125,19.53125,0.0
1676921977.5649118,-45.8984375,-44.921875,-26.3671875,-69.3359375,0.0
1676921977.5687666,-37.109375,-55.17578125,-25.87890625,-78.125,0.0
1676921977.5726216,-15.625,-28.80859375,-10.25390625,17.578125,0.0
1676921977.5762746,-21.484375,-0.9765625,-10.7421875,33.69140625,0.0
1676921977.579928,-59.08203125,-27.34375,-50.78125,-65.4296875,0.0
1676921977.583581,-64.94140625,-34.1796875,-65.91796875,-109.86328125,0.0
1676921977.587234,-41.015625,-42.48046875,-51.26953125,-33.203125,0.0
1676921977.590887,-55.17578125,-52.734375,-39.0625,8.7890625,0.0
1676921977.59454,-38.0859375,-28.3203125,-18.5546875,-25.87890625,0.0
1676921977.5981934,-21.484375,-26.85546875,-17.578125,-83.49609375,0.0
1676921977.6018465,-27.83203125,-37.109375,-23.4375,-45.41015625,0.0
1676921977.6054995,-43.45703125,-41.50390625,-13.18359375,34.66796875,0.0
1676921977.6091528,-40.52734375,-16.11328125,0.0,7.8125,0.0
1676921977.6128058,-27.83203125,-8.30078125,0.9765625,-74.21875,0.0
1676921977.616459,-55.6640625,-60.546875,-41.015625,-95.21484375,0.0
1676921977.6202042,-51.26953125,-38.0859375,-57.12890625,-10.25390625,0.0
1676921977.6239495,-44.43359375,-4.39453125,-28.80859375,9.765625,0.0
1676921977.6276948,-47.36328125,-31.73828125,-32.2265625,-64.94140625,0.0
1676921977.6314402,-41.9921875,-41.015625,-31.25,-86.9140625,0.0
1676921977.6351855,-36.1328125,-17.578125,-0.9765625,6.34765625,0.0
1676921977.6389308,-38.57421875,-25.87890625,-14.16015625,36.1328125,0.0
1676921977.6426764,-43.45703125,-34.66796875,-28.3203125,-31.25,0.0
1676921977.6464217,-31.25,-19.53125,-21.484375,-59.08203125,0.0
1676921977.650167,-47.36328125,-31.25,-46.875,-41.9921875,0.0
1676921977.6539123,-62.01171875,-52.734375,-57.6171875,4.39453125,0.0
1676921977.6576576,-41.9921875,-26.3671875,-32.2265625,0.9765625,0.0
1676921977.661403,-45.41015625,-33.203125,-45.41015625,-79.1015625,0.0
1676921977.6651504,-46.875,-54.6875,-41.9921875,-72.265625,0.0
1676921977.6688979,-36.1328125,-20.5078125,-16.6015625,6.8359375,0.0
1676921977.6726456,-34.1796875,-0.48828125,-26.85546875,-5.37109375,0.0
1676921977.676393,-27.83203125,4.39453125,-21.97265625,-63.96484375,0.0
1676921977.6801405,-14.6484375,-11.23046875,-8.7890625,-57.12890625,0.0
1676921977.683888,-33.69140625,-23.4375,-32.2265625,1.953125,0.0
1676921977.6876354,-48.33984375,-34.66796875,-57.12890625,7.8125,0.0
1676921977.691383,-38.57421875,-36.62109375,-45.8984375,-59.5703125,0.0
1676921977.6951303,-39.55078125,-49.31640625,-45.41015625,-104.4921875,0.0
1676921977.698878,-36.1328125,-36.62109375,-41.50390625,-28.80859375,0.0
1676921977.7026255,-35.15625,-13.18359375,-20.99609375,21.484375,0.0
1676921977.706373,-24.90234375,-23.4375,-22.4609375,-38.0859375,0.0
1676921977.7102273,-20.99609375,-28.3203125,-20.5078125,-97.65625,0.0
1676921977.7140813,-25.87890625,-33.69140625,-27.83203125,-49.8046875,0.0
1676921977.7179356,-27.34375,-30.76171875,-18.06640625,27.34375,0.0
1676921977.7217898,-32.71484375,-18.06640625,-17.08984375,-15.625,0.0
1676921977.725644,-39.55078125,-13.671875,-38.57421875,-103.515625,0.0
1676921977.7294984,-34.66796875,-29.78515625,-39.0625,-68.359375,0.0
1676921977.7333524,-2.44140625,-19.53125,-12.20703125,31.73828125,0.0
1676921977.7372067,-16.11328125,-24.90234375,-27.34375,-7.32421875,0.0
1676921977.741061,-42.48046875,-25.87890625,-39.0625,-102.5390625,0.0
1676921977.744915,-50.78125,-36.62109375,-37.59765625,-107.421875,0.0
1676921977.7487693,-40.52734375,-47.8515625,-28.3203125,-13.671875,0.0
1676921977.7526236,-28.80859375,-38.0859375,-18.06640625,18.06640625,0.0
1676921977.7575285,-43.9453125,-46.38671875,-36.62109375,-73.2421875,0.0
1676921977.7624335,-35.64453125,-35.15625,-22.4609375,-93.75,0.0
1676921977.7673388,-33.69140625,-33.203125,-18.5546875,-22.94921875,0.0
1676921977.7722437,-22.94921875,-28.80859375,-37.109375,11.23046875,0.0
1676921977.7771487,-21.484375,-20.99609375,-40.52734375,-42.48046875,0.0
1676921977.7820537,-37.59765625,-35.64453125,-33.69140625,-94.23828125,0.0
1676921977.7869587,-32.2265625,-32.2265625,-32.2265625,-50.29296875,0.0
1676921977.7918637,-27.83203125,-15.13671875,-17.578125,15.625,0.0
1676921977.7967687,-35.15625,-25.87890625,-18.5546875,-11.71875,0.0
1676921977.801674,-31.73828125,-26.3671875,-20.99609375,-90.8203125,0.0
1676921977.8065789,-20.99609375,-31.25,-7.32421875,-68.84765625,0.0
1676921977.8114839,-27.83203125,-54.6875,-24.4140625,6.8359375,0.0
1676921977.8152328,-38.0859375,-41.9921875,-41.50390625,-5.37109375,0.0
1676921977.8189816,-33.69140625,-21.97265625,-24.4140625,-77.1484375,0.0
1676921977.8227305,-32.71484375,-9.27734375,-0.9765625,-81.54296875,0.0
1676921977.8264794,-32.2265625,-23.92578125,-6.34765625,-2.44140625,0.0
1676921977.8302283,-38.57421875,-42.96875,-27.83203125,7.8125,0.0
1676921977.8339772,-28.80859375,-31.25,-15.625,-36.1328125,0.0
1676921977.8377259,-9.765625,-16.11328125,-4.8828125,-51.7578125,0.0
1676921977.8414748,-39.55078125,-36.62109375,-37.59765625,-21.484375,0.0
1676921977.8452237,-57.6171875,-49.31640625,-43.9453125,22.4609375,0.0
1676921977.8489726,-35.15625,-61.03515625,-18.5546875,14.6484375,0.0
1676921977.8527215,-53.7109375,-63.96484375,-28.3203125,-78.61328125,0.0
1676921977.8564703,-60.546875,-19.53125,-45.41015625,-66.40625,0.0
1676921977.8602195,-43.45703125,-3.90625,-42.96875,21.97265625,0.0
1676921977.8639686,-46.38671875,-17.08984375,-18.5546875,0.9765625,0.0
1676921977.8677177,-46.875,-18.06640625,-4.8828125,-68.84765625,0.0
1676921977.871467,-41.015625,-33.69140625,-26.85546875,-64.453125,0.0
1676921977.8752162,-48.828125,-37.109375,-38.0859375,7.8125,0.0
1676921977.8789654,-63.96484375,-41.015625,-23.4375,16.6015625,0.0
1676921977.8827145,-55.17578125,-37.59765625,-37.109375,-60.05859375,0.0
1676921977.8864636,-31.25,-8.7890625,-41.50390625,-77.1484375,0.0
1676921977.890213,-23.4375,-19.04296875,-37.59765625,12.20703125,0.0
1676921977.8939621,-24.4140625,-8.7890625,-28.3203125,56.15234375,0.0
1676921977.8977113,-23.92578125,3.90625,-8.30078125,-1.953125,0.0
1676921977.9014604,-49.31640625,-36.62109375,-27.83203125,-82.03125,0.0
1676921977.9052043,-61.5234375,-45.8984375,-40.0390625,-42.48046875,0.0
1676921977.9089482,-44.921875,-42.96875,-31.25,33.203125,0.0
1676921977.912692,-38.57421875,-48.33984375,-30.2734375,0.9765625,0.0
1676921977.9164362,-44.921875,-32.71484375,-38.0859375,-71.77734375,0.0
1676921977.92018,-44.43359375,-7.8125,-32.71484375,-56.15234375,0.0
1676921977.923924,-49.31640625,-11.23046875,-25.87890625,21.97265625,0.0
1676921977.9276679,-39.55078125,-7.8125,-27.83203125,13.671875,0.0
1676921977.9314117,-40.52734375,-19.04296875,-46.38671875,-73.73046875,0.0
1676921977.9351559,-40.52734375,-19.53125,-46.38671875,-78.61328125,0.0
1676921977.9388998,-25.390625,-9.27734375,-31.25,13.18359375,0.0
1676921977.9426436,-27.34375,-20.5078125,-49.31640625,13.18359375,0.0
1676921977.9463875,-20.5078125,-28.3203125,-49.31640625,-47.36328125,0.0
1676921977.9502413,-19.53125,-39.0625,-36.1328125,-69.3359375,0.0
1676921977.9540951,-38.0859375,-53.7109375,-47.36328125,-37.59765625,0.0
1676921977.957949,-38.0859375,-48.828125,-36.62109375,7.8125,0.0
1676921977.9618027,-22.94921875,-44.43359375,-30.2734375,-13.18359375,0.0
1676921977.9656565,-28.80859375,-45.41015625,-36.1328125,-73.2421875,0.0
1676921977.96951,-42.48046875,-41.50390625,-33.203125,-39.55078125,0.0
1676921977.9733639,-55.6640625,-25.87890625,-43.45703125,20.01953125,0.0
1676921977.9772177,-41.9921875,-17.578125,-39.0625,15.13671875,0.0
1676921977.9810715,-24.4140625,-19.04296875,-34.66796875,-52.734375,0.0
1676921977.9849253,-19.04296875,-29.296875,-20.01953125,-46.38671875,0.0
1676921977.988779,-27.34375,-29.296875,-10.25390625,42.48046875,0.0
1676921977.9926329,-35.64453125,-27.83203125,-19.04296875,25.87890625,0.0
1676921977.9962866,-24.4140625,-31.25,-21.484375,-67.87109375,0.0
1676921977.9999406,-18.5546875,-34.66796875,-19.04296875,-68.359375,0.0
1676921978.0035944,-17.578125,-37.109375,-18.06640625,14.16015625,0.0
1676921978.0072484,-15.625,-10.25390625,-7.32421875,34.1796875,0.0
1676921978.0109022,-28.3203125,-11.71875,-5.37109375,-30.76171875,0.0
1676921978.014556,-39.55078125,-47.8515625,-30.76171875,-82.51953125,0.0
1676921978.01821,-11.71875,-54.19921875,-29.296875,-4.39453125,0.0
1676921978.0218637,-5.859375,-34.66796875,-23.92578125,61.5234375,0.0
1676921978.0255177,-19.04296875,-20.5078125,-26.85546875,-13.18359375,0.0
1676921978.0291715,-26.85546875,-10.25390625,-31.73828125,-94.23828125,0.0
1676921978.0328255,-23.4375,-8.30078125,-40.52734375,-50.78125,0.0
1676921978.0364792,-25.390625,-21.484375,-26.3671875,33.69140625,0.0
1676921978.0402355,-35.64453125,-34.1796875,-32.2265625,-3.90625,0.0
1676921978.0439918,-27.83203125,-22.94921875,-57.12890625,-89.35546875,0.0
1676921978.047748,-22.4609375,-13.18359375,-58.59375,-62.5,0.0
1676921978.0515044,-26.3671875,-40.52734375,-36.62109375,12.20703125,0.0
1676921978.0552607,-33.69140625,-53.7109375,-20.01953125,-3.41796875,0.0
1676921978.0590172,-29.78515625,-20.99609375,-24.90234375,-70.80078125,0.0
1676921978.0627735,-18.5546875,-9.27734375,-29.296875,-66.89453125,0.0
1676921978.0665298,-15.625,-5.859375,-26.85546875,4.39453125,0.0
1676921978.070286,-27.34375,-5.859375,-27.34375,13.671875,0.0
1676921978.0740423,-20.5078125,-26.85546875,-30.2734375,-42.48046875,0.0
1676921978.0777986,-19.53125,-37.109375,-37.109375,-89.84375,0.0
1676921978.081555,-42.96875,-38.0859375,-62.01171875,-62.01171875,0.0
1676921978.0853047,-52.734375,-61.5234375,-63.96484375,-13.18359375,0.0
1676921978.0890543,-26.3671875,-32.71484375,-28.3203125,-26.85546875,0.0
1676921978.092804,-28.80859375,-12.20703125,-34.66796875,-92.28515625,0.0
1676921978.0965538,-37.109375,-34.66796875,-33.203125,-75.1953125,0.0
1676921978.1003036,-20.01953125,-22.94921875,-1.953125,13.18359375,0.0
1676921978.1040533,-40.52734375,-16.11328125,-15.13671875,2.44140625,0.0
1676921978.1078029,-57.12890625,-35.64453125,-32.2265625,-83.984375,0.0
1676921978.1115527,-32.2265625,-26.3671875,-26.85546875,-68.84765625,0.0
1676921978.1153026,-31.25,-14.6484375,-28.3203125,17.578125,0.0
1676921978.1190522,-44.921875,-16.11328125,-31.73828125,13.18359375,0.0
1676921978.1228018,-61.5234375,-46.875,-30.76171875,-66.40625,0.0
1676921978.1265516,-58.10546875,-44.43359375,-28.3203125,-91.30859375,0.0
1676921978.1315548,-41.50390625,-26.3671875,-24.90234375,-14.16015625,0.0
1676921978.136558,-45.41015625,-30.76171875,-24.4140625,14.16015625,0.0
1676921978.1415613,-33.203125,-24.4140625,-15.625,-28.3203125,0.0
1676921978.1465645,-39.0625,-46.38671875,-14.6484375,-85.9375,0.0
1676921978.1515677,-45.41015625,-57.12890625,-23.4375,-43.9453125,0.0
1676921978.156571,-34.1796875,-28.3203125,-27.83203125,33.69140625,0.0
1676921978.1615741,-37.59765625,-14.6484375,-17.578125,3.41796875,0.0
1676921978.1665773,-37.109375,-28.80859375,-6.8359375,-77.63671875,0.0
1676921978.1715806,-18.06640625,-38.0859375,-11.71875,-52.734375,0.0
1676921978.1765838,-26.3671875,-26.85546875,-23.4375,38.57421875,0.0
1676921978.181587,-36.62109375,-21.97265625,-8.7890625,32.71484375,0.0
1676921978.1865902,-39.55078125,-21.97265625,-0.9765625,-50.29296875,0.0
1676921978.1903243,-40.52734375,-34.1796875,-18.5546875,-58.10546875,0.0
1676921978.1940584,-53.7109375,-57.6171875,-49.8046875,16.6015625,0.0
1676921978.1977925,-67.87109375,-33.203125,-47.36328125,11.71875,0.0
1676921978.2015266,-51.7578125,-23.4375,-25.87890625,-56.15234375,0.0
1676921978.2052608,-48.828125,-44.43359375,-31.73828125,-83.984375,0.0
1676921978.2089949,-46.875,-55.6640625,-23.4375,-17.08984375,0.0
1676921978.2127287,-39.0625,-34.66796875,-9.765625,40.0390625,0.0
1676921978.2164629,-40.52734375,-9.765625,-17.08984375,-17.578125,0.0
1676921978.220197,-37.59765625,-24.90234375,-18.06640625,-70.3125,0.0
1676921978.223931,-23.92578125,-33.69140625,-20.01953125,-5.37109375,0.0
1676921978.2276652,-35.15625,-22.4609375,-20.5078125,43.45703125,0.0
1676921978.2313993,-31.25,-22.94921875,-33.69140625,3.41796875,0.0
1676921978.2351534,-30.76171875,-49.31640625,-61.5234375,-70.3125,0.0
1676921978.2389076,-33.69140625,-67.87109375,-49.31640625,-51.7578125,0.0
1676921978.2426615,-35.15625,-69.82421875,-30.2734375,26.3671875,0.0
1676921978.2464156,-41.015625,-35.64453125,-18.06640625,22.94921875,0.0
1676921978.2501698,-20.99609375,-10.25390625,-7.8125,-37.59765625,0.0
1676921978.253924,-12.20703125,-11.71875,-12.6953125,-53.22265625,0.0
1676921978.257678,-15.13671875,-13.18359375,-15.13671875,14.6484375,0.0
1676921978.2614322,-40.0390625,-27.83203125,-29.78515625,25.390625,0.0
1676921978.2651863,-37.109375,-38.0859375,-35.64453125,-32.2265625,0.0
1676921978.2689402,-36.62109375,-40.52734375,-37.109375,-79.58984375,0.0
1676921978.2726943,-40.52734375,-45.41015625,-28.3203125,-22.94921875,0.0
1676921978.2764485,-37.109375,-65.91796875,-19.04296875,34.1796875,0.0
1676921978.2802007,-27.34375,-45.41015625,-19.53125,-7.8125,0.0
1676921978.283953,-15.13671875,-1.46484375,-0.9765625,-58.10546875,0.0
1676921978.287705,-43.9453125,-42.48046875,-19.53125,-42.48046875,0.0
1676921978.2914572,-42.48046875,-40.52734375,-35.64453125,24.90234375,0.0
1676921978.2952094,-14.6484375,0.9765625,-23.4375,15.625,0.0
1676921978.2989616,-23.4375,-10.25390625,-15.625,-58.59375,0.0
1676921978.3027139,-39.0625,-22.94921875,-17.08984375,-50.78125,0.0
1676921978.306466,-41.50390625,-47.36328125,-43.9453125,8.7890625,0.0
1676921978.3102183,-57.12890625,-61.5234375,-52.734375,6.34765625,0.0
1676921978.3139703,-42.48046875,-32.2265625,-31.25,-59.08203125,0.0
1676921978.3177226,-22.94921875,-43.9453125,-23.92578125,-77.1484375,0.0
1676921978.3214748,-46.38671875,-64.453125,-34.66796875,3.90625,0.0
1676921978.3252196,-53.7109375,-33.69140625,-42.96875,26.85546875,0.0
1676921978.3289647,-34.66796875,-9.765625,-23.4375,-26.85546875,0.0
1676921978.3327096,-18.5546875,-6.8359375,-9.27734375,-59.5703125,0.0
1676921978.3364546,-12.20703125,-5.859375,-20.99609375,-4.39453125,0.0
1676921978.3401995,-13.671875,-3.90625,-13.671875,54.19921875,0.0
1676921978.3439445,-35.15625,-32.71484375,-16.6015625,-1.46484375,0.0
1676921978.3476894,-67.3828125,-52.24609375,-28.80859375,-89.35546875,0.0
1676921978.3514342,-53.7109375,-42.96875,-30.2734375,-52.24609375,0.0
1676921978.3551793,-54.19921875,-47.36328125,-46.38671875,4.8828125,0.0
1676921978.3589242,-46.875,-28.80859375,-29.296875,-14.6484375,0.0
1676921978.3626692,-36.62109375,-23.4375,-23.4375,-65.91796875,0.0
1676921978.366414,-41.9921875,-37.109375,-26.3671875,-60.546875,0.0
1676921978.3701613,-23.4375,-24.4140625,-15.13671875,17.08984375,0.0
1676921978.3739088,-10.7421875,-10.25390625,-20.5078125,29.78515625,0.0
1676921978.377656,-2.9296875,-14.16015625,-10.7421875,-21.97265625,0.0
1676921978.3814034,-13.671875,-21.484375,-8.7890625,-59.5703125,0.0
1676921978.3851507,-3.41796875,-3.90625,-9.765625,9.765625,0.0
1676921978.388898,-4.8828125,-1.953125,-18.06640625,41.9921875,0.0
