timestamps,TP9,Fp1,Fp2,TP10,stim
1676924166.5656862,0.9765625,-569.3359375,-570.3125,68.359375,0.0
1676924166.5694387,15.625,-461.42578125,-451.66015625,94.23828125,0.0
1676924166.5731912,12.6953125,-752.44140625,-719.7265625,38.57421875,0.0
1676924166.5769436,6.34765625,-744.140625,-712.890625,6.34765625,0.0
1676924166.5807834,7.32421875,-617.1875,-583.0078125,78.125,0.0
1676924166.5846233,5.37109375,-791.015625,-685.05859375,118.65234375,0.0
1676924166.588463,4.8828125,-887.20703125,-824.70703125,58.59375,0.0
1676924166.592303,1.953125,-696.77734375,-712.40234375,2.44140625,0.0
1676924166.5961428,-5.859375,-535.15625,-534.66796875,36.62109375,0.0
1676924166.5999827,-3.41796875,-810.05859375,-730.95703125,108.3984375,0.0
1676924166.6038225,1.46484375,-989.2578125,-950.1953125,90.8203125,0.0
1676924166.6076622,-6.34765625,-753.90625,-766.6015625,12.20703125,0.0
1676924166.6115022,-14.6484375,-476.5625,-470.21484375,5.37109375,0.0
1676924166.615342,-9.27734375,-642.08984375,-582.51953125,73.2421875,0.0
1676924166.6191819,-3.41796875,-811.5234375,-707.51953125,58.10546875,0.0
1676924166.6230216,-15.13671875,-589.84375,-540.52734375,-20.5078125,0.0
1676924166.6266837,-29.78515625,-454.1015625,-447.265625,-36.1328125,0.0
1676924166.6303456,-34.1796875,-697.265625,-635.25390625,35.64453125,0.0
1676924166.6340077,-23.92578125,-773.4375,-691.89453125,55.17578125,0.0
1676924166.6376696,-21.97265625,-584.9609375,-569.82421875,-8.30078125,0.0
1676924166.6413317,-29.296875,-782.2265625,-712.890625,-37.59765625,0.0
1676924166.6449938,-25.390625,-976.07421875,-909.66796875,44.921875,0.0
1676924166.6486557,-19.53125,-985.3515625,-984.86328125,95.703125,0.0
1676924166.6523178,-14.16015625,-662.109375,-666.50390625,13.671875,0.0
1676924166.6559796,-21.97265625,-466.796875,-467.7734375,-37.59765625,0.0
1676924166.6596417,-36.62109375,-686.5234375,-630.859375,0.48828125,0.0
1676924166.6633036,-31.25,-623.53515625,-578.61328125,52.24609375,0.0
1676924166.6669657,-21.484375,-448.2421875,-441.89453125,39.0625,0.0
1676924166.6719615,-29.78515625,-537.59765625,-510.7421875,-22.94921875,0.0
1676924166.6769576,-42.96875,-751.953125,-680.17578125,-36.62109375,0.0
1676924166.6819534,-41.9921875,-683.59375,-629.39453125,33.203125,0.0
1676924166.6869493,-34.1796875,-486.328125,-466.796875,44.921875,0.0
1676924166.691945,-26.3671875,-583.49609375,-506.34765625,-14.16015625,0.0
1676924166.696941,-35.15625,-946.77734375,-859.375,-30.2734375,0.0
1676924166.701937,-34.1796875,-886.23046875,-831.54296875,27.34375,0.0
1676924166.7069328,-28.80859375,-621.58203125,-571.77734375,54.6875,0.0
1676924166.7119286,-35.15625,-858.88671875,-797.36328125,-0.9765625,0.0
1676924166.7169247,-39.55078125,-912.59765625,-884.27734375,-37.109375,0.0
1676924166.7219205,-38.0859375,-631.8359375,-634.765625,7.32421875,0.0
1676924166.7269163,-27.83203125,-458.49609375,-460.44921875,62.5,0.0
1676924166.7306654,-29.78515625,-704.1015625,-677.24609375,42.96875,0.0
1676924166.7344148,-32.71484375,-958.49609375,-945.80078125,-5.859375,0.0
1676924166.738164,-33.203125,-647.4609375,-641.6015625,-5.859375,0.0
1676924166.7419133,-30.2734375,-405.2734375,-400.87890625,49.31640625,0.0
1676924166.7456625,-29.296875,-624.51171875,-570.80078125,32.71484375,0.0
1676924166.7494116,-21.97265625,-978.02734375,-855.46875,-16.6015625,0.0
1676924166.753161,-11.23046875,-904.78515625,-820.80078125,-16.11328125,0.0
1676924166.75691,-18.06640625,-532.2265625,-478.515625,20.01953125,0.0
1676924166.7606595,-31.25,-737.79296875,-693.84765625,47.36328125,0.0
1676924166.7644086,-37.109375,-877.9296875,-871.09375,-4.39453125,0.0
1676924166.768158,-35.64453125,-533.203125,-538.0859375,-57.12890625,0.0
1676924166.771907,-27.83203125,-678.22265625,-633.7890625,-7.8125,0.0
1676924166.775658,-34.1796875,-899.90234375,-844.7265625,33.69140625,0.0
1676924166.7794085,-36.1328125,-676.7578125,-680.6640625,-29.78515625,0.0
1676924166.7831593,-38.57421875,-425.29296875,-444.82421875,-78.61328125,0.0
1676924166.7869098,-39.0625,-559.5703125,-540.52734375,-31.25,0.0
1676924166.7906606,-38.57421875,-865.234375,-756.8359375,28.80859375,0.0
1676924166.7944112,-39.55078125,-1000.0,-881.8359375,8.30078125,0.0
1676924166.798162,-38.0859375,-803.7109375,-741.2109375,-45.8984375,0.0
1676924166.8019128,-46.38671875,-679.19921875,-621.58203125,-36.1328125,0.0
1676924166.8056633,-46.38671875,-950.68359375,-898.4375,34.66796875,0.0
1676924166.8094141,-36.62109375,-813.96484375,-783.69140625,23.4375,0.0
1676924166.8131647,-34.66796875,-522.94921875,-485.83984375,-51.7578125,0.0
1676924166.8169155,-48.828125,-746.09375,-657.2265625,-48.33984375,0.0
1676924166.8206542,-40.0390625,-808.10546875,-704.58984375,27.34375,0.0
1676924166.8243928,-21.484375,-534.66796875,-476.07421875,58.10546875,0.0
1676924166.8281312,-25.87890625,-546.38671875,-462.40234375,21.484375,0.0
1676924166.8318698,-37.59765625,-848.6328125,-775.87890625,13.671875,0.0
1676924166.8356085,-36.1328125,-864.74609375,-825.68359375,61.5234375,0.0
1676924166.8393471,-39.55078125,-789.0625,-671.38671875,93.26171875,0.0
1676924166.8430858,-35.15625,-768.06640625,-624.0234375,21.97265625,0.0
1676924166.8468244,-50.78125,-828.61328125,-774.90234375,48.828125,0.0
1676924166.850563,-57.6171875,-894.53125,-864.74609375,97.16796875,0.0
1676924166.8543015,-44.43359375,-509.27734375,-438.96484375,80.078125,0.0
1676924166.85804,-45.41015625,-453.61328125,-381.34765625,70.3125,0.0
1676924166.8617787,-50.29296875,-681.15234375,-563.4765625,-13.671875,0.0
1676924166.8655393,-45.8984375,-691.40625,-590.8203125,-10.25390625,0.0
1676924166.8693,-45.41015625,-530.2734375,-484.375,41.50390625,0.0
1676924166.8730602,-41.50390625,-544.921875,-477.5390625,55.17578125,0.0
1676924166.8768208,-40.52734375,-724.609375,-607.91015625,-24.90234375,0.0
1676924166.8805814,-41.9921875,-662.59765625,-562.5,-53.7109375,0.0
1676924166.884342,-35.64453125,-812.98828125,-666.015625,12.20703125,0.0
1676924166.8881025,-46.875,-980.46875,-778.80859375,42.48046875,0.0
1676924166.891863,-58.59375,-996.58203125,-923.828125,-6.8359375,0.0
1676924166.8956237,-76.66015625,-854.4921875,-854.00390625,-64.94140625,0.0
1676924166.899384,-75.1953125,-426.26953125,-391.11328125,-32.71484375,0.0
1676924166.9031446,-58.10546875,-554.19921875,-464.35546875,8.7890625,0.0
1676924166.9069052,-64.94140625,-723.6328125,-604.98046875,-41.50390625,0.0
1676924166.9106584,-73.2421875,-479.00390625,-445.3125,-102.05078125,0.0
1676924166.9144113,-62.5,-415.0390625,-380.37109375,-80.078125,0.0
1676924166.9181645,-57.12890625,-681.640625,-561.5234375,-3.41796875,0.0
1676924166.9219177,-61.5234375,-752.9296875,-609.86328125,-15.13671875,0.0
1676924166.9256706,-60.05859375,-572.265625,-483.3984375,-82.51953125,0.0
1676924166.9294238,-62.98828125,-799.31640625,-670.41015625,-63.4765625,0.0
1676924166.933177,-59.5703125,-1000.0,-910.15625,18.06640625,0.0
1676924166.93693,-42.48046875,-869.140625,-860.83984375,20.99609375,0.0
1676924166.9406831,-30.76171875,-528.3203125,-474.609375,-53.22265625,0.0
1676924166.9444363,-40.52734375,-493.65234375,-415.52734375,-74.70703125,0.0
1676924166.9481893,-37.109375,-775.390625,-681.15234375,-9.765625,0.0
1676924166.9519424,-19.53125,-730.95703125,-611.81640625,16.11328125,0.0
1676924166.95572,-15.625,-461.42578125,-370.1171875,-31.73828125,0.0
1676924166.9594977,-29.296875,-529.296875,-419.921875,-41.50390625,0.0
1676924166.9632754,-37.59765625,-791.50390625,-649.90234375,0.48828125,0.0
1676924166.967053,-33.69140625,-686.03515625,-616.2109375,35.64453125,0.0
1676924166.9708304,-35.64453125,-526.85546875,-427.734375,11.23046875,0.0
1676924166.9746082,-48.828125,-807.6171875,-616.2109375,-39.55078125,0.0
1676924166.978386,-52.24609375,-1000.0,-931.15234375,-24.90234375,0.0
1676924166.9821634,-39.0625,-773.4375,-741.2109375,22.4609375,0.0
1676924166.985941,-55.17578125,-450.68359375,-352.5390625,-5.859375,0.0
1676924166.9897187,-82.03125,-585.9375,-462.40234375,-52.734375,0.0
1676924166.9934964,-99.12109375,-862.79296875,-713.8671875,-51.7578125,0.0
1676924166.997274,-119.140625,-631.34765625,-526.85546875,-21.97265625,0.0
1676924167.0010004,-126.46484375,-401.3671875,-317.87109375,-20.5078125,0.0
1676924167.004727,-130.37109375,-695.3125,-604.4921875,-64.94140625,0.0
1676924167.0084536,-149.4140625,-888.18359375,-786.1328125,-103.515625,0.0
1676924167.01218,-155.2734375,-566.89453125,-490.72265625,-88.37890625,0.0
1676924167.0159066,-161.1328125,-509.765625,-433.10546875,-53.22265625,0.0
1676924167.0196333,-179.6875,-848.6328125,-776.3671875,-76.66015625,0.0
1676924167.0233598,-200.1953125,-948.2421875,-943.359375,-150.87890625,0.0
1676924167.0270863,-226.5625,-524.90234375,-500.9765625,-169.43359375,0.0
1676924167.0308127,-237.3046875,-409.1796875,-374.51171875,-143.5546875,0.0
1676924167.0345392,-242.67578125,-673.828125,-627.44140625,-184.08203125,0.0
1676924167.038266,-257.32421875,-628.41796875,-579.58984375,-245.60546875,0.0
1676924167.0419924,-277.34375,-507.32421875,-472.65625,-254.8828125,0.0
1676924167.0469856,-280.2734375,-558.59375,-522.94921875,-208.984375,0.0
1676924167.0519788,-280.2734375,-651.85546875,-565.4296875,-215.8203125,0.0
1676924167.056972,-282.2265625,-606.4453125,-525.390625,-287.59765625,0.0
1676924167.061965,-290.0390625,-501.46484375,-460.9375,-303.22265625,0.0
1676924167.0669582,-282.2265625,-616.2109375,-541.9921875,-206.0546875,0.0
1676924167.0719514,-264.16015625,-899.90234375,-774.90234375,-156.25,0.0
1676924167.0769446,-261.23046875,-1000.0,-879.39453125,-241.2109375,0.0
1676924167.0819378,-259.27734375,-785.15625,-691.40625,-265.13671875,0.0
1676924167.0869308,-242.1875,-642.578125,-563.96484375,-187.5,0.0
1676924167.091924,-234.375,-972.65625,-923.33984375,-137.6953125,0.0
1676924167.0969172,-231.93359375,-834.47265625,-812.01171875,-160.15625,0.0
1676924167.1019104,-203.61328125,-442.3828125,-417.96875,-192.3828125,0.0
1676924167.105658,-200.1953125,-639.16015625,-564.94140625,-158.203125,0.0
1676924167.1094055,-191.89453125,-723.6328125,-606.93359375,-110.3515625,0.0
1676924167.1131532,-166.9921875,-522.4609375,-454.1015625,-116.2109375,0.0
1676924167.1169007,-174.31640625,-513.671875,-461.42578125,-148.4375,0.0
1676924167.1206484,-175.78125,-727.05078125,-631.34765625,-145.01953125,0.0
1676924167.1243958,-129.39453125,-996.58203125,-818.84765625,-63.96484375,0.0
1676924167.1281435,-104.98046875,-833.0078125,-690.4296875,-43.9453125,0.0
1676924167.1318913,-105.95703125,-553.7109375,-489.74609375,-94.7265625,0.0
1676924167.1356387,-98.14453125,-778.80859375,-755.37109375,-75.68359375,0.0
1676924167.1393864,-89.84375,-1000.0,-1000.0,-3.90625,0.0
1676924167.1431339,-81.54296875,-625.0,-583.0078125,8.30078125,0.0
1676924167.1468816,-66.89453125,-465.8203125,-417.96875,-35.15625,0.0
1676924167.1506333,-57.6171875,-701.171875,-614.74609375,-63.4765625,0.0
1676924167.1543849,-49.31640625,-666.50390625,-590.33203125,-1.46484375,0.0
1676924167.1581366,-37.109375,-480.46875,-449.21875,58.59375,0.0
1676924167.1618884,-33.203125,-553.7109375,-513.671875,28.80859375,0.0
1676924167.1656399,-32.2265625,-786.62109375,-731.93359375,-13.671875,0.0
1676924167.1693916,-37.109375,-927.24609375,-825.1953125,14.16015625,0.0
1676924167.1731434,-8.7890625,-809.08203125,-735.3515625,87.40234375,0.0
1676924167.176895,9.765625,-671.875,-633.7890625,67.87109375,0.0
1676924167.1806467,-7.8125,-918.45703125,-882.32421875,22.94921875,0.0
1676924167.1843984,-14.6484375,-776.85546875,-779.78515625,30.2734375,0.0
1676924167.18815,-3.90625,-411.62109375,-402.83203125,80.078125,0.0
1676924167.1919017,0.0,-608.3984375,-516.6015625,100.09765625,0.0
1676924167.1957572,9.765625,-951.171875,-795.41015625,46.38671875,0.0
1676924167.1996129,6.34765625,-765.13671875,-682.6171875,18.06640625,0.0
1676924167.2034683,-17.08984375,-435.05859375,-366.2109375,74.70703125,0.0
1676924167.2073238,-4.8828125,-660.15625,-583.984375,108.3984375,0.0
1676924167.2111795,-0.9765625,-987.79296875,-933.10546875,59.08203125,0.0
1676924167.215035,-6.34765625,-927.734375,-833.0078125,19.04296875,0.0
1676924167.2188904,-2.44140625,-836.42578125,-713.8671875,41.50390625,0.0
1676924167.2227461,13.18359375,-926.7578125,-841.796875,111.328125,0.0
1676924167.2266016,32.71484375,-883.7890625,-883.30078125,88.37890625,0.0
1676924167.230457,21.484375,-525.390625,-510.7421875,16.11328125,0.0
1676924167.2343128,0.9765625,-493.65234375,-463.8671875,30.2734375,0.0
1676924167.2381682,7.8125,-665.0390625,-611.328125,83.0078125,0.0
1676924167.2418137,18.06640625,-571.77734375,-478.02734375,84.9609375,0.0
1676924167.2454588,12.20703125,-423.828125,-353.02734375,32.2265625,0.0
1676924167.2491043,13.18359375,-525.87890625,-468.75,25.87890625,0.0
1676924167.2527494,17.578125,-774.90234375,-673.33984375,83.49609375,0.0
1676924167.2563949,10.25390625,-868.1640625,-750.9765625,106.93359375,0.0
1676924167.2600403,9.27734375,-865.234375,-740.234375,57.12890625,0.0
1676924167.2636855,20.99609375,-845.703125,-727.5390625,27.83203125,0.0
1676924167.267331,11.23046875,-970.703125,-918.45703125,95.21484375,0.0
1676924167.270976,5.37109375,-886.71875,-898.4375,142.578125,0.0
1676924167.2746215,17.578125,-489.74609375,-511.71875,83.984375,0.0
1676924167.2782667,19.53125,-607.91015625,-595.21484375,33.69140625,0.0
1676924167.281912,15.625,-750.48828125,-691.40625,65.4296875,0.0
1676924167.2856612,19.04296875,-475.5859375,-467.28515625,116.69921875,0.0
1676924167.2894104,37.109375,-407.71484375,-424.31640625,84.47265625,0.0
1676924167.2931595,35.15625,-700.1953125,-668.45703125,23.4375,0.0
1676924167.2969086,8.30078125,-766.6015625,-746.09375,20.99609375,0.0
1676924167.3006577,4.8828125,-520.99609375,-533.203125,74.70703125,0.0
1676924167.304407,6.8359375,-696.2890625,-635.7421875,80.078125,0.0
1676924167.308156,6.34765625,-946.77734375,-895.99609375,41.015625,0.0
1676924167.3119051,11.71875,-1000.0,-984.86328125,30.76171875,0.0
1676924167.3156543,-0.9765625,-819.82421875,-770.99609375,59.08203125,0.0
1676924167.3194034,2.44140625,-522.94921875,-480.46875,85.9375,0.0
1676924167.3231525,10.25390625,-752.44140625,-726.07421875,38.57421875,0.0
1676924167.3269017,-6.8359375,-806.15234375,-778.3203125,-4.39453125,0.0
1676924167.330654,-8.30078125,-515.13671875,-482.421875,39.0625,0.0
1676924167.334406,-15.625,-507.32421875,-485.83984375,78.61328125,0.0
1676924167.3381581,-10.25390625,-678.22265625,-576.66015625,27.83203125,0.0
1676924167.3419101,-17.08984375,-601.5625,-542.48046875,-16.6015625,0.0
1676924167.3456624,-27.83203125,-516.6015625,-500.48828125,20.01953125,0.0
1676924167.3494143,-21.484375,-813.4765625,-706.54296875,81.54296875,0.0
1676924167.3531666,-23.92578125,-1000.0,-968.75,56.640625,0.0
1676924167.3569188,-12.20703125,-775.390625,-795.41015625,-19.53125,0.0
1676924167.3606708,-18.06640625,-466.796875,-475.09765625,-27.83203125,0.0
1676924167.364423,-22.4609375,-631.8359375,-595.21484375,30.76171875,0.0
1676924167.368175,-17.578125,-797.36328125,-741.69921875,43.9453125,0.0
1676924167.3719273,-22.4609375,-780.76171875,-722.16796875,-0.48828125,0.0
1676924167.3758097,-41.50390625,-633.7890625,-578.125,-27.83203125,0.0
1676924167.3796923,-50.29296875,-709.47265625,-678.7109375,25.87890625,0.0
1676924167.383575,-51.26953125,-859.375,-845.703125,68.84765625,0.0
1676924167.3874574,-42.48046875,-579.58984375,-598.6328125,12.20703125,0.0
1676924167.3913398,-28.3203125,-570.3125,-587.40234375,-29.78515625,0.0
1676924167.3952224,-35.15625,-867.1875,-855.95703125,28.3203125,0.0
1676924167.399105,-21.97265625,-893.5546875,-875.48828125,70.80078125,0.0
1676924167.4029875,-13.18359375,-517.578125,-482.421875,12.6953125,0.0
1676924167.40687,-30.2734375,-483.3984375,-452.1484375,-37.59765625,0.0
1676924167.4107525,-17.08984375,-770.01953125,-725.09765625,-0.9765625,0.0
1676924167.4146352,1.953125,-802.24609375,-732.91015625,72.265625,0.0
1676924167.4185176,-2.44140625,-515.625,-472.16796875,56.15234375,0.0
1676924167.4233837,-8.30078125,-496.09375,-479.98046875,-27.83203125,0.0
1676924167.4282498,-24.90234375,-706.54296875,-671.38671875,-38.57421875,0.0
1676924167.433116,-33.203125,-688.4765625,-645.5078125,26.85546875,0.0
1676924167.4379823,-35.15625,-677.24609375,-626.953125,23.92578125,0.0
1676924167.4428484,-59.08203125,-693.359375,-619.62890625,-44.921875,0.0
1676924167.4477146,-73.73046875,-943.359375,-906.73828125,-40.0390625,0.0
1676924167.4525807,-71.77734375,-896.97265625,-887.6953125,7.8125,0.0
1676924167.4574468,-62.5,-497.55859375,-483.3984375,18.06640625,0.0
1676924167.4623132,-42.48046875,-588.37890625,-547.36328125,-0.9765625,0.0
1676924167.4671793,-34.66796875,-796.875,-695.80078125,-34.66796875,0.0
1676924167.4720454,-33.203125,-579.58984375,-493.65234375,0.0,0.0
1676924167.4769115,-18.5546875,-423.33984375,-385.25390625,55.17578125,0.0
1676924167.480656,-17.578125,-699.70703125,-607.421875,28.80859375,0.0
1676924167.4844003,-34.66796875,-818.84765625,-699.70703125,-23.92578125,0.0
1676924167.4881449,-42.48046875,-544.921875,-503.90625,-20.01953125,0.0
1676924167.4918892,-37.59765625,-435.05859375,-414.55078125,32.2265625,0.0
1676924167.4956336,-17.578125,-675.78125,-595.21484375,33.203125,0.0
1676924167.499378,-18.5546875,-1000.0,-882.32421875,2.44140625,0.0
1676924167.5031223,-34.66796875,-977.5390625,-878.41796875,-4.8828125,0.0
1676924167.5068667,-14.16015625,-760.25390625,-677.24609375,25.390625,0.0
1676924167.510611,0.0,-805.17578125,-763.671875,71.2890625,0.0
1676924167.5143557,-9.27734375,-983.3984375,-980.95703125,41.9921875,0.0
1676924167.5181,-16.11328125,-655.76171875,-644.04296875,-6.34765625,0.0
1676924167.5218444,-27.34375,-499.0234375,-481.93359375,33.203125,0.0
1676924167.5256007,-28.80859375,-657.71484375,-609.375,64.453125,0.0
1676924167.529357,-21.97265625,-615.72265625,-570.3125,17.08984375,0.0
1676924167.5331132,-20.01953125,-479.4921875,-468.75,-30.2734375,0.0
1676924167.5368695,-38.57421875,-583.0078125,-545.8984375,-20.5078125,0.0
1676924167.5406258,-44.43359375,-795.41015625,-708.984375,34.66796875,0.0
1676924167.544382,-45.8984375,-936.03515625,-817.87109375,28.80859375,0.0
1676924167.5481381,-43.45703125,-812.98828125,-734.86328125,-41.015625,0.0
1676924167.5518944,-33.203125,-645.5078125,-592.7734375,-25.87890625,0.0
1676924167.5556507,-25.87890625,-893.5546875,-848.6328125,50.29296875,0.0
1676924167.559407,-13.18359375,-843.75,-839.35546875,31.25,0.0
1676924167.5631633,-8.7890625,-669.921875,-604.4921875,-31.25,0.0
1676924167.5669196,-16.6015625,-756.34765625,-673.828125,-24.90234375,0.0
1676924167.5706754,-23.92578125,-825.68359375,-812.01171875,49.31640625,0.0
1676924167.5744312,-20.5078125,-539.0625,-529.78515625,69.3359375,0.0
1676924167.578187,-14.16015625,-459.9609375,-435.05859375,5.37109375,0.0
1676924167.5819426,-24.90234375,-724.609375,-694.3359375,-28.3203125,0.0
1676924167.5856984,-38.0859375,-766.11328125,-704.58984375,20.5078125,0.0
1676924167.5894542,-36.62109375,-800.29296875,-704.1015625,62.98828125,0.0
1676924167.59321,-30.2734375,-770.5078125,-665.52734375,24.4140625,0.0
1676924167.5969658,-31.73828125,-794.43359375,-764.16015625,-16.11328125,0.0
1676924167.6007214,-37.109375,-909.1796875,-911.62109375,-14.16015625,0.0
1676924167.6044772,-33.69140625,-531.73828125,-531.25,18.5546875,0.0
1676924167.608233,-29.296875,-458.0078125,-434.5703125,18.06640625,0.0
1676924167.6119888,-34.1796875,-699.21875,-633.30078125,-38.0859375,0.0
1676924167.6157322,-43.45703125,-631.8359375,-598.14453125,-32.71484375,0.0
1676924167.6194756,-33.69140625,-616.2109375,-589.84375,35.15625,0.0
1676924167.623219,-25.87890625,-817.3828125,-708.49609375,41.50390625,0.0
1676924167.6269624,-31.25,-837.890625,-786.62109375,-7.8125,0.0
1676924167.6307058,-37.59765625,-779.78515625,-774.90234375,-38.57421875,0.0
1676924167.6344492,-33.203125,-842.7734375,-757.8125,3.41796875,0.0
1676924167.6381927,-20.5078125,-880.859375,-771.484375,41.015625,0.0
1676924167.641936,-18.5546875,-938.96484375,-899.90234375,4.8828125,0.0
1676924167.6456795,-16.6015625,-779.78515625,-797.8515625,-49.31640625,0.0
1676924167.649423,-22.4609375,-426.26953125,-447.265625,-29.296875,0.0
1676924167.6531663,-24.90234375,-590.33203125,-557.12890625,23.4375,0.0
1676924167.6569097,-26.3671875,-744.140625,-685.546875,-6.34765625,0.0
1676924167.6606603,-36.62109375,-532.2265625,-532.2265625,-76.171875,0.0
1676924167.6644106,-49.31640625,-462.890625,-454.58984375,-73.2421875,0.0
1676924167.6681612,-49.31640625,-681.640625,-593.26171875,0.0,0.0
1676924167.6719115,-44.43359375,-710.44921875,-615.72265625,-2.44140625,0.0
1676924167.675662,-41.9921875,-502.9296875,-492.1875,-68.359375,0.0
1676924167.6794124,-46.38671875,-740.234375,-679.6875,-79.1015625,0.0
1676924167.683163,-34.1796875,-967.28515625,-903.80859375,2.44140625,0.0
1676924167.6869135,-29.78515625,-977.05078125,-978.515625,21.484375,0.0
1676924167.6906638,-38.57421875,-641.6015625,-643.06640625,-69.82421875,0.0
1676924167.6944144,-37.59765625,-488.76953125,-488.28125,-96.6796875,0.0
1676924167.6981647,-35.64453125,-712.40234375,-667.48046875,-29.78515625,0.0
1676924167.7019153,-32.2265625,-660.64453125,-613.28125,3.90625,0.0
1676924167.7056592,-50.78125,-487.79296875,-500.0,-41.50390625,0.0
1676924167.709403,-59.08203125,-537.109375,-532.71484375,-88.37890625,0.0
1676924167.7131472,-55.6640625,-743.65234375,-677.24609375,-36.1328125,0.0
1676924167.716891,-55.17578125,-640.13671875,-605.46875,25.390625,0.0
1676924167.720635,-55.6640625,-502.9296875,-487.3046875,-18.06640625,0.0
1676924167.7243788,-44.43359375,-751.46484375,-657.71484375,-57.12890625,0.0
1676924167.7281227,-45.8984375,-1000.0,-936.03515625,-28.3203125,0.0
1676924167.7318666,-56.15234375,-761.23046875,-756.34765625,19.53125,0.0
1676924167.7356105,-40.52734375,-572.75390625,-516.6015625,11.71875,0.0
1676924167.7393546,-42.48046875,-840.33203125,-747.0703125,-43.45703125,0.0
1676924167.7430985,-56.640625,-856.93359375,-810.546875,-48.828125,0.0
1676924167.7468424,-45.8984375,-557.6171875,-500.9765625,1.953125,0.0
1676924167.7506032,-31.25,-422.36328125,-336.42578125,12.6953125,0.0
1676924167.7543638,-43.9453125,-670.41015625,-535.64453125,-20.5078125,0.0
1676924167.7581244,-59.5703125,-778.3203125,-608.88671875,-44.43359375,0.0
1676924167.7618852,-53.22265625,-470.703125,-360.83984375,0.48828125,0.0
1676924167.765646,-45.41015625,-430.17578125,-270.5078125,36.62109375,0.0
1676924167.7694066,-47.36328125,-820.3125,-665.0390625,5.37109375,0.0
1676924167.7731671,-35.64453125,-916.50390625,-864.74609375,-41.9921875,0.0
1676924167.776928,-32.2265625,-516.6015625,-395.99609375,-37.59765625,0.0
1676924167.7806888,-39.0625,-384.27734375,-214.84375,16.11328125,0.0
1676924167.7844493,-41.50390625,-699.21875,-467.7734375,-6.8359375,0.0
1676924167.78821,-43.9453125,-686.5234375,-448.2421875,-58.59375,0.0
1676924167.7919707,-42.96875,-436.03515625,-252.9296875,-52.24609375,0.0
1676924167.7969675,-38.57421875,-622.0703125,-389.6484375,15.13671875,0.0
1676924167.8019643,-31.73828125,-848.6328125,-609.86328125,25.390625,0.0
1676924167.8069613,-25.87890625,-658.69140625,-441.89453125,-36.62109375,0.0
1676924167.811958,-26.3671875,-375.48828125,-183.59375,-54.6875,0.0
1676924167.8169549,-28.80859375,-499.0234375,-287.59765625,7.8125,0.0
1676924167.8219519,-25.87890625,-859.86328125,-552.734375,45.8984375,0.0
1676924167.8269486,-14.6484375,-785.64453125,-476.5625,-16.11328125,0.0
1676924167.8319454,-21.97265625,-431.15234375,-201.171875,-66.40625,0.0
1676924167.8369422,-31.73828125,-542.96875,-299.31640625,-20.01953125,0.0
1676924167.841939,-21.97265625,-863.76953125,-616.2109375,34.66796875,0.0
1676924167.846936,-12.6953125,-761.23046875,-558.10546875,-9.765625,0.0
1676924167.8519328,-29.296875,-476.07421875,-262.6953125,-73.2421875,0.0
1676924167.8556752,-41.015625,-610.83984375,-369.140625,-54.6875,0.0
1676924167.8594177,-28.80859375,-728.02734375,-460.44921875,4.39453125,0.0
1676924167.8631601,-11.23046875,-442.3828125,-215.8203125,-1.46484375,0.0
1676924167.8669026,-9.27734375,-427.734375,-203.61328125,-48.33984375,0.0
1676924167.870645,-13.671875,-769.04296875,-593.75,-25.390625,0.0
1676924167.8743873,-14.16015625,-1000.0,-837.40234375,29.78515625,0.0
1676924167.8781297,-9.765625,-761.71875,-522.94921875,8.7890625,0.0
1676924167.8818722,-18.06640625,-427.734375,-222.65625,-39.55078125,0.0
1676924167.8856146,-20.5078125,-734.86328125,-604.98046875,-26.3671875,0.0
1676924167.889357,-16.6015625,-896.484375,-838.8671875,34.66796875,0.0
1676924167.8930995,-10.25390625,-436.03515625,-312.98828125,52.24609375,0.0
1676924167.896842,-12.20703125,-376.953125,-249.0234375,8.30078125,0.0
1676924167.9005933,-15.13671875,-589.84375,-445.3125,-23.92578125,0.0
1676924167.9043443,-3.41796875,-604.4921875,-466.30859375,10.25390625,0.0
1676924167.9080954,-3.41796875,-462.40234375,-355.95703125,66.40625,0.0
1676924167.9118466,-19.04296875,-485.83984375,-342.28515625,55.17578125,0.0
1676924167.915598,-25.390625,-658.203125,-481.93359375,2.44140625,0.0
1676924167.919349,-21.97265625,-780.2734375,-598.6328125,23.4375,0.0
1676924167.9231,-13.18359375,-743.65234375,-578.61328125,79.58984375,0.0
1676924167.9268513,-14.16015625,-652.83203125,-481.4453125,72.265625,0.0
1676924167.9306026,-36.62109375,-954.58984375,-861.81640625,17.08984375,0.0
1676924167.9343536,-41.50390625,-852.05078125,-821.2890625,-23.92578125,0.0
1676924167.9381046,-44.921875,-397.94921875,-301.7578125,4.39453125,0.0
1676924167.941856,-48.828125,-561.5234375,-410.64453125,30.76171875,0.0
1676924167.9456108,-35.15625,-710.44921875,-538.57421875,-10.7421875,0.0
1676924167.9493656,-38.0859375,-466.796875,-376.953125,-42.48046875,0.0
1676924167.9531202,-45.41015625,-404.78515625,-324.21875,3.90625,0.0
1676924167.956875,-30.76171875,-625.48828125,-478.02734375,34.66796875,0.0
1676924167.96063,-22.94921875,-763.18359375,-592.28515625,-8.7890625,0.0
1676924167.9643848,-27.34375,-813.4765625,-644.04296875,-49.8046875,0.0
1676924167.9681396,-30.76171875,-861.328125,-669.921875,-29.296875,0.0
1676924167.9718945,-20.5078125,-917.96875,-801.7578125,43.45703125,0.0
1676924167.9756494,-9.765625,-875.9765625,-846.19140625,31.73828125,0.0
1676924167.979404,-27.83203125,-534.1796875,-459.9609375,-44.921875,0.0
1676924167.9831588,-32.2265625,-522.94921875,-416.50390625,-37.59765625,0.0
1676924167.9869137,-21.484375,-787.59765625,-661.62109375,25.87890625,0.0
1676924167.9906945,-18.06640625,-674.8046875,-557.12890625,19.53125,0.0
1676924167.9944751,-9.765625,-443.84765625,-378.90625,-42.48046875,0.0
1676924167.9982557,-11.23046875,-572.75390625,-516.11328125,-54.19921875,0.0
1676924168.0020366,-28.3203125,-755.859375,-643.06640625,-2.9296875,0.0
1676924168.0058174,-30.76171875,-640.625,-544.921875,14.6484375,0.0
1676924168.009598,-22.4609375,-727.5390625,-608.88671875,-24.4140625,0.0
1676924168.0133786,-20.5078125,-897.4609375,-732.91015625,-56.15234375,0.0
1676924168.0171595,-16.6015625,-942.3828125,-875.9765625,-12.20703125,0.0
1676924168.0209403,-8.30078125,-795.41015625,-766.11328125,16.6015625,0.0
1676924168.024721,0.9765625,-449.21875,-396.484375,-26.3671875,0.0
1676924168.0285015,-20.5078125,-589.35546875,-505.859375,-62.5,0.0
1676924168.0322824,-40.0390625,-761.71875,-624.51171875,-24.90234375,0.0
1676924168.0359983,-31.73828125,-513.671875,-405.2734375,38.0859375,0.0
1676924168.039714,-19.04296875,-417.96875,-286.62109375,4.39453125,0.0
1676924168.0434299,-21.97265625,-751.46484375,-660.15625,-56.640625,0.0
1676924168.0471458,-23.92578125,-857.91015625,-788.0859375,-59.08203125,0.0
1676924168.0508618,-16.6015625,-652.34375,-534.66796875,-6.34765625,0.0
1676924168.0545776,-18.06640625,-844.7265625,-689.453125,21.97265625,0.0
1676924168.0582933,-5.37109375,-988.28125,-895.5078125,-1.953125,0.0
1676924168.0620093,-7.8125,-936.5234375,-918.9453125,-11.23046875,0.0
1676924168.0657253,-28.3203125,-592.7734375,-538.57421875,11.71875,0.0
1676924168.069441,-4.8828125,-449.70703125,-393.5546875,32.2265625,0.0
1676924168.0731568,2.44140625,-696.77734375,-604.00390625,0.9765625,0.0
1676924168.0768728,-31.73828125,-717.7734375,-635.25390625,-41.015625,0.0
1676924168.0806267,-48.828125,-562.01171875,-554.19921875,-9.27734375,0.0
1676924168.0843804,-51.26953125,-552.24609375,-526.85546875,43.45703125,0.0
1676924168.0881343,-48.33984375,-726.07421875,-625.48828125,1.953125,0.0
1676924168.0918882,-57.6171875,-662.59765625,-604.4921875,-58.10546875,0.0
1676924168.0956419,-64.94140625,-549.31640625,-520.5078125,-51.26953125,0.0
1676924168.0993958,-73.2421875,-806.640625,-704.58984375,9.765625,0.0
1676924168.1031497,-95.21484375,-1000.0,-974.12109375,-9.765625,0.0
1676924168.1069033,-94.23828125,-868.65234375,-833.0078125,-71.77734375,0.0
1676924168.1106572,-100.09765625,-539.0625,-486.328125,-84.47265625,0.0
1676924168.114411,-117.67578125,-615.72265625,-540.0390625,-45.41015625,0.0
1676924168.1181648,-129.39453125,-973.14453125,-930.17578125,-36.62109375,0.0
1676924168.1219187,-138.671875,-817.3828125,-791.50390625,-124.51171875,0.0
1676924168.1256733,-151.85546875,-467.7734375,-425.78125,-180.6640625,0.0
1676924168.1294277,-167.48046875,-667.48046875,-608.88671875,-140.13671875,0.0
1676924168.133182,-180.6640625,-759.27734375,-677.734375,-113.76953125,0.0
1676924168.1369367,-205.56640625,-520.99609375,-486.81640625,-181.640625,0.0
1676924168.1406913,-240.234375,-568.84765625,-508.30078125,-249.51171875,0.0
1676924168.1444457,-250.0,-885.7421875,-818.359375,-214.84375,0.0
1676924168.1482,-251.953125,-893.06640625,-875.48828125,-183.59375,0.0
1676924168.1519547,-270.99609375,-526.3671875,-500.48828125,-248.53515625,0.0
1676924168.1557093,-282.2265625,-445.80078125,-410.64453125,-308.59375,0.0
1676924168.1594636,-280.2734375,-798.828125,-733.88671875,-294.43359375,0.0
1676924168.163218,-284.1796875,-921.38671875,-836.9140625,-239.2578125,0.0
1676924168.1669726,-269.53125,-552.24609375,-524.90234375,-243.1640625,0.0
1676924168.1719682,-254.8828125,-510.25390625,-478.02734375,-297.8515625,0.0
1676924168.1769638,-246.58203125,-812.01171875,-751.46484375,-287.109375,0.0
1676924168.1819592,-222.16796875,-788.57421875,-736.328125,-213.8671875,0.0
1676924168.1869547,-212.890625,-489.74609375,-470.703125,-185.546875,0.0
1676924168.1919503,-208.49609375,-541.015625,-490.72265625,-205.078125,0.0
1676924168.196946,-188.96484375,-921.38671875,-809.08203125,-214.84375,0.0
1676924168.2019415,-167.96875,-885.25390625,-781.73828125,-172.8515625,0.0
1676924168.206937,-147.94921875,-528.80859375,-478.515625,-126.46484375,0.0
1676924168.2119327,-124.0234375,-627.9296875,-566.89453125,-129.8828125,0.0
1676924168.216928,-94.23828125,-883.7890625,-835.9375,-129.39453125,0.0
1676924168.2219236,-80.56640625,-660.64453125,-655.2734375,-96.19140625,0.0
1676924168.2269192,-69.3359375,-420.41015625,-390.13671875,-31.25,0.0
1676924168.2307644,-41.015625,-675.78125,-597.16796875,-20.5078125,0.0
1676924168.2346096,-31.73828125,-992.67578125,-856.4453125,-59.08203125,0.0
1676924168.2384548,-35.64453125,-754.8828125,-673.33984375,-42.48046875,0.0
1676924168.2423,-10.25390625,-428.7109375,-389.6484375,43.9453125,0.0
1676924168.2461452,5.859375,-646.484375,-593.26171875,67.87109375,0.0
1676924168.2499905,8.30078125,-1000.0,-973.14453125,29.296875,0.0
1676924168.253836,25.87890625,-875.9765625,-761.71875,13.18359375,0.0
1676924168.2576811,41.9921875,-512.20703125,-398.4375,64.453125,0.0
1676924168.2615263,54.19921875,-758.30078125,-693.84765625,126.46484375,0.0
1676924168.2653716,60.546875,-897.94921875,-900.87890625,92.7734375,0.0
1676924168.2692168,61.5234375,-648.92578125,-627.44140625,41.015625,0.0
1676924168.273062,58.59375,-607.421875,-545.41015625,83.984375,0.0
1676924168.2767196,70.80078125,-630.859375,-551.26953125,130.859375,0.0
1676924168.2803774,91.796875,-559.5703125,-488.28125,93.75,0.0
1676924168.284035,76.171875,-406.73828125,-363.76953125,34.1796875,0.0
1676924168.2876925,66.89453125,-528.80859375,-455.56640625,57.6171875,0.0
1676924168.2913504,80.56640625,-807.12890625,-690.91796875,122.55859375,0.0
1676924168.295008,82.03125,-887.20703125,-770.01953125,109.86328125,0.0
1676924168.2986655,70.3125,-908.203125,-801.7578125,48.828125,0.0
1676924168.3023233,59.5703125,-906.25,-800.29296875,39.0625,0.0
1676924168.305981,69.82421875,-973.14453125,-921.38671875,98.6328125,0.0
1676924168.3096385,66.89453125,-828.61328125,-811.03515625,94.23828125,0.0
1676924168.3132963,64.453125,-466.796875,-440.91796875,30.2734375,0.0
1676924168.316954,72.265625,-631.8359375,-596.6796875,31.73828125,0.0
1676924168.3206823,52.734375,-898.4375,-871.09375,81.54296875,0.0
1676924168.3244107,53.7109375,-594.23828125,-578.61328125,88.8671875,0.0
1676924168.328139,63.4765625,-458.49609375,-441.40625,45.8984375,0.0
1676924168.3318675,52.734375,-740.72265625,-686.03515625,11.23046875,0.0
1676924168.3355958,55.6640625,-777.34375,-687.5,53.22265625,0.0
1676924168.339324,56.640625,-758.7890625,-673.828125,112.79296875,0.0
1676924168.3430524,55.17578125,-703.125,-608.3984375,73.73046875,0.0
1676924168.3467808,51.7578125,-730.95703125,-689.453125,51.7578125,0.0
1676924168.3505092,51.26953125,-1000.0,-958.984375,86.42578125,0.0
1676924168.3542376,57.6171875,-705.078125,-635.25390625,105.95703125,0.0
1676924168.357966,73.73046875,-407.71484375,-336.9140625,100.09765625,0.0
1676924168.3616943,86.9140625,-718.26171875,-655.76171875,68.84765625,0.0
1676924168.3654625,55.17578125,-786.62109375,-777.34375,51.7578125,0.0
1676924168.3692307,43.9453125,-437.01171875,-417.48046875,98.6328125,0.0
1676924168.3729992,62.01171875,-452.1484375,-412.109375,126.46484375,0.0
1676924168.3767674,60.546875,-651.3671875,-580.56640625,76.171875,0.0
1676924168.3805356,46.875,-596.6796875,-534.1796875,53.7109375,0.0
1676924168.384304,62.98828125,-706.0546875,-615.72265625,115.72265625,0.0
1676924168.3880723,84.9609375,-825.1953125,-705.56640625,162.109375,0.0
1676924168.3918405,72.75390625,-914.0625,-858.3984375,128.41796875,0.0
1676924168.3956087,62.5,-756.34765625,-757.32421875,69.82421875,0.0
1676924168.3993769,66.40625,-408.203125,-399.90234375,90.8203125,0.0
1676924168.4031453,65.91796875,-547.8515625,-499.0234375,146.484375,0.0
1676924168.4069135,51.26953125,-766.6015625,-688.96484375,113.28125,0.0
1676924168.4107592,39.55078125,-780.76171875,-722.16796875,54.6875,0.0
1676924168.4146051,29.296875,-541.015625,-513.18359375,45.41015625,0.0
1676924168.4184508,24.4140625,-663.57421875,-621.09375,97.16796875,0.0
1676924168.4222965,34.1796875,-866.2109375,-816.89453125,104.4921875,0.0
1676924168.4261425,24.4140625,-609.86328125,-566.89453125,33.203125,0.0
1676924168.4299881,5.37109375,-749.0234375,-651.3671875,34.66796875,0.0
1676924168.4338338,5.859375,-974.12109375,-894.53125,93.75,0.0
1676924168.4376798,5.859375,-894.04296875,-885.7421875,84.47265625,0.0
1676924168.4415255,0.48828125,-554.19921875,-544.921875,13.18359375,0.0
1676924168.4453712,-11.23046875,-486.328125,-484.86328125,-20.99609375,0.0
1676924168.449217,-7.32421875,-759.765625,-716.30859375,20.99609375,0.0
1676924168.4530628,1.953125,-680.6640625,-620.60546875,58.10546875,0.0
1676924168.4567072,10.25390625,-421.875,-387.20703125,31.25,0.0
1676924168.460352,11.23046875,-526.3671875,-475.5859375,-15.625,0.0
1676924168.4639964,-1.46484375,-747.55859375,-666.9921875,0.0,0.0
1676924168.467641,0.0,-766.11328125,-675.29296875,62.98828125,0.0
1676924168.4712856,0.0,-811.03515625,-702.63671875,44.921875,0.0
1676924168.4749303,-19.53125,-893.06640625,-761.23046875,-19.04296875,0.0
1676924168.4785748,-23.92578125,-1000.0,-939.94140625,-5.37109375,0.0
1676924168.4822192,-5.859375,-877.44140625,-884.27734375,45.41015625,0.0
1676924168.485864,6.34765625,-486.81640625,-487.79296875,42.48046875,0.0
1676924168.4895084,-1.953125,-554.19921875,-516.11328125,5.37109375,0.0
1676924168.493153,-8.7890625,-727.05078125,-618.1640625,-17.08984375,0.0
1676924168.4967976,-10.25390625,-520.99609375,-438.4765625,26.85546875,0.0
1676924168.5005622,-6.8359375,-376.46484375,-346.6796875,55.17578125,0.0
1676924168.504327,-13.671875,-640.13671875,-544.43359375,12.20703125,0.0
1676924168.5080917,-28.80859375,-776.85546875,-664.55078125,-29.78515625,0.0
1676924168.5118566,-20.99609375,-509.765625,-489.74609375,-2.44140625,0.0
1676924168.5156212,-21.484375,-473.14453125,-429.19921875,44.43359375,0.0
1676924168.5193858,-25.390625,-796.38671875,-739.74609375,46.38671875,0.0
1676924168.5231507,-21.484375,-946.77734375,-935.05859375,-10.7421875,0.0
1676924168.5269153,-32.2265625,-828.61328125,-749.51171875,-15.13671875,0.0
1676924168.5306802,-32.2265625,-631.8359375,-546.875,62.98828125,0.0
1676924168.5344448,-2.9296875,-728.02734375,-662.59765625,55.17578125,0.0
1676924168.5382097,4.8828125,-778.80859375,-668.9453125,-1.46484375,0.0
1676924168.5419743,-14.16015625,-488.76953125,-426.7578125,0.9765625,0.0
1676924168.546977,-11.71875,-498.53515625,-446.2890625,58.59375,0.0
1676924168.5519798,-9.765625,-795.8984375,-745.60546875,79.58984375,0.0
1676924168.5569825,-22.94921875,-832.03125,-796.38671875,31.73828125,0.0
1676924168.5619853,-21.484375,-461.42578125,-414.55078125,-0.9765625,0.0
1676924168.566988,-4.8828125,-533.69140625,-491.69921875,39.55078125,0.0
1676924168.5719907,5.859375,-888.18359375,-792.96875,95.703125,0.0
1676924168.5769935,10.25390625,-845.21484375,-750.48828125,44.43359375,0.0
1676924168.5819962,-4.8828125,-491.69921875,-430.17578125,-25.390625,0.0
1676924168.586999,-28.3203125,-570.3125,-451.66015625,9.765625,0.0
1676924168.5920017,0.48828125,-822.75390625,-741.69921875,64.94140625,0.0
1676924168.5970044,13.18359375,-697.75390625,-665.0390625,34.1796875,0.0
1676924168.6020072,0.0,-663.0859375,-556.640625,-32.2265625,0.0
1676924168.6057284,-6.8359375,-795.8984375,-698.2421875,-16.6015625,0.0
1676924168.6094499,-18.5546875,-831.54296875,-763.18359375,33.203125,0.0
1676924168.613171,-7.8125,-535.15625,-471.19140625,7.8125,0.0
1676924168.6168926,-6.34765625,-436.5234375,-390.13671875,-32.2265625,0.0
1676924168.6206138,-17.08984375,-704.58984375,-593.75,-41.015625,0.0
1676924168.6243353,-18.5546875,-981.93359375,-797.8515625,19.04296875,0.0
1676924168.6280565,-10.7421875,-774.4140625,-633.30078125,38.57421875,0.0
1676924168.6317778,6.34765625,-468.26171875,-373.046875,-20.01953125,0.0
1676924168.6354992,8.30078125,-746.09375,-662.59765625,-33.203125,0.0
1676924168.6392205,1.46484375,-791.9921875,-700.68359375,-1.953125,0.0
1676924168.642942,-18.06640625,-464.35546875,-357.421875,21.97265625,0.0
1676924168.6466632,-2.44140625,-471.6796875,-360.83984375,12.6953125,0.0
1676924168.6504357,0.48828125,-826.171875,-761.23046875,-14.16015625,0.0
1676924168.654208,-6.8359375,-840.33203125,-811.5234375,6.8359375,0.0
1676924168.6579804,19.53125,-601.07421875,-524.90234375,53.7109375,0.0
1676924168.661753,17.578125,-764.6484375,-630.859375,39.0625,0.0
1676924168.6655252,9.765625,-873.53515625,-788.0859375,-20.5078125,0.0
1676924168.6692977,11.71875,-922.8515625,-829.1015625,-27.83203125,0.0
1676924168.6730702,10.7421875,-782.71484375,-623.046875,23.92578125,0.0
1676924168.6768425,16.6015625,-629.8828125,-483.88671875,25.390625,0.0
1676924168.680615,20.5078125,-899.90234375,-820.80078125,-13.671875,0.0
1676924168.6843874,18.06640625,-709.47265625,-645.01953125,-30.2734375,0.0
1676924168.6881597,19.53125,-465.33203125,-322.265625,20.99609375,0.0
1676924168.6919322,22.4609375,-788.57421875,-608.88671875,43.9453125,0.0
1676924168.6956835,13.671875,-776.3671875,-616.69921875,-8.30078125,0.0
1676924168.699435,4.39453125,-467.7734375,-372.0703125,-29.296875,0.0
1676924168.7031863,-0.9765625,-331.54296875,-251.46484375,16.6015625,0.0
1676924168.7069376,-6.8359375,-582.03125,-451.66015625,49.8046875,0.0
1676924168.710689,7.32421875,-738.76953125,-564.453125,22.4609375,0.0
1676924168.7144403,5.37109375,-764.16015625,-613.76953125,-3.90625,0.0
1676924168.7181916,8.30078125,-838.37890625,-669.43359375,1.953125,0.0
1676924168.7219431,24.90234375,-909.1796875,-799.8046875,46.875,0.0
1676924168.7256944,8.30078125,-963.37890625,-937.98828125,42.48046875,0.0
1676924168.7294457,-1.953125,-587.40234375,-535.64453125,-24.4140625,0.0
1676924168.7331972,0.9765625,-415.0390625,-332.51953125,-24.90234375,0.0
1676924168.7369485,-0.9765625,-781.73828125,-697.265625,33.203125,0.0
1676924168.7406948,8.7890625,-742.67578125,-670.41015625,41.9921875,0.0
1676924168.744441,1.953125,-402.34375,-333.984375,-5.859375,0.0
1676924168.7481873,-7.8125,-495.60546875,-425.29296875,-21.484375,0.0
1676924168.7519336,-1.953125,-683.10546875,-575.1953125,31.73828125,0.0
1676924168.7556798,2.9296875,-600.5859375,-494.140625,66.89453125,0.0
1676924168.759426,9.27734375,-682.12890625,-568.84765625,26.85546875,0.0
1676924168.7631721,3.41796875,-828.125,-707.03125,-11.23046875,0.0
1676924168.7669184,-22.4609375,-937.98828125,-873.53515625,25.390625,0.0
1676924168.7706647,-18.06640625,-727.5390625,-704.1015625,59.08203125,0.0
1676924168.774411,6.34765625,-505.859375,-441.40625,20.01953125,0.0
1676924168.7781572,-6.34765625,-786.1328125,-683.10546875,-28.80859375,0.0
1676924168.7819035,-12.20703125,-854.4921875,-799.31640625,-15.13671875,0.0
1676924168.785654,-12.20703125,-556.640625,-527.83203125,42.48046875,0.0
1676924168.7894044,-5.859375,-372.55859375,-347.65625,37.109375,0.0
1676924168.793155,-2.44140625,-651.85546875,-579.58984375,-4.8828125,0.0
1676924168.7969055,-7.8125,-746.58203125,-658.203125,-6.34765625,0.0
1676924168.8006558,-1.46484375,-513.671875,-477.05078125,45.41015625,0.0
1676924168.8044064,-4.39453125,-717.7734375,-594.7265625,63.4765625,0.0
1676924168.808157,-15.13671875,-976.5625,-878.41796875,9.765625,0.0
1676924168.8119073,-10.7421875,-903.80859375,-902.83203125,-27.83203125,0.0
1676924168.8156579,-19.53125,-551.7578125,-522.94921875,2.44140625,0.0
1676924168.8194084,-15.13671875,-418.9453125,-362.3046875,30.76171875,0.0
1676924168.8231587,5.859375,-660.64453125,-553.7109375,4.8828125,0.0
1676924168.8269093,13.671875,-637.20703125,-549.31640625,-36.1328125,0.0
1676924168.8306606,-5.859375,-506.8359375,-464.84375,-26.85546875,0.0
1676924168.8344116,-18.06640625,-709.47265625,-605.46875,28.3203125,0.0
1676924168.838163,5.859375,-896.97265625,-803.7109375,11.23046875,0.0
1676924168.8419142,10.7421875,-694.82421875,-645.99609375,-52.24609375,0.0
1676924168.8456652,-16.6015625,-494.140625,-402.34375,-59.08203125,0.0
1676924168.8494165,-15.625,-784.66796875,-607.421875,0.9765625,0.0
1676924168.8531678,-2.44140625,-1000.0,-934.08203125,23.92578125,0.0
1676924168.8569188,-14.6484375,-779.78515625,-770.5078125,-26.85546875,0.0
1676924168.86067,-7.8125,-475.09765625,-431.640625,-40.0390625,0.0
1676924168.8644214,-6.8359375,-609.86328125,-537.109375,13.671875,0.0
1676924168.8681724,4.8828125,-770.99609375,-657.71484375,35.64453125,0.0
1676924168.8719237,9.27734375,-597.16796875,-532.71484375,-10.7421875,0.0
1676924168.8756776,-6.8359375,-431.15234375,-386.71875,-38.57421875,0.0
1676924168.8794315,-10.7421875,-666.50390625,-570.3125,0.48828125,0.0
1676924168.8831854,-21.97265625,-803.22265625,-709.9609375,38.57421875,0.0
1676924168.886939,-22.94921875,-522.4609375,-482.91015625,-7.32421875,0.0
1676924168.890693,-22.94921875,-635.25390625,-556.640625,-49.31640625,0.0
1676924168.8944468,-29.78515625,-928.22265625,-873.046875,-1.46484375,0.0
1676924168.8982008,-26.85546875,-994.140625,-940.91796875,41.9921875,0.0
1676924168.9019547,-23.92578125,-791.50390625,-687.01171875,4.39453125,0.0
1676924168.9057083,-24.4140625,-515.13671875,-449.70703125,-46.38671875,0.0
1676924168.9094622,-16.6015625,-774.90234375,-742.1875,-24.4140625,0.0
1676924168.913216,-14.16015625,-925.78125,-885.25390625,38.0859375,0.0
1676924168.91697,-22.94921875,-529.296875,-457.51953125,33.203125,0.0
1676924168.9219658,-13.18359375,-465.8203125,-422.36328125,-8.30078125,0.0
1676924168.926962,-9.27734375,-693.84765625,-622.55859375,-25.390625,0.0
1676924168.9319577,-13.18359375,-671.38671875,-592.7734375,28.3203125,0.0
1676924168.9369535,-8.30078125,-488.76953125,-434.5703125,57.6171875,0.0
1676924168.9419496,-6.8359375,-519.04296875,-448.2421875,8.7890625,0.0
1676924168.9469454,-14.16015625,-897.4609375,-794.43359375,-9.27734375,0.0
1676924168.9519413,-16.11328125,-859.86328125,-731.4453125,18.06640625,0.0
1676924168.9569373,-18.06640625,-479.00390625,-381.34765625,41.015625,0.0
1676924168.9619331,-24.4140625,-644.04296875,-545.8984375,27.34375,0.0
1676924168.966929,-45.41015625,-998.53515625,-937.01171875,-9.765625,0.0
1676924168.971925,-64.453125,-817.87109375,-808.10546875,-20.01953125,0.0
1676924168.9769208,-67.3828125,-407.71484375,-376.953125,3.41796875,0.0
1676924168.980671,-78.125,-610.3515625,-510.7421875,-13.18359375,0.0
1676924168.9844208,-98.14453125,-775.87890625,-660.64453125,-66.89453125,0.0
1676924168.9881706,-125.0,-487.3046875,-449.21875,-87.890625,0.0
1676924168.9919207,-127.44140625,-374.0234375,-354.98046875,-40.0390625,0.0
1676924168.9956708,-118.65234375,-636.23046875,-555.6640625,-32.71484375,0.0
1676924168.9994206,-145.99609375,-1000.0,-872.55859375,-112.3046875,0.0
1676924169.0031705,-173.33984375,-881.34765625,-793.9453125,-171.875,0.0
1676924169.0069206,-174.8046875,-541.015625,-514.16015625,-152.34375,0.0
1676924169.0106707,-203.125,-741.2109375,-723.14453125,-131.34765625,0.0
1676924169.0144205,-231.93359375,-924.31640625,-899.4140625,-196.77734375,0.0
1676924169.0181704,-228.515625,-569.3359375,-546.38671875,-250.48828125,0.0
1676924169.0219204,-241.69921875,-558.59375,-533.69140625,-218.26171875,0.0
1676924169.025745,-241.2109375,-822.75390625,-756.34765625,-172.8515625,0.0
1676924169.0295696,-236.81640625,-708.49609375,-679.19921875,-196.2890625,0.0
1676924169.033394,-227.05078125,-483.3984375,-495.1171875,-256.34765625,0.0
1676924169.0372186,-217.7734375,-552.734375,-537.109375,-231.4453125,0.0
1676924169.041043,-209.47265625,-764.6484375,-737.79296875,-168.9453125,0.0
1676924169.0448675,-205.56640625,-913.0859375,-856.4453125,-163.57421875,0.0
1676924169.0486922,-212.40234375,-828.125,-751.46484375,-215.8203125,0.0
1676924169.0525167,-218.75,-713.8671875,-677.24609375,-231.4453125,0.0
1676924169.0563412,-195.80078125,-896.97265625,-857.91015625,-151.85546875,0.0
1676924169.060166,-169.43359375,-774.4140625,-752.9296875,-126.953125,0.0
1676924169.0639904,-165.52734375,-484.375,-494.62890625,-167.48046875,0.0
1676924169.0678148,-144.04296875,-669.43359375,-661.62109375,-169.43359375,0.0
1676924169.0715377,-132.32421875,-822.265625,-785.15625,-101.07421875,0.0
1676924169.0752606,-108.88671875,-551.26953125,-535.15625,-57.12890625,0.0
1676924169.0789835,-73.73046875,-515.625,-484.86328125,-75.68359375,0.0
1676924169.0827065,-58.10546875,-803.7109375,-759.765625,-79.58984375,0.0
1676924169.0864294,-50.29296875,-830.078125,-782.71484375,-41.015625,0.0
1676924169.0901523,-37.109375,-780.76171875,-683.59375,22.4609375,0.0
1676924169.093875,-19.04296875,-917.96875,-801.7578125,11.71875,0.0
1676924169.0975978,-18.5546875,-940.91796875,-886.23046875,-31.25,0.0
1676924169.1013207,-26.85546875,-936.03515625,-925.29296875,-12.20703125,0.0
1676924169.1050436,-1.46484375,-604.4921875,-581.0546875,32.71484375,0.0
1676924169.1087666,22.4609375,-592.28515625,-549.8046875,43.9453125,0.0
1676924169.1124895,21.484375,-838.8671875,-780.76171875,17.08984375,0.0
1676924169.1161883,19.04296875,-661.1328125,-639.16015625,15.625,0.0
1676924169.1198869,39.0625,-475.5859375,-481.4453125,63.4765625,0.0
1676924169.1235857,57.6171875,-558.10546875,-523.92578125,94.7265625,0.0
1676924169.1272843,55.17578125,-711.9140625,-615.72265625,54.19921875,0.0
1676924169.130983,51.7578125,-662.109375,-570.3125,22.94921875,0.0
1676924169.1346817,59.08203125,-778.3203125,-683.59375,72.265625,0.0
1676924169.1383805,60.546875,-905.76171875,-797.36328125,108.88671875,0.0
1676924169.1420794,54.6875,-979.00390625,-934.5703125,88.37890625,0.0
1676924169.145778,52.24609375,-888.671875,-879.39453125,34.66796875,0.0
1676924169.1494768,58.10546875,-455.078125,-453.61328125,37.59765625,0.0
1676924169.1531754,51.26953125,-524.90234375,-487.3046875,100.5859375,0.0
1676924169.1568742,41.9921875,-731.4453125,-664.55078125,90.8203125,0.0
1676924169.1618733,49.31640625,-541.9921875,-549.8046875,40.0390625,0.0
1676924169.1668723,43.45703125,-430.6640625,-422.8515625,49.31640625,0.0
1676924169.1718714,54.19921875,-671.875,-595.21484375,92.7734375,0.0
1676924169.1768706,61.5234375,-754.8828125,-662.109375,95.703125,0.0
1676924169.1818695,62.5,-572.75390625,-506.34765625,54.6875,0.0
1676924169.1868687,66.89453125,-746.58203125,-617.1875,35.15625,0.0
1676924169.1918678,56.640625,-961.42578125,-868.1640625,91.796875,0.0
1676924169.1968668,51.26953125,-825.1953125,-816.89453125,114.2578125,0.0
1676924169.201866,50.29296875,-467.28515625,-448.73046875,73.2421875,0.0
1676924169.206865,39.55078125,-450.1953125,-416.015625,34.66796875,0.0
1676924169.211864,33.203125,-813.4765625,-785.15625,76.66015625,0.0
1676924169.2168632,36.62109375,-905.76171875,-903.3203125,132.8125,0.0
1676924169.2194448,47.8515625,-535.15625,-513.18359375,87.40234375,0.0
1676924169.2220263,57.12890625,-497.0703125,-481.93359375,47.8515625,0.0
1676924169.224608,41.50390625,-762.20703125,-698.73046875,61.5234375,0.0
1676924169.2271898,35.64453125,-668.9453125,-607.91015625,109.375,0.0
1676924169.2297714,53.7109375,-453.125,-438.4765625,105.46875,0.0
1676924169.232353,56.640625,-764.16015625,-680.6640625,71.2890625,0.0
1676924169.2349346,47.8515625,-899.90234375,-857.421875,77.63671875,0.0
1676924169.2375162,45.8984375,-595.21484375,-590.33203125,126.46484375,0.0
1676924169.240098,53.7109375,-437.98828125,-405.76171875,150.87890625,0.0
1676924169.2426796,70.80078125,-583.0078125,-535.15625,100.5859375,0.0
1676924169.2452612,56.640625,-909.1796875,-868.1640625,74.21875,0.0
1676924169.2478428,37.109375,-734.375,-720.703125,112.3046875,0.0
1676924169.2527657,37.109375,-415.0390625,-375.0,123.53515625,0.0
1676924169.2576885,30.2734375,-650.87890625,-555.6640625,83.0078125,0.0
1676924169.2626114,23.92578125,-958.0078125,-815.4296875,62.01171875,0.0
1676924169.2675343,23.4375,-669.43359375,-596.6796875,84.9609375,0.0
1676924169.2724571,29.296875,-458.984375,-409.1796875,91.30859375,0.0
1676924169.27738,21.484375,-778.80859375,-708.49609375,66.40625,0.0
1676924169.282303,9.765625,-1000.0,-1000.0,50.78125,0.0
1676924169.287226,8.30078125,-727.05078125,-717.28515625,48.828125,0.0
1676924169.2921488,15.13671875,-449.21875,-420.41015625,89.84375,0.0
1676924169.2970717,24.4140625,-662.109375,-572.265625,90.33203125,0.0
1676924169.3019946,13.18359375,-667.96875,-597.16796875,27.83203125,0.0
1676924169.3069174,10.25390625,-460.9375,-466.30859375,18.5546875,0.0
1676924169.3106675,22.94921875,-510.25390625,-485.83984375,71.77734375,0.0
1676924169.3144178,22.94921875,-669.43359375,-592.7734375,80.078125,0.0
1676924169.318168,33.69140625,-647.4609375,-593.26171875,29.78515625,0.0
1676924169.3219182,31.73828125,-496.09375,-479.00390625,4.8828125,0.0
1676924169.3256683,23.4375,-653.3203125,-592.28515625,49.31640625,0.0
1676924169.3294187,32.2265625,-946.77734375,-865.234375,94.23828125,0.0
1676924169.3331687,25.87890625,-991.69921875,-877.44140625,43.9453125,0.0
1676924169.3369188,11.23046875,-778.80859375,-709.9609375,-12.20703125,0.0
1676924169.3406692,9.27734375,-626.953125,-589.35546875,0.48828125,0.0
1676924169.3444192,14.6484375,-941.89453125,-895.99609375,56.640625,0.0
1676924169.3481696,8.7890625,-924.31640625,-921.38671875,31.25,0.0
1676924169.3519197,1.46484375,-515.13671875,-514.16015625,-44.43359375,0.0
1676924169.3556762,17.578125,-628.41796875,-562.98828125,-27.83203125,0.0
1676924169.359433,20.5078125,-763.671875,-658.69140625,27.34375,0.0
1676924169.3631897,12.6953125,-515.13671875,-467.28515625,24.4140625,0.0
1676924169.3669462,9.27734375,-472.65625,-423.33984375,-13.671875,0.0
1676924169.3707027,-3.90625,-731.93359375,-651.3671875,-34.66796875,0.0
1676924169.3744595,-2.44140625,-1000.0,-866.69921875,16.11328125,0.0
1676924169.3782163,12.6953125,-806.15234375,-674.31640625,38.0859375,0.0
1676924169.3819728,12.6953125,-499.51171875,-410.64453125,-11.71875,0.0
1676924169.3857293,5.37109375,-758.7890625,-719.7265625,-13.18359375,0.0
1676924169.389486,-0.9765625,-1000.0,-973.6328125,36.1328125,0.0
1676924169.3932428,2.9296875,-660.64453125,-598.6328125,47.36328125,0.0
1676924169.3969994,27.83203125,-424.8046875,-395.01953125,20.01953125,0.0
1676924169.4007328,23.92578125,-760.25390625,-724.609375,-11.71875,0.0
1676924169.404466,13.671875,-803.22265625,-783.69140625,-0.9765625,0.0
1676924169.4081993,29.296875,-491.2109375,-453.125,58.59375,0.0
1676924169.4119327,31.73828125,-503.41796875,-403.80859375,51.7578125,0.0
1676924169.4156659,14.6484375,-697.265625,-573.73046875,13.671875,0.0
1676924169.4193993,13.671875,-879.8828125,-747.55859375,41.9921875,0.0
1676924169.4231327,30.76171875,-784.1796875,-664.55078125,73.73046875,0.0
1676924169.4268658,36.62109375,-624.51171875,-550.29296875,68.84765625,0.0
1676924169.4305992,32.2265625,-898.92578125,-863.76953125,40.0390625,0.0
1676924169.4343326,37.109375,-762.20703125,-749.51171875,13.18359375,0.0
1676924169.4380658,35.64453125,-404.78515625,-365.234375,45.41015625,0.0
1676924169.4417992,24.4140625,-606.93359375,-529.78515625,75.1953125,0.0
1676924169.4456632,25.390625,-819.82421875,-723.6328125,37.59765625,0.0
1676924169.4495273,27.34375,-762.20703125,-710.44921875,8.30078125,0.0
1676924169.453391,24.4140625,-561.5234375,-521.97265625,33.69140625,0.0
1676924169.4572551,27.34375,-680.17578125,-643.5546875,84.47265625,0.0
1676924169.4611192,30.2734375,-861.328125,-826.66015625,82.51953125,0.0
1676924169.4649832,21.97265625,-799.8046875,-730.95703125,45.8984375,0.0
1676924169.4688473,10.25390625,-878.90625,-766.6015625,52.24609375,0.0
1676924169.4727113,7.32421875,-921.875,-856.93359375,96.19140625,0.0
1676924169.4765754,9.27734375,-893.06640625,-882.32421875,77.1484375,0.0
1676924169.4804392,17.578125,-544.43359375,-502.44140625,3.90625,0.0
1676924169.4843032,2.44140625,-449.21875,-381.34765625,-8.30078125,0.0
1676924169.4881673,-6.34765625,-669.43359375,-573.2421875,37.59765625,0.0
1676924169.4918075,6.8359375,-605.46875,-517.578125,47.8515625,0.0
1676924169.4954476,20.99609375,-403.80859375,-349.609375,3.41796875,0.0
1676924169.4990878,11.71875,-486.328125,-412.109375,-17.08984375,0.0
1676924169.502728,3.41796875,-682.12890625,-554.19921875,17.578125,0.0
1676924169.5063682,-0.9765625,-717.28515625,-596.19140625,41.015625,0.0
1676924169.5100083,-2.9296875,-776.85546875,-670.8984375,11.23046875,0.0
1676924169.5136483,-8.30078125,-811.5234375,-664.0625,-21.97265625,0.0
1676924169.5172884,-16.6015625,-953.125,-875.48828125,22.4609375,0.0
1676924169.5209286,-2.9296875,-876.46484375,-868.65234375,72.265625,0.0
1676924169.5245688,-2.44140625,-442.3828125,-410.64453125,37.59765625,0.0
1676924169.528209,-2.9296875,-573.73046875,-501.46484375,-14.16015625,0.0
1676924169.5318491,-14.6484375,-771.97265625,-663.0859375,-23.92578125,0.0
1676924169.5355995,-13.671875,-536.62109375,-477.05078125,6.8359375,0.0
1676924169.5393496,1.46484375,-402.34375,-344.23828125,17.08984375,0.0
1676924169.5430999,-17.08984375,-676.7578125,-564.94140625,-10.7421875,0.0
1676924169.5468502,-26.85546875,-827.63671875,-725.5859375,-30.76171875,0.0
1676924169.5506003,-23.4375,-563.96484375,-505.859375,-1.46484375,0.0
1676924169.5543506,-10.7421875,-741.2109375,-603.02734375,42.96875,0.0
1676924169.558101,-9.27734375,-980.46875,-865.72265625,8.30078125,0.0
1676924169.561851,-1.46484375,-929.6875,-928.7109375,-28.80859375,0.0
1676924169.5656013,-21.484375,-794.921875,-733.3984375,-10.25390625,0.0
1676924169.5693517,-35.15625,-532.71484375,-430.6640625,12.20703125,0.0
1676924169.5731018,-14.6484375,-718.26171875,-648.4375,-13.671875,0.0
1676924169.576852,-34.1796875,-797.36328125,-748.046875,-39.0625,0.0
1676924169.5806208,-45.8984375,-500.9765625,-450.68359375,-14.16015625,0.0
1676924169.5843894,-11.23046875,-545.8984375,-471.19140625,32.71484375,0.0
1676924169.5881581,-1.953125,-669.921875,-529.78515625,18.06640625,0.0
1676924169.5919268,-13.18359375,-607.421875,-483.88671875,-31.25,0.0
1676924169.5956955,-5.37109375,-507.32421875,-429.19921875,-22.94921875,0.0
1676924169.5994644,5.859375,-770.5078125,-625.0,45.41015625,0.0
1676924169.603233,-4.8828125,-1000.0,-932.12890625,64.453125,0.0
1676924169.6070018,-7.32421875,-758.7890625,-759.765625,-12.20703125,0.0
1676924169.6107705,-27.83203125,-439.453125,-400.390625,-38.0859375,0.0
1676924169.6145391,-29.296875,-591.796875,-510.25390625,18.5546875,0.0
1676924169.6183078,-5.37109375,-715.33203125,-585.9375,32.71484375,0.0
1676924169.6220765,-11.23046875,-662.109375,-561.03515625,-17.08984375,0.0
1676924169.6258938,-25.390625,-685.05859375,-580.56640625,-53.7109375,0.0
1676924169.6297112,-29.296875,-769.04296875,-646.97265625,-14.6484375,0.0
1676924169.6335282,-16.6015625,-850.09765625,-745.60546875,39.55078125,0.0
1676924169.6373456,-23.92578125,-560.546875,-472.16796875,2.9296875,0.0
1676924169.6411629,-40.0390625,-449.21875,-356.93359375,-42.48046875,0.0
1676924169.6449802,-16.11328125,-808.10546875,-715.8203125,4.8828125,0.0
1676924169.6487975,-11.23046875,-880.859375,-846.6796875,51.26953125,0.0
1676924169.6526148,-21.484375,-501.46484375,-436.5234375,2.44140625,0.0
1676924169.6564322,-13.18359375,-427.734375,-342.7734375,-37.109375,0.0
1676924169.6602492,-18.06640625,-751.953125,-661.1328125,-33.203125,0.0
1676924169.6640666,-21.484375,-751.953125,-645.01953125,23.92578125,0.0
1676924169.6678839,-34.1796875,-416.015625,-350.5859375,28.80859375,0.0
1676924169.6728036,-37.109375,-466.30859375,-405.2734375,-25.87890625,0.0
1676924169.6777234,-28.80859375,-692.3828125,-569.82421875,-38.0859375,0.0
1676924169.6826432,-29.78515625,-668.45703125,-558.59375,6.8359375,0.0
1676924169.687563,-21.484375,-701.66015625,-582.51953125,39.55078125,0.0
1676924169.6924827,-14.16015625,-737.3046875,-571.2890625,6.34765625,0.0
1676924169.6974025,-21.97265625,-902.34375,-828.61328125,-16.6015625,0.0
1676924169.7023222,-27.34375,-880.859375,-855.46875,1.46484375,0.0
1676924169.707242,-4.39453125,-470.21484375,-395.01953125,19.53125,0.0
1676924169.7121618,1.46484375,-564.453125,-461.9140625,-8.7890625,0.0
1676924169.7170815,-18.5546875,-748.046875,-612.3046875,-43.45703125,0.0
1676924169.7220013,-13.18359375,-587.40234375,-506.34765625,-20.5078125,0.0
1676924169.726921,-0.9765625,-425.78125,-378.41796875,36.1328125,0.0
1676924169.73065,1.953125,-648.4375,-523.92578125,21.97265625,0.0
1676924169.7343788,6.8359375,-825.1953125,-678.7109375,-26.85546875,0.0
1676924169.738108,-8.30078125,-574.70703125,-479.98046875,-20.99609375,0.0
1676924169.7418368,-15.625,-469.23828125,-377.9296875,23.92578125,0.0
1676924169.7455657,7.32421875,-705.078125,-589.35546875,53.22265625,0.0
1676924169.7492948,20.01953125,-1000.0,-849.12109375,20.01953125,0.0
1676924169.7530236,6.34765625,-894.04296875,-765.13671875,-10.7421875,0.0
1676924169.7567525,7.8125,-792.96875,-673.828125,28.3203125,0.0
1676924169.7604814,18.06640625,-929.19921875,-841.796875,66.89453125,0.0
1676924169.7642102,12.6953125,-894.53125,-877.44140625,27.34375,0.0
1676924169.7679393,-2.9296875,-577.63671875,-517.08984375,-40.52734375,0.0
1676924169.7716682,-9.765625,-474.609375,-381.34765625,-25.390625,0.0
1676924169.775475,-7.8125,-808.59375,-759.765625,41.9921875,0.0
1676924169.7792819,-2.9296875,-863.76953125,-831.54296875,32.71484375,0.0
1676924169.7830887,4.8828125,-488.28125,-412.59765625,-37.109375,0.0
1676924169.7868955,-1.46484375,-509.27734375,-435.05859375,-39.55078125,0.0
1676924169.7907023,0.48828125,-768.06640625,-647.94921875,10.7421875,0.0
1676924169.794509,2.44140625,-899.4140625,-752.44140625,15.625,0.0
1676924169.7983158,-4.39453125,-798.828125,-678.22265625,-38.57421875,0.0
1676924169.8021226,-20.01953125,-663.0859375,-581.54296875,-46.38671875,0.0
1676924169.8059294,-18.06640625,-898.4375,-848.6328125,11.71875,0.0
1676924169.8097363,-7.8125,-770.01953125,-733.3984375,23.92578125,0.0
1676924169.813543,-5.37109375,-567.3828125,-500.0,-17.08984375,0.0
1676924169.81735,-9.27734375,-860.3515625,-751.46484375,-32.71484375,0.0
1676924169.821064,-6.8359375,-854.98046875,-792.48046875,11.23046875,0.0
1676924169.824778,4.8828125,-523.4375,-489.74609375,56.15234375,0.0
1676924169.8284924,15.13671875,-383.30078125,-328.125,30.76171875,0.0
1676924169.8322065,16.11328125,-656.25,-575.1953125,-17.578125,0.0
1676924169.8359206,7.8125,-764.6484375,-711.42578125,-5.859375,0.0
1676924169.839635,6.34765625,-723.6328125,-663.57421875,59.08203125,0.0
1676924169.843349,18.06640625,-817.87109375,-690.4296875,50.78125,0.0
1676924169.847063,9.765625,-907.2265625,-838.37890625,0.9765625,0.0
1676924169.8507771,-9.765625,-914.55078125,-905.76171875,10.25390625,0.0
1676924169.8544912,2.9296875,-559.08203125,-537.59765625,49.8046875,0.0
1676924169.8582056,11.71875,-408.69140625,-358.88671875,59.5703125,0.0
1676924169.8619196,10.7421875,-615.234375,-518.5546875,18.5546875,0.0
1676924169.86567,2.44140625,-577.1484375,-504.39453125,0.9765625,0.0
1676924169.86942,10.7421875,-465.33203125,-406.25,46.38671875,0.0
1676924169.8731704,10.7421875,-707.03125,-597.65625,69.3359375,0.0
1676924169.8769207,7.32421875,-868.1640625,-797.8515625,28.80859375,0.0
1676924169.880671,0.9765625,-721.6796875,-690.91796875,-17.578125,0.0
1676924169.8844213,-16.11328125,-739.74609375,-645.5078125,16.11328125,0.0
1676924169.8881714,-10.25390625,-842.28515625,-705.56640625,65.4296875,0.0
1676924169.8919218,-5.37109375,-935.546875,-869.62890625,33.203125,0.0
1676924169.895672,-10.25390625,-775.390625,-782.2265625,-26.85546875,0.0
1676924169.8994222,-14.6484375,-407.71484375,-404.296875,-26.85546875,0.0
1676924169.9031725,-3.41796875,-533.69140625,-494.140625,39.0625,0.0
1676924169.9069228,3.41796875,-745.1171875,-657.2265625,32.2265625,0.0
1676924169.9119215,-25.87890625,-560.546875,-521.484375,-34.1796875,0.0
1676924169.9169202,-32.71484375,-375.9765625,-384.765625,-24.4140625,0.0
1676924169.921919,-24.90234375,-648.4375,-609.86328125,24.4140625,0.0
1676924169.9269178,-24.4140625,-748.53515625,-685.546875,32.2265625,0.0
1676924169.9319165,-25.390625,-552.24609375,-497.55859375,-14.16015625,0.0
1676924169.9369154,-34.1796875,-822.75390625,-726.07421875,-42.48046875,0.0
1676924169.941914,-39.0625,-973.14453125,-909.1796875,13.671875,0.0
1676924169.9469128,-41.50390625,-987.3046875,-991.2109375,42.96875,0.0
1676924169.9519114,-31.25,-674.8046875,-681.640625,-16.6015625,0.0
1676924169.9569101,-34.1796875,-462.40234375,-428.7109375,-72.75390625,0.0
1676924169.961909,-42.96875,-754.8828125,-669.921875,-43.9453125,0.0
1676924169.9669077,-52.24609375,-697.75390625,-650.390625,6.34765625,0.0
1676924169.9694052,-65.4296875,-432.6171875,-439.94140625,-37.59765625,0.0
1676924169.9719026,-75.1953125,-500.9765625,-489.2578125,-81.0546875,0.0
1676924169.9744,-81.0546875,-694.3359375,-643.06640625,-78.125,0.0
1676924169.9768975,-97.16796875,-628.41796875,-595.21484375,-56.640625,0.0
1676924169.979395,-130.859375,-496.58203125,-482.421875,-62.98828125,0.0
1676924169.981892,-135.25390625,-776.3671875,-694.82421875,-110.3515625,0.0
1676924169.9843895,-142.08984375,-913.57421875,-864.74609375,-144.04296875,0.0
1676924169.986887,-185.05859375,-621.09375,-648.92578125,-148.4375,0.0
1676924169.9893844,-205.078125,-499.51171875,-509.27734375,-160.15625,0.0
1676924169.9918818,-224.12109375,-734.86328125,-675.78125,-201.171875,0.0
1676924169.9943793,-245.1171875,-997.55859375,-949.21875,-242.67578125,0.0
1676924169.9968767,-256.8359375,-780.76171875,-778.80859375,-230.46875,0.0
1676924170.0006351,-266.6015625,-415.52734375,-398.4375,-211.42578125,0.0
1676924170.0043933,-270.01953125,-637.6953125,-584.47265625,-249.0234375,0.0
1676924170.0081518,-272.94921875,-879.39453125,-818.84765625,-304.6875,0.0
1676924170.01191,-264.6484375,-577.63671875,-525.390625,-283.203125,0.0
1676924170.0156684,-263.671875,-427.734375,-374.51171875,-188.96484375,0.0
1676924170.0194268,-233.3984375,-754.8828125,-708.0078125,-180.6640625,0.0
1676924170.023185,-228.515625,-942.3828125,-917.96875,-258.7890625,0.0
1676924170.0269434,-244.62890625,-635.25390625,-596.6796875,-282.2265625,0.0
1676924170.0307016,-223.14453125,-418.45703125,-347.65625,-208.984375,0.0
1676924170.03446,-196.77734375,-721.19140625,-656.73828125,-169.43359375,0.0
1676924170.0382183,-173.828125,-833.984375,-804.6875,-187.98828125,0.0
1676924170.0419767,-181.640625,-506.34765625,-477.5390625,-202.63671875,0.0
1676924170.0470028,-175.29296875,-589.84375,-527.83203125,-144.04296875,0.0
1676924170.0520291,-164.0625,-867.67578125,-812.01171875,-92.7734375,0.0
1676924170.0570552,-135.25390625,-776.85546875,-767.08984375,-128.90625,0.0
1676924170.0620813,-122.0703125,-513.671875,-505.37109375,-144.04296875,0.0
1676924170.0671077,-129.39453125,-544.921875,-506.8359375,-83.984375,0.0
1676924170.0721338,-99.12109375,-875.48828125,-803.22265625,-28.80859375,0.0
1676924170.07716,-79.1015625,-885.7421875,-826.171875,-45.8984375,0.0
1676924170.0821862,-57.6171875,-508.7890625,-515.13671875,-83.984375,0.0
1676924170.0872123,-50.29296875,-558.10546875,-531.25,-35.64453125,0.0
1676924170.0922384,-33.203125,-878.41796875,-812.5,38.0859375,0.0
1676924170.0972648,-11.71875,-721.6796875,-706.0546875,30.2734375,0.0
1676924170.1022909,-6.8359375,-462.890625,-457.03125,-3.90625,0.0
1676924170.105984,0.48828125,-681.15234375,-608.88671875,19.53125,0.0
1676924170.1096773,17.578125,-800.78125,-699.21875,83.49609375,0.0
1676924170.1133704,47.36328125,-531.25,-474.12109375,102.05078125,0.0
1676924170.1170635,48.828125,-458.0078125,-391.6015625,62.5,0.0
1676924170.1207566,40.52734375,-733.3984375,-679.19921875,50.78125,0.0
1676924170.1244497,55.17578125,-1000.0,-921.875,99.12109375,0.0
1676924170.128143,71.77734375,-871.58203125,-742.67578125,125.9765625,0.0
1676924170.1318362,77.1484375,-564.453125,-426.7578125,93.26171875,0.0
1676924170.1355293,82.51953125,-738.28125,-649.90234375,72.265625,0.0
1676924170.1392226,61.5234375,-967.28515625,-940.91796875,103.02734375,0.0
1676924170.1429157,59.08203125,-595.21484375,-527.34375,134.765625,0.0
1676924170.1466088,75.68359375,-465.33203125,-357.91015625,121.09375,0.0
1676924170.15038,68.84765625,-681.15234375,-559.08203125,66.89453125,0.0
1676924170.1541512,56.15234375,-646.97265625,-555.17578125,61.5234375,0.0
1676924170.1579223,67.87109375,-535.15625,-469.23828125,122.55859375,0.0
1676924170.1616936,77.1484375,-559.08203125,-503.90625,124.51171875,0.0
1676924170.1654646,69.82421875,-735.83984375,-630.37109375,62.5,0.0
1676924170.1692357,69.3359375,-902.34375,-771.484375,68.359375,0.0
1676924170.173007,68.84765625,-754.8828125,-643.06640625,115.72265625,0.0
1676924170.176778,84.9609375,-630.37109375,-526.3671875,114.74609375,0.0
1676924170.1805494,92.7734375,-943.84765625,-888.671875,101.5625,0.0
1676924170.1843204,75.68359375,-885.25390625,-887.6953125,76.66015625,0.0
1676924170.1880918,74.21875,-427.734375,-424.31640625,108.3984375,0.0
1676924170.1918628,88.37890625,-558.10546875,-487.3046875,152.83203125,0.0
1676924170.1956177,91.796875,-753.90625,-669.43359375,103.515625,0.0
1676924170.1993728,73.2421875,-531.73828125,-524.90234375,60.05859375,0.0
1676924170.2031276,71.2890625,-423.33984375,-409.1796875,83.49609375,0.0
1676924170.2068825,92.7734375,-644.04296875,-580.56640625,133.30078125,0.0
1676924170.2106376,96.19140625,-739.74609375,-663.57421875,110.83984375,0.0
1676924170.2143924,86.9140625,-780.76171875,-704.1015625,63.96484375,0.0
1676924170.2181473,71.2890625,-927.734375,-830.078125,64.453125,0.0
1676924170.2219024,65.4296875,-936.03515625,-873.53515625,110.3515625,0.0
1676924170.2256572,67.87109375,-901.85546875,-889.16015625,101.07421875,0.0
1676924170.229412,70.3125,-571.77734375,-542.48046875,29.78515625,0.0
1676924170.2331672,60.05859375,-454.1015625,-427.24609375,26.3671875,0.0
1676924170.236922,53.22265625,-773.4375,-685.546875,95.21484375,0.0
1676924170.240755,73.2421875,-801.26953125,-695.80078125,115.72265625,0.0
1676924170.244588,80.078125,-468.26171875,-440.91796875,56.640625,0.0
1676924170.248421,64.453125,-479.4921875,-436.03515625,34.1796875,0.0
1676924170.252254,53.22265625,-778.80859375,-730.95703125,77.63671875,0.0
1676924170.256087,60.05859375,-784.66796875,-748.53515625,103.515625,0.0
1676924170.2599201,68.84765625,-766.6015625,-678.22265625,72.265625,0.0
1676924170.263753,54.6875,-859.86328125,-756.34765625,22.94921875,0.0
1676924170.267586,48.33984375,-941.40625,-895.99609375,44.921875,0.0
1676924170.271419,48.33984375,-785.64453125,-768.06640625,91.30859375,0.0
1676924170.2752519,43.45703125,-419.921875,-411.62109375,70.3125,0.0
1676924170.279085,42.96875,-581.0546875,-547.36328125,25.390625,0.0
1676924170.282918,44.921875,-745.60546875,-658.203125,16.11328125,0.0
1676924170.286585,46.38671875,-562.01171875,-511.23046875,65.4296875,0.0
1676924170.2902524,49.8046875,-452.63671875,-434.08203125,59.08203125,0.0
1676924170.2939196,42.96875,-708.0078125,-637.6953125,15.625,0.0
1676924170.2975867,20.01953125,-946.2890625,-836.9140625,12.20703125,0.0
1676924170.301254,35.64453125,-682.12890625,-597.65625,55.6640625,0.0
1676924170.3049212,56.640625,-752.44140625,-642.08984375,80.56640625,0.0
1676924170.3085883,56.640625,-956.0546875,-862.3046875,52.24609375,0.0
1676924170.3122556,71.77734375,-1000.0,-1000.0,25.390625,0.0
1676924170.3159227,63.4765625,-701.171875,-702.63671875,41.015625,0.0
1676924170.3195899,43.45703125,-418.9453125,-417.48046875,79.1015625,0.0
1676924170.3232572,45.8984375,-647.4609375,-599.609375,70.80078125,0.0
1676924170.3269243,48.828125,-634.765625,-591.30859375,33.69140625,0.0
1676924170.3306632,34.1796875,-451.66015625,-458.0078125,43.9453125,0.0
1676924170.334402,20.5078125,-500.48828125,-504.39453125,88.37890625,0.0
1676924170.338141,21.484375,-668.45703125,-643.06640625,63.96484375,0.0
1676924170.3418798,29.296875,-594.7265625,-559.5703125,15.625,0.0
1676924170.3456187,11.71875,-514.6484375,-492.67578125,20.01953125,0.0
1676924170.3493576,0.0,-771.97265625,-698.2421875,73.73046875,0.0
1676924170.3530965,2.44140625,-1000.0,-959.47265625,96.19140625,0.0
1676924170.3568354,-18.5546875,-853.02734375,-837.40234375,34.1796875,0.0
1676924170.3605742,-16.6015625,-471.6796875,-432.6171875,-16.6015625,0.0
1676924170.3643131,1.46484375,-568.84765625,-530.76171875,38.0859375,0.0
1676924170.368052,11.71875,-844.7265625,-731.93359375,83.0078125,0.0
1676924170.371791,14.6484375,-673.33984375,-600.5859375,42.96875,0.0
1676924170.375555,-3.41796875,-436.5234375,-448.73046875,9.27734375,0.0
1676924170.379319,0.9765625,-615.72265625,-580.56640625,41.9921875,0.0
1676924170.3830829,16.11328125,-763.671875,-698.73046875,86.42578125,0.0
1676924170.386847,11.23046875,-516.11328125,-520.5078125,64.94140625,0.0
1676924170.3906112,13.18359375,-491.69921875,-471.6796875,-9.27734375,0.0
1676924170.394375,-12.20703125,-838.37890625,-791.015625,-12.20703125,0.0
1676924170.398139,-20.5078125,-895.99609375,-879.8828125,43.9453125,0.0
1676924170.4019032,8.7890625,-546.38671875,-533.69140625,25.87890625,0.0
1676924170.4056673,6.34765625,-453.61328125,-446.2890625,-38.57421875,0.0
1676924170.4094312,15.13671875,-741.2109375,-733.3984375,-32.71484375,0.0
1676924170.4131951,15.13671875,-1000.0,-974.609375,22.94921875,0.0
1676924170.4169593,12.20703125,-726.5625,-678.7109375,23.92578125,0.0
1676924170.4219563,14.6484375,-515.625,-493.1640625,-19.53125,0.0
1676924170.4269533,4.8828125,-807.6171875,-784.66796875,-28.3203125,0.0
1676924170.4319503,0.9765625,-827.63671875,-792.96875,11.71875,0.0
1676924170.4369473,7.8125,-545.8984375,-518.5546875,23.4375,0.0
1676924170.4419444,5.859375,-536.1328125,-481.93359375,-21.97265625,0.0
1676924170.4469414,-0.9765625,-888.671875,-783.69140625,-58.10546875,0.0
1676924170.4519386,-13.18359375,-900.390625,-824.70703125,-50.78125,0.0
1676924170.4569356,-22.94921875,-541.50390625,-499.0234375,-5.859375,0.0
1676924170.4619327,0.0,-623.53515625,-560.05859375,-6.34765625,0.0
1676924170.4669297,12.20703125,-894.04296875,-863.28125,-48.828125,0.0
1676924170.4719267,-7.8125,-689.94140625,-699.70703125,-49.31640625,0.0
1676924170.4769237,-10.25390625,-392.578125,-381.34765625,-2.9296875,0.0
1676924170.481924,-0.9765625,-615.72265625,-556.15234375,4.39453125,0.0
1676924170.4869246,11.71875,-863.28125,-766.6015625,-25.87890625,0.0
1676924170.491925,4.8828125,-804.19921875,-744.140625,-52.734375,0.0
1676924170.4969256,-4.8828125,-587.890625,-529.296875,-26.3671875,0.0
1676924170.501926,5.859375,-650.390625,-598.6328125,18.06640625,0.0
1676924170.5069265,-7.8125,-1000.0,-974.12109375,-10.25390625,0.0
1676924170.511927,-33.203125,-899.4140625,-837.40234375,-61.03515625,0.0
1676924170.5169272,-14.6484375,-543.9453125,-504.39453125,-25.390625,0.0
1676924170.5219278,2.9296875,-764.16015625,-718.75,29.78515625,0.0
1676924170.5269282,-5.37109375,-936.03515625,-899.4140625,-1.953125,0.0
1676924170.5319288,-17.578125,-569.82421875,-530.2734375,-60.546875,0.0
1676924170.5369291,-23.92578125,-543.45703125,-518.06640625,-47.8515625,0.0
1676924170.5394251,-23.4375,-726.5625,-670.8984375,-9.765625,0.0
1676924170.5419211,-22.94921875,-578.61328125,-534.1796875,-23.92578125,0.0
1676924170.5444171,-4.39453125,-432.6171875,-407.2265625,-55.17578125,0.0
1676924170.5469131,-5.859375,-533.69140625,-501.46484375,-50.78125,0.0
1676924170.5494092,-20.01953125,-782.2265625,-701.66015625,-7.8125,0.0
1676924170.5519052,-9.765625,-921.38671875,-785.15625,14.6484375,0.0
1676924170.554401,-2.9296875,-893.06640625,-778.3203125,-14.6484375,0.0
1676924170.556897,3.90625,-901.85546875,-810.546875,-35.15625,0.0
1676924170.559393,19.53125,-845.703125,-767.578125,-1.46484375,0.0
1676924170.561889,23.92578125,-615.234375,-562.5,30.76171875,0.0
1676924170.564385,36.62109375,-464.35546875,-409.1796875,0.9765625,0.0
1676924170.566881,49.31640625,-613.28125,-528.3203125,-38.0859375,0.0
1676924170.570635,26.3671875,-985.83984375,-951.66015625,6.34765625,0.0
1676924170.574389,20.99609375,-831.0546875,-821.77734375,46.875,0.0
1676924170.5781431,45.8984375,-446.2890625,-412.59765625,10.7421875,0.0
1676924170.5818973,21.97265625,-682.12890625,-635.7421875,-36.62109375,0.0
1676924170.5856514,-8.30078125,-902.83203125,-821.2890625,-17.578125,0.0
1676924170.5894055,3.41796875,-896.97265625,-806.640625,39.0625,0.0
1676924170.5931594,12.20703125,-733.3984375,-652.34375,24.90234375,0.0
1676924170.5969136,0.9765625,-745.60546875,-699.21875,-13.671875,0.0
1676924170.6006677,-10.25390625,-945.80078125,-938.96484375,-11.23046875,0.0
1676924170.6044216,-14.6484375,-768.5546875,-716.30859375,14.16015625,0.0
1676924170.6081758,-10.25390625,-541.015625,-483.3984375,12.20703125,0.0
1676924170.61193,-11.71875,-746.58203125,-731.4453125,-22.4609375,0.0
1676924170.615679,-18.06640625,-772.94921875,-760.25390625,-54.19921875,0.0
1676924170.619428,-3.90625,-454.58984375,-460.9375,-17.08984375,0.0
1676924170.623177,-12.6953125,-486.328125,-461.42578125,47.8515625,0.0
1676924170.626926,-13.18359375,-635.25390625,-568.84765625,18.5546875,0.0
1676924170.630675,-1.46484375,-648.4375,-610.83984375,-41.9921875,0.0
1676924170.6344242,-3.41796875,-759.765625,-688.4765625,-10.25390625,0.0
1676924170.638173,-9.765625,-877.44140625,-731.93359375,50.78125,0.0
1676924170.6419222,-12.6953125,-960.9375,-881.34765625,22.4609375,0.0
1676924170.6456711,-3.90625,-775.390625,-782.2265625,-39.0625,0.0
1676924170.6494203,-10.25390625,-438.4765625,-430.17578125,-32.2265625,0.0
1676924170.6531692,-9.27734375,-582.03125,-537.109375,27.83203125,0.0
1676924170.6569183,0.0,-692.3828125,-615.72265625,20.5078125,0.0
1676924170.6607716,-14.16015625,-666.50390625,-627.9296875,-39.0625,0.0
1676924170.664625,-15.625,-646.484375,-602.05078125,-43.9453125,0.0
1676924170.6684783,-1.953125,-702.63671875,-642.08984375,13.671875,0.0
1676924170.6723316,-0.9765625,-819.82421875,-758.30078125,32.2265625,0.0
1676924170.676185,-0.48828125,-602.5390625,-543.45703125,-16.6015625,0.0
1676924170.680038,-5.37109375,-769.53125,-648.4375,-36.62109375,0.0
1676924170.6838913,-12.6953125,-984.86328125,-875.48828125,15.13671875,0.0
1676924170.6877446,0.9765625,-879.39453125,-863.28125,55.17578125,0.0
1676924170.691598,11.23046875,-526.85546875,-496.58203125,-1.46484375,0.0
1676924170.6954513,-7.8125,-403.3203125,-374.51171875,-47.36328125,0.0
1676924170.6993046,-14.16015625,-669.921875,-588.37890625,-29.296875,0.0
1676924170.703158,4.39453125,-671.38671875,-568.359375,22.4609375,0.0
1676924170.7068052,-4.39453125,-419.921875,-394.04296875,3.90625,0.0
1676924170.7104526,-28.3203125,-487.79296875,-431.15234375,-61.03515625,0.0
1676924170.7141,-31.73828125,-676.26953125,-573.2421875,-72.265625,0.0
1676924170.7177474,-44.43359375,-618.1640625,-569.82421875,-35.15625,0.0
1676924170.7213948,-59.5703125,-672.36328125,-602.5390625,-41.015625,0.0
1676924170.725042,-65.4296875,-842.7734375,-704.1015625,-90.33203125,0.0
1676924170.7286894,-65.91796875,-982.91015625,-916.015625,-102.5390625,0.0
1676924170.7323368,-66.40625,-811.03515625,-811.03515625,-75.68359375,0.0
1676924170.7359843,-80.56640625,-447.75390625,-420.41015625,-55.6640625,0.0
1676924170.7396317,-76.66015625,-602.05078125,-538.0859375,-100.5859375,0.0
1676924170.743279,-87.40234375,-828.61328125,-774.4140625,-138.671875,0.0
1676924170.7469263,-116.69921875,-618.1640625,-596.19140625,-112.3046875,0.0
1676924170.750685,-119.140625,-395.99609375,-384.27734375,-87.890625,0.0
1676924170.7544434,-135.25390625,-645.99609375,-569.82421875,-116.69921875,0.0
1676924170.758202,-151.85546875,-826.171875,-714.35546875,-170.41015625,0.0
1676924170.7619605,-180.17578125,-527.83203125,-497.55859375,-199.21875,0.0
1676924170.7657192,-208.49609375,-467.7734375,-422.8515625,-183.59375,0.0
1676924170.7694778,-208.984375,-820.3125,-754.39453125,-186.03515625,0.0
1676924170.7732363,-220.21484375,-895.01953125,-876.953125,-245.60546875,0.0
1676924170.776995,-269.04296875,-696.77734375,-668.45703125,-299.31640625,0.0
1676924170.7807534,-289.0625,-797.8515625,-710.9375,-279.78515625,0.0
1676924170.784512,-287.109375,-929.6875,-866.2109375,-266.11328125,0.0
1676924170.7882705,-295.41015625,-912.109375,-898.4375,-319.3359375,0.0
1676924170.7920291,-302.24609375,-582.03125,-565.4296875,-354.98046875,0.0
1676924170.7970212,-317.3828125,-480.95703125,-463.37890625,-310.546875,0.0
1676924170.802013,-306.640625,-674.8046875,-611.328125,-290.52734375,0.0
1676924170.807005,-286.1328125,-629.39453125,-565.4296875,-307.6171875,0.0
1676924170.811997,-286.62109375,-495.1171875,-475.5859375,-336.9140625,0.0
1676924170.8169887,-282.71484375,-545.8984375,-510.25390625,-325.1953125,0.0
1676924170.8219807,-280.76171875,-876.46484375,-812.98828125,-255.859375,0.0
1676924170.8269727,-260.7421875,-910.15625,-833.0078125,-264.16015625,0.0
1676924170.8319645,-230.46875,-569.3359375,-542.48046875,-312.98828125,0.0
1676924170.8369565,-227.5390625,-602.05078125,-554.19921875,-296.875,0.0
1676924170.8419485,-236.81640625,-866.2109375,-812.5,-234.375,0.0
1676924170.8469403,-235.3515625,-693.359375,-695.80078125,-223.14453125,0.0
1676924170.8519323,-202.63671875,-618.1640625,-566.40625,-253.90625,0.0
1676924170.8556786,-169.921875,-871.58203125,-793.9453125,-231.4453125,0.0
1676924170.8594248,-155.2734375,-850.09765625,-823.2421875,-159.1796875,0.0
1676924170.863171,-143.5546875,-569.82421875,-546.38671875,-140.13671875,0.0
1676924170.8669174,-128.90625,-450.68359375,-411.1328125,-169.921875,0.0
1676924170.8706636,-105.46875,-702.63671875,-636.23046875,-161.62109375,0.0
1676924170.87441,-93.75,-987.79296875,-857.91015625,-97.65625,0.0
1676924170.8781562,-86.42578125,-787.59765625,-688.96484375,-57.12890625,0.0
1676924170.8819025,-63.4765625,-474.609375,-425.29296875,-91.796875,0.0
1676924170.8856487,-51.26953125,-747.55859375,-707.03125,-98.14453125,0.0
1676924170.889395,-53.22265625,-910.64453125,-893.5546875,-48.828125,0.0
1676924170.8931413,-28.3203125,-510.7421875,-482.91015625,-17.08984375,0.0
1676924170.8968875,-16.11328125,-451.66015625,-407.71484375,-24.90234375,0.0
1676924170.900644,-19.53125,-719.23828125,-645.99609375,-44.43359375,0.0
1676924170.9044003,1.953125,-671.38671875,-603.515625,-28.80859375,0.0
1676924170.9081569,28.80859375,-501.46484375,-458.984375,50.78125,0.0
1676924170.9119132,28.3203125,-711.42578125,-610.83984375,61.5234375,0.0
1676924170.9156697,38.57421875,-909.1796875,-826.66015625,14.16015625,0.0
1676924170.919426,49.31640625,-966.30859375,-890.625,33.203125,0.0
1676924170.9231825,59.08203125,-770.01953125,-656.25,83.49609375,0.0
1676924170.926939,57.12890625,-594.7265625,-493.65234375,94.7265625,0.0
1676924170.9306953,60.05859375,-903.80859375,-843.26171875,78.125,0.0
1676924170.9344518,80.078125,-768.5546875,-748.53515625,55.17578125,0.0
1676924170.938208,78.61328125,-375.0,-356.93359375,70.80078125,0.0
1676924170.9419646,76.66015625,-548.33984375,-478.02734375,113.28125,0.0
1676924170.9457114,83.0078125,-736.81640625,-622.55859375,84.9609375,0.0
1676924170.9494581,104.98046875,-535.64453125,-479.4921875,45.8984375,0.0
1676924170.953205,79.1015625,-405.2734375,-373.046875,59.08203125,0.0
1676924170.9569519,61.5234375,-648.92578125,-570.3125,107.91015625,0.0
1676924170.9606986,75.1953125,-742.67578125,-634.27734375,101.07421875,0.0
1676924170.9644456,63.4765625,-768.06640625,-671.38671875,49.8046875,0.0
1676924170.9681923,57.6171875,-910.15625,-755.37109375,51.7578125,0.0
1676924170.971939,50.29296875,-918.9453125,-812.98828125,96.19140625,0.0
1676924170.9756858,59.08203125,-997.0703125,-994.140625,101.07421875,0.0
1676924170.9794326,63.96484375,-654.78515625,-648.92578125,35.64453125,0.0
1676924170.9831796,54.6875,-447.75390625,-413.57421875,-1.953125,0.0
1676924170.9869263,60.05859375,-709.9609375,-613.76953125,57.12890625,0.0
1676924170.990675,76.66015625,-635.25390625,-553.22265625,97.16796875,0.0
1676924170.9944236,70.80078125,-413.57421875,-379.39453125,50.29296875,0.0
1676924170.9981723,50.29296875,-488.76953125,-445.80078125,26.3671875,0.0
1676924171.001921,56.640625,-685.546875,-614.74609375,51.26953125,0.0
1676924171.0056696,63.4765625,-688.96484375,-606.4453125,95.703125,0.0
1676924171.009418,53.22265625,-763.671875,-667.48046875,67.87109375,0.0
1676924171.0131667,52.24609375,-871.09375,-749.51171875,9.27734375,0.0
1676924171.0169153,56.15234375,-963.37890625,-911.1328125,26.3671875,0.0
1676924171.020664,45.41015625,-743.1640625,-721.6796875,63.4765625,0.0
1676924171.0244126,54.19921875,-429.6875,-365.234375,44.43359375,0.0
1676924171.0281613,62.5,-719.23828125,-625.9765625,11.23046875,0.0
1676924171.03191,35.64453125,-859.86328125,-772.4609375,-5.859375,0.0
1676924171.0357413,46.38671875,-556.640625,-508.30078125,33.203125,0.0
1676924171.039573,60.05859375,-371.58203125,-348.14453125,65.4296875,0.0
1676924171.0434043,51.26953125,-654.78515625,-572.265625,11.71875,0.0
1676924171.047236,45.41015625,-776.3671875,-679.19921875,-21.97265625,0.0
1676924171.0510674,47.36328125,-471.19140625,-419.43359375,29.296875,0.0
1676924171.0548987,41.50390625,-684.5703125,-546.875,63.96484375,0.0
1676924171.0587304,38.0859375,-966.30859375,-842.28515625,38.57421875,0.0
1676924171.0625618,41.50390625,-920.8984375,-912.59765625,-3.41796875,0.0
1676924171.0663934,38.57421875,-615.72265625,-612.3046875,16.11328125,0.0
1676924171.0702248,56.15234375,-444.3359375,-414.0625,75.1953125,0.0
1676924171.0740564,67.87109375,-658.69140625,-577.63671875,54.6875,0.0
1676924171.0778878,40.52734375,-667.48046875,-612.79296875,-12.20703125,0.0
1676924171.0815537,25.390625,-480.95703125,-465.8203125,-15.625,0.0
1676924171.0852199,32.71484375,-587.890625,-506.8359375,48.828125,0.0
1676924171.0888858,42.96875,-836.42578125,-761.23046875,51.7578125,0.0
1676924171.092552,34.66796875,-658.69140625,-643.5546875,2.44140625,0.0
1676924171.0962179,30.2734375,-484.375,-450.1953125,-11.23046875,0.0
1676924171.099884,20.01953125,-753.41796875,-625.9765625,40.52734375,0.0
1676924171.10355,18.5546875,-982.421875,-895.99609375,64.453125,0.0
1676924171.107216,18.06640625,-851.5625,-853.515625,11.23046875,0.0
1676924171.110882,18.5546875,-455.56640625,-439.453125,-45.8984375,0.0
1676924171.114548,19.04296875,-522.4609375,-486.81640625,-8.30078125,0.0
1676924171.1182141,17.578125,-673.828125,-606.4453125,49.8046875,0.0
1676924171.12188,12.20703125,-521.484375,-478.515625,19.53125,0.0
1676924171.1256332,-11.23046875,-427.24609375,-417.48046875,-37.59765625,0.0
1676924171.1293867,2.9296875,-621.58203125,-546.38671875,-27.83203125,0.0
1676924171.1331398,24.90234375,-750.0,-633.30078125,23.4375,0.0
1676924171.136893,40.0390625,-516.11328125,-445.3125,15.625,0.0
1676924171.1406465,40.0390625,-532.2265625,-452.1484375,-32.2265625,0.0
1676924171.1443996,13.671875,-843.26171875,-782.2265625,-19.53125,0.0
1676924171.1481528,22.94921875,-1000.0,-981.4453125,36.1328125,0.0
1676924171.1519063,39.55078125,-825.1953125,-731.4453125,40.0390625,0.0
1676924171.1556594,20.99609375,-529.78515625,-481.4453125,-17.578125,0.0
1676924171.1594126,2.44140625,-780.76171875,-768.5546875,-35.64453125,0.0
1676924171.163166,9.765625,-900.390625,-872.55859375,20.99609375,0.0
1676924171.1669192,-3.41796875,-487.79296875,-447.75390625,26.3671875,0.0
1676924171.1719131,-4.8828125,-423.828125,-409.1796875,-24.90234375,0.0
1676924171.176907,-1.46484375,-705.078125,-630.37109375,-55.6640625,0.0
1676924171.181901,-2.9296875,-707.03125,-613.76953125,-25.390625,0.0
1676924171.1868951,6.34765625,-467.28515625,-443.84765625,12.20703125,0.0
1676924171.191889,19.53125,-477.5390625,-431.15234375,-17.08984375,0.0
1676924171.196883,10.25390625,-869.140625,-772.94921875,-54.6875,0.0
1676924171.2018769,-8.30078125,-908.69140625,-810.546875,-38.0859375,0.0
1676924171.2068708,11.23046875,-547.8515625,-462.40234375,4.8828125,0.0
1676924171.211865,23.92578125,-601.5625,-455.078125,-0.9765625,0.0
1676924171.2168589,13.18359375,-937.98828125,-844.23828125,-25.390625,0.0
1676924171.2218528,10.25390625,-909.66796875,-875.48828125,-27.34375,0.0
1676924171.2268467,4.39453125,-516.11328125,-422.8515625,4.8828125,0.0
1676924171.2306037,16.11328125,-563.96484375,-399.4140625,26.85546875,0.0
1676924171.234361,18.5546875,-715.33203125,-512.6953125,1.46484375,0.0
1676924171.2381182,1.46484375,-520.99609375,-382.8125,-39.0625,0.0
1676924171.2418752,9.27734375,-416.9921875,-287.109375,-7.8125,0.0
1676924171.2456322,16.11328125,-607.421875,-416.50390625,31.73828125,0.0
1676924171.2493894,8.7890625,-943.359375,-682.6171875,-10.25390625,0.0
1676924171.2531466,-0.48828125,-792.96875,-631.34765625,-59.08203125,0.0
1676924171.2569036,0.9765625,-459.47265625,-352.5390625,-39.0625,0.0
1676924171.2606606,10.25390625,-710.9375,-601.07421875,17.08984375,0.0
1676924171.264418,14.16015625,-906.25,-852.05078125,0.9765625,0.0
1676924171.2681751,15.13671875,-550.78125,-464.84375,-64.453125,0.0
1676924171.2719321,8.7890625,-479.4921875,-380.37109375,-54.6875,0.0
1676924171.2757761,7.32421875,-760.25390625,-604.00390625,17.08984375,0.0
1676924171.2796204,19.53125,-757.32421875,-577.1484375,7.32421875,0.0
1676924171.2834644,3.41796875,-436.5234375,-306.15234375,-46.875,0.0
1676924171.2873087,-10.25390625,-427.24609375,-321.77734375,-50.78125,0.0
1676924171.2911527,-10.25390625,-755.37109375,-622.0703125,0.0,0.0
1676924171.2949967,-5.859375,-970.21484375,-792.96875,16.6015625,0.0
1676924171.298841,-1.46484375,-725.09765625,-568.359375,-41.50390625,0.0
1676924171.302685,-9.27734375,-564.453125,-412.59765625,-68.84765625,0.0
1676924171.3065293,-17.578125,-872.0703125,-765.13671875,-9.765625,0.0
1676924171.3103733,-22.4609375,-770.99609375,-717.28515625,27.83203125,0.0
1676924171.3142176,-6.34765625,-361.328125,-313.96484375,-3.90625,0.0
1676924171.3180616,-2.44140625,-536.62109375,-445.80078125,-35.64453125,0.0
1676924171.3217125,-11.71875,-693.359375,-566.89453125,-20.01953125,0.0
1676924171.3253636,-14.16015625,-466.30859375,-374.51171875,26.3671875,0.0
1676924171.3290145,-4.39453125,-384.27734375,-289.0625,16.6015625,0.0
1676924171.3326654,-5.37109375,-667.48046875,-523.92578125,-26.3671875,0.0
1676924171.3363163,-6.8359375,-917.48046875,-741.2109375,-24.90234375,0.0
1676924171.3399673,-3.90625,-881.8359375,-720.21484375,18.5546875,0.0
1676924171.3436184,-3.90625,-745.1171875,-587.40234375,6.8359375,0.0
1676924171.3472693,-13.671875,-756.8359375,-677.734375,-33.203125,0.0
1676924171.3509202,-21.97265625,-1000.0,-997.0703125,-38.0859375,0.0
1676924171.3545713,-16.11328125,-670.8984375,-623.53515625,-9.765625,0.0
1676924171.3582222,-19.53125,-383.30078125,-300.78125,1.46484375,0.0
1676924171.3618731,-21.97265625,-617.1875,-518.06640625,-42.48046875,0.0
1676924171.3656313,-16.6015625,-624.51171875,-557.6171875,-61.5234375,0.0
1676924171.3693895,-14.16015625,-484.86328125,-439.94140625,-21.484375,0.0
1676924171.373148,-9.27734375,-546.38671875,-476.07421875,8.30078125,0.0
1676924171.3769062,-14.16015625,-652.34375,-560.546875,-20.99609375,0.0
1676924171.3806643,-20.99609375,-631.34765625,-537.109375,-54.6875,0.0
1676924171.3844225,-11.23046875,-727.05078125,-611.328125,-29.296875,0.0
1676924171.3881807,-23.92578125,-869.62890625,-704.58984375,6.8359375,0.0
1676924171.391939,-25.87890625,-975.09765625,-887.20703125,-1.46484375,0.0
1676924171.395697,-23.92578125,-865.234375,-812.5,-59.08203125,0.0
1676924171.3994555,-32.2265625,-451.66015625,-404.296875,-68.359375,0.0
1676924171.4032137,-5.859375,-513.18359375,-473.6328125,11.23046875,0.0
1676924171.406972,28.80859375,-795.8984375,-720.703125,45.8984375,0.0
1676924171.4107184,-3.90625,-639.6484375,-631.34765625,-38.0859375,0.0
1676924171.414465,-56.640625,-407.71484375,-422.8515625,-98.14453125,0.0
1676924171.4182115,-57.12890625,-635.7421875,-565.4296875,-35.64453125,0.0
1676924171.4219577,-47.36328125,-720.21484375,-622.55859375,-2.9296875,0.0
1676924171.4257042,-48.33984375,-573.73046875,-512.20703125,-42.48046875,0.0
1676924171.4294508,-50.29296875,-812.98828125,-694.3359375,-76.66015625,0.0
1676924171.4331973,-53.7109375,-952.1484375,-866.69921875,-43.45703125,0.0
1676924171.4369438,-36.62109375,-900.87890625,-894.04296875,-2.44140625,0.0
1676924171.44069,-23.4375,-562.98828125,-552.24609375,-35.64453125,0.0
1676924171.4444366,-21.97265625,-416.015625,-425.29296875,-71.2890625,0.0
1676924171.448183,-31.25,-714.35546875,-656.25,-67.87109375,0.0
1676924171.4519296,-37.59765625,-905.76171875,-767.08984375,-10.25390625,0.0
1676924171.4557729,-22.4609375,-645.01953125,-579.1015625,-13.18359375,0.0
1676924171.4596162,-12.20703125,-489.74609375,-480.95703125,-57.12890625,0.0
1676924171.4634595,-13.671875,-779.296875,-737.3046875,-45.41015625,0.0
1676924171.4673028,-5.37109375,-749.0234375,-716.30859375,0.48828125,0.0
1676924171.471146,-5.37109375,-495.1171875,-475.5859375,-1.953125,0.0
1676924171.4749894,-17.08984375,-712.890625,-617.67578125,-47.8515625,0.0
1676924171.4788327,-16.6015625,-982.421875,-922.36328125,-37.59765625,0.0
1676924171.482676,-6.8359375,-772.4609375,-786.62109375,5.859375,0.0
1676924171.4865193,-11.23046875,-439.453125,-424.31640625,7.8125,0.0
1676924171.4903626,-8.30078125,-612.79296875,-546.875,-28.80859375,0.0
1676924171.494206,-2.9296875,-756.8359375,-667.48046875,-72.75390625,0.0
1676924171.4980493,0.9765625,-526.3671875,-489.74609375,-40.52734375,0.0
1676924171.5017102,6.34765625,-393.5546875,-370.1171875,19.53125,0.0
1676924171.5053713,-0.48828125,-631.34765625,-544.43359375,-4.39453125,0.0
1676924171.5090322,6.34765625,-913.0859375,-789.0625,-36.1328125,0.0
1676924171.5126932,9.765625,-745.1171875,-659.66796875,-21.97265625,0.0
1676924171.5163543,6.8359375,-552.734375,-464.84375,-0.9765625,0.0
1676924171.5200152,-1.46484375,-795.8984375,-713.8671875,12.20703125,0.0
1676924171.5236762,-5.37109375,-1000.0,-1000.0,-35.64453125,0.0
1676924171.5273373,-15.13671875,-729.00390625,-716.796875,-69.3359375,0.0
1676924171.5309982,-16.6015625,-392.578125,-355.95703125,-28.80859375,0.0
1676924171.5346591,-0.9765625,-627.9296875,-530.76171875,-11.71875,0.0
1676924171.5383203,-3.90625,-682.6171875,-574.21875,-59.08203125,0.0
1676924171.5419812,-32.2265625,-438.96484375,-402.34375,-95.703125,0.0
1676924171.5469759,-39.0625,-485.83984375,-437.01171875,-46.875,0.0
1676924171.5519707,-8.7890625,-709.9609375,-609.86328125,-22.4609375,0.0
1676924171.5569654,-3.90625,-623.53515625,-527.83203125,-68.359375,0.0
1676924171.5619602,-20.01953125,-457.51953125,-353.02734375,-106.93359375,0.0
1676924171.5669549,-27.34375,-549.31640625,-386.71875,-88.37890625,0.0
1676924171.5719495,-15.13671875,-853.02734375,-700.1953125,-25.87890625,0.0
1676924171.5769444,-11.23046875,-1000.0,-848.14453125,-31.25,0.0
1676924171.581939,-32.71484375,-771.97265625,-632.8125,-93.26171875,0.0
1676924171.5869339,-49.8046875,-600.5859375,-494.140625,-83.49609375,0.0
1676924171.5919285,-31.73828125,-906.25,-844.23828125,-5.37109375,0.0
1676924171.5969234,-22.94921875,-853.02734375,-832.51953125,6.8359375,0.0
1676924171.601918,-27.34375,-444.82421875,-395.5078125,-52.24609375,0.0
1676924171.6056778,-34.1796875,-595.21484375,-511.23046875,-75.68359375,0.0
1676924171.6094377,-16.6015625,-754.39453125,-637.6953125,-34.66796875,0.0
1676924171.6131973,9.27734375,-520.01953125,-446.77734375,-7.8125,0.0
1676924171.6169572,1.46484375,-444.3359375,-402.83203125,-45.41015625,0.0
1676924171.620717,-10.25390625,-704.1015625,-626.46484375,-68.84765625,0.0
1676924171.624477,-19.04296875,-1000.0,-864.74609375,-33.203125,0.0
1676924171.6282368,-19.04296875,-813.4765625,-688.4765625,-4.39453125,0.0
1676924171.6319966,-28.3203125,-502.44140625,-426.7578125,-33.69140625,0.0
1676924171.6357565,-21.97265625,-742.1875,-684.08203125,-48.33984375,0.0
1676924171.639516,-7.32421875,-964.35546875,-957.51953125,-29.296875,0.0
1676924171.643276,-9.27734375,-859.86328125,-814.453125,12.6953125,0.0
1676924171.6470358,-18.06640625,-642.08984375,-596.19140625,2.44140625,0.0
1676924171.6507816,-5.37109375,-723.14453125,-699.70703125,-50.78125,0.0
1676924171.6545272,-3.41796875,-729.00390625,-678.22265625,-33.69140625,0.0
1676924171.658273,-3.90625,-478.515625,-435.05859375,2.44140625,0.0
1676924171.6620188,-2.44140625,-529.296875,-481.93359375,-2.9296875,0.0
1676924171.6657643,20.5078125,-798.828125,-750.0,-37.59765625,0.0
1676924171.6695101,23.4375,-1000.0,-943.84765625,-62.5,0.0
1676924171.673256,-8.7890625,-755.37109375,-660.64453125,-37.109375,0.0
1676924171.6770015,-10.25390625,-574.21875,-491.69921875,-0.48828125,0.0
1676924171.6807473,6.34765625,-904.78515625,-836.42578125,-28.80859375,0.0
1676924171.684493,0.9765625,-821.77734375,-800.29296875,-86.42578125,0.0
1676924171.6882386,0.9765625,-422.8515625,-408.203125,-68.359375,0.0
1676924171.6919844,3.90625,-556.15234375,-485.3515625,-18.5546875,0.0
1676924171.69573,-5.37109375,-732.421875,-615.234375,-33.69140625,0.0
1676924171.6994753,0.9765625,-712.890625,-632.32421875,-84.47265625,0.0
1676924171.7032208,7.8125,-676.26953125,-594.23828125,-73.73046875,0.0
1676924171.7069664,-0.9765625,-706.54296875,-625.0,-5.37109375,0.0
1676924171.710712,-7.8125,-821.2890625,-754.39453125,-4.8828125,0.0
1676924171.7144575,-17.578125,-814.94140625,-714.35546875,-74.21875,0.0
1676924171.7182028,-23.92578125,-771.484375,-679.19921875,-83.49609375,0.0
1676924171.7219484,-18.5546875,-785.15625,-756.8359375,-29.78515625,0.0
1676924171.725694,-21.484375,-888.671875,-866.69921875,-6.8359375,0.0
1676924171.7294393,-14.6484375,-550.78125,-537.109375,-71.2890625,0.0
1676924171.7331848,-37.59765625,-485.83984375,-470.703125,-108.88671875,0.0
1676924171.7369304,-40.52734375,-757.8125,-648.92578125,-56.15234375,0.0
1676924171.7406805,-21.97265625,-689.453125,-576.66015625,-11.23046875,0.0
1676924171.7444305,-29.296875,-427.24609375,-388.18359375,-44.921875,0.0
1676924171.7481809,-30.2734375,-530.76171875,-475.5859375,-75.1953125,0.0
1676924171.751931,-23.4375,-743.1640625,-661.62109375,-29.296875,0.0
1676924171.755681,-17.08984375,-676.7578125,-597.16796875,17.578125,0.0
1676924171.7594314,-21.484375,-741.2109375,-632.32421875,-9.27734375,0.0
1676924171.7631814,-33.69140625,-881.8359375,-729.00390625,-47.8515625,0.0
1676924171.7669315,-13.18359375,-970.703125,-903.80859375,-36.1328125,0.0
1676924171.7706816,-18.5546875,-885.25390625,-871.58203125,-1.953125,0.0
1676924171.7744317,-36.62109375,-528.80859375,-473.14453125,-5.859375,0.0
1676924171.778182,-12.20703125,-608.3984375,-545.8984375,-43.45703125,0.0
1676924171.781932,-20.5078125,-739.2578125,-655.76171875,-74.70703125,0.0
1676924171.7856827,-33.203125,-537.59765625,-469.23828125,-35.64453125,0.0
1676924171.7894335,-23.4375,-391.11328125,-355.46875,4.39453125,0.0
1676924171.793184,-19.53125,-666.015625,-583.0078125,-45.8984375,0.0
1676924171.7969346,-27.34375,-833.49609375,-737.79296875,-74.70703125,0.0
1676924171.8006852,-36.1328125,-576.171875,-530.2734375,-43.45703125,0.0
1676924171.8044357,-25.390625,-741.2109375,-607.91015625,-15.13671875,0.0
1676924171.8081865,-15.13671875,-964.35546875,-846.19140625,-17.08984375,0.0
1676924171.811937,-18.5546875,-899.4140625,-885.7421875,-35.64453125,0.0
1676924171.8156877,-19.04296875,-667.96875,-607.91015625,-32.71484375,0.0
1676924171.8194385,-9.27734375,-698.2421875,-552.24609375,26.3671875,0.0
1676924171.823189,-12.6953125,-903.80859375,-809.08203125,20.99609375,0.0
1676924171.8269396,-21.484375,-770.01953125,-783.69140625,-44.921875,0.0
1676924171.830685,-27.34375,-426.7578125,-423.33984375,-34.1796875,0.0
1676924171.8344302,-30.2734375,-478.515625,-441.40625,20.5078125,0.0
1676924171.8381753,-21.97265625,-685.546875,-593.75,24.90234375,0.0
1676924171.8419206,-29.296875,-556.640625,-467.7734375,-20.5078125,0.0
1676924171.845666,-32.71484375,-541.015625,-486.81640625,-31.25,0.0
1676924171.849411,-34.66796875,-805.17578125,-711.9140625,19.04296875,0.0
1676924171.8531563,-31.25,-968.26171875,-903.80859375,53.7109375,0.0
1676924171.8569016,-30.76171875,-787.59765625,-760.25390625,4.8828125,0.0
1676924171.860647,-43.45703125,-398.92578125,-386.71875,-40.0390625,0.0
1676924171.8643923,-43.9453125,-529.296875,-488.76953125,-6.34765625,0.0
1676924171.8681374,-33.69140625,-689.453125,-598.6328125,29.296875,0.0
1676924171.8718827,-29.78515625,-508.7890625,-478.515625,-0.48828125,0.0
1676924171.8757043,-34.66796875,-628.41796875,-580.078125,-50.78125,0.0
1676924171.8795257,-27.34375,-876.953125,-786.62109375,-33.203125,0.0
1676924171.8833473,-22.94921875,-826.66015625,-778.3203125,13.671875,0.0
1676924171.887169,-25.87890625,-496.58203125,-467.28515625,-1.46484375,0.0
1676924171.8909905,-17.578125,-460.44921875,-428.22265625,-47.36328125,0.0
1676924171.894812,-20.99609375,-850.09765625,-804.19921875,-46.38671875,0.0
1676924171.8986335,-10.7421875,-886.23046875,-854.00390625,14.16015625,0.0
1676924171.902455,-1.46484375,-511.71875,-482.421875,10.25390625,0.0
1676924171.9062767,-22.4609375,-377.9296875,-358.3984375,-58.59375,0.0
1676924171.910098,-30.2734375,-735.83984375,-707.51953125,-83.984375,0.0
1676924171.9139197,-23.92578125,-847.16796875,-828.61328125,-47.8515625,0.0
1676924171.9177413,-11.23046875,-465.8203125,-440.4296875,-22.4609375,0.0
1676924171.9226742,-16.11328125,-442.87109375,-435.546875,-54.19921875,0.0
1676924171.927607,-15.13671875,-673.828125,-637.20703125,-100.09765625,0.0
1676924171.9325402,-16.11328125,-635.25390625,-580.078125,-66.89453125,0.0
1676924171.937473,-15.13671875,-577.1484375,-543.9453125,3.90625,0.0
1676924171.942406,-5.859375,-779.78515625,-680.6640625,-32.71484375,0.0
1676924171.947339,-6.34765625,-969.23828125,-900.390625,-64.94140625,0.0
1676924171.952272,-17.08984375,-882.32421875,-875.48828125,-42.96875,0.0
1676924171.9572048,-32.71484375,-466.30859375,-436.5234375,-24.4140625,0.0
1676924171.9621377,-22.4609375,-502.44140625,-434.5703125,-21.484375,0.0
1676924171.9670706,-17.08984375,-814.94140625,-753.41796875,-73.2421875,0.0
1676924171.9720037,-17.08984375,-630.37109375,-630.37109375,-83.0078125,0.0
1676924171.9769366,-13.671875,-379.8828125,-370.1171875,-30.2734375,0.0
1676924171.980686,-24.4140625,-599.609375,-531.73828125,-25.87890625,0.0
1676924171.9844356,-33.203125,-773.4375,-688.96484375,-79.1015625,0.0
1676924171.988185,-23.92578125,-570.3125,-544.921875,-110.3515625,0.0
1676924171.9919345,-41.50390625,-454.1015625,-434.08203125,-88.37890625,0.0
1676924171.995684,-45.41015625,-656.25,-583.0078125,-62.98828125,0.0
1676924171.9994335,-53.7109375,-992.67578125,-854.00390625,-110.3515625,0.0
1676924172.003183,-96.19140625,-821.2890625,-730.46875,-164.0625,0.0
1676924172.0069323,-106.93359375,-689.94140625,-635.25390625,-151.3671875,0.0
1676924172.0106819,-108.88671875,-921.38671875,-860.83984375,-105.95703125,0.0
1676924172.0144312,-128.90625,-995.1171875,-981.4453125,-125.9765625,0.0
1676924172.0181808,-159.1796875,-606.93359375,-606.93359375,-216.796875,0.0
1676924172.0219302,-181.640625,-397.94921875,-394.53125,-239.2578125,0.0
1676924172.0256588,-190.4296875,-643.06640625,-569.3359375,-189.94140625,0.0
1676924172.0293872,-209.9609375,-561.03515625,-511.71875,-222.16796875,0.0
1676924172.0331159,-237.3046875,-414.55078125,-409.66796875,-305.17578125,0.0
1676924172.0368443,-254.39453125,-507.32421875,-478.02734375,-332.51953125,0.0
1676924172.040573,-290.0390625,-720.703125,-673.33984375,-308.59375,0.0
1676924172.0443015,-292.48046875,-926.26953125,-833.984375,-293.45703125,0.0
1676924172.04803,-300.29296875,-791.9921875,-717.28515625,-343.75,0.0
1676924172.0517585,-324.70703125,-630.859375,-583.984375,-381.34765625,0.0
1676924172.055487,-316.40625,-911.62109375,-864.74609375,-319.82421875,0.0
1676924172.0592155,-296.875,-759.27734375,-768.06640625,-275.87890625,0.0
1676924172.062944,-289.0625,-544.43359375,-518.5546875,-320.80078125,0.0
1676924172.0666726,-291.50390625,-836.9140625,-755.859375,-334.9609375,0.0
1676924172.0704439,-265.13671875,-839.84375,-812.98828125,-285.15625,0.0
1676924172.074215,-249.51171875,-570.80078125,-586.9140625,-245.1171875,0.0
1676924172.0779862,-245.1171875,-396.97265625,-397.4609375,-241.69921875,0.0
1676924172.0817575,-218.26171875,-640.625,-588.8671875,-256.8359375,0.0
1676924172.0855286,-203.61328125,-786.1328125,-740.72265625,-239.2578125,0.0
1676924172.0893,-174.31640625,-738.28125,-684.08203125,-141.6015625,0.0
1676924172.0930712,-140.625,-673.828125,-576.66015625,-126.46484375,0.0
1676924172.0968423,-117.67578125,-733.88671875,-686.03515625,-176.7578125,0.0
1676924172.1006136,-103.515625,-923.33984375,-912.109375,-150.390625,0.0
1676924172.104385,-96.6796875,-555.17578125,-553.7109375,-102.05078125,0.0
1676924172.108156,-64.94140625,-375.48828125,-360.3515625,-74.21875,0.0
1676924172.1119273,-37.59765625,-668.9453125,-590.33203125,-81.0546875,0.0
1676924172.1156774,-13.671875,-677.734375,-624.0234375,-89.84375,0.0
1676924172.1194274,-3.41796875,-402.34375,-404.78515625,-54.6875,0.0
1676924172.1231775,-7.32421875,-562.01171875,-502.9296875,-2.44140625,0.0
1676924172.1269276,15.13671875,-849.12109375,-794.43359375,2.44140625,0.0
1676924172.1306777,33.69140625,-669.43359375,-644.53125,-33.203125,0.0
1676924172.1344275,22.94921875,-645.99609375,-569.82421875,-11.71875,0.0
1676924172.1381776,28.3203125,-800.78125,-680.17578125,46.875,0.0
1676924172.1419277,52.24609375,-925.29296875,-852.5390625,41.015625,0.0
1676924172.1456778,61.5234375,-815.91796875,-818.84765625,-9.27734375,0.0
1676924172.149428,69.3359375,-438.4765625,-454.58984375,-12.6953125,0.0
1676924172.153178,75.1953125,-528.3203125,-502.44140625,54.6875,0.0
1676924172.156928,83.49609375,-696.77734375,-635.7421875,63.4765625,0.0
1676924172.1606748,91.796875,-569.3359375,-576.66015625,22.94921875,0.0
1676924172.1644216,100.5859375,-448.73046875,-495.60546875,5.859375,0.0
1676924172.168168,101.07421875,-642.578125,-610.3515625,56.640625,0.0
1676924172.1719148,96.6796875,-735.83984375,-661.1328125,98.14453125,0.0
1676924172.1756616,86.42578125,-510.7421875,-493.65234375,60.05859375,0.0
1676924172.1794083,67.3828125,-754.39453125,-665.52734375,34.1796875,0.0
1676924172.183155,87.890625,-980.95703125,-895.5078125,72.265625,0.0
1676924172.1869018,100.09765625,-996.09375,-996.58203125,115.72265625,0.0
1676924172.1906486,89.35546875,-687.5,-679.6875,79.1015625,0.0
1676924172.194395,96.6796875,-355.95703125,-336.42578125,34.1796875,0.0
1676924172.1981418,92.28515625,-645.01953125,-572.75390625,43.9453125,0.0
1676924172.2018886,83.0078125,-683.10546875,-623.53515625,92.28515625,0.0
1676924172.2056425,82.51953125,-392.08984375,-378.41796875,92.7734375,0.0
1676924172.2093961,85.44921875,-457.51953125,-446.77734375,40.52734375,0.0
1676924172.21315,71.77734375,-673.828125,-629.39453125,22.4609375,0.0
1676924172.216904,61.03515625,-587.890625,-532.2265625,63.4765625,0.0
1676924172.2206576,70.3125,-501.46484375,-454.1015625,88.8671875,0.0
1676924172.2244115,76.171875,-727.5390625,-620.1171875,60.05859375,0.0
1676924172.2281654,65.91796875,-972.65625,-915.0390625,31.25,0.0
1676924172.231919,56.15234375,-785.15625,-796.875,49.31640625,0.0
1676924172.235673,55.6640625,-412.109375,-395.99609375,77.63671875,0.0
1676924172.2394269,51.7578125,-611.81640625,-558.10546875,48.828125,0.0
1676924172.2431805,53.22265625,-810.546875,-741.69921875,21.484375,0.0
1676924172.2469344,65.4296875,-559.08203125,-548.828125,48.33984375,0.0
1676924172.2507133,68.84765625,-362.3046875,-362.79296875,84.9609375,0.0
1676924172.2544923,69.3359375,-589.35546875,-539.55078125,61.5234375,0.0
1676924172.258271,65.91796875,-844.7265625,-763.671875,13.671875,0.0
1676924172.26205,49.31640625,-540.0390625,-513.671875,1.46484375,0.0
1676924172.2658288,51.26953125,-586.9140625,-518.06640625,41.9921875,0.0
1676924172.2696075,46.38671875,-962.40234375,-860.3515625,61.5234375,0.0
1676924172.2733865,48.33984375,-926.26953125,-916.50390625,25.390625,0.0
1676924172.2771654,46.38671875,-614.74609375,-614.2578125,-4.39453125,0.0
1676924172.2809443,42.48046875,-457.51953125,-474.609375,33.203125,0.0
1676924172.2847233,64.453125,-661.62109375,-598.14453125,52.24609375,0.0
1676924172.288502,50.29296875,-696.2890625,-619.140625,3.90625,0.0
1676924172.292281,32.2265625,-465.8203125,-442.3828125,-22.94921875,0.0
1676924172.2973378,54.6875,-468.75,-437.01171875,20.99609375,0.0
1676924172.3023946,45.41015625,-783.203125,-703.125,51.26953125,0.0
1676924172.3074515,25.87890625,-764.6484375,-650.390625,8.7890625,0.0
1676924172.3125083,26.3671875,-486.328125,-448.2421875,-45.8984375,0.0
1676924172.3175652,28.80859375,-533.69140625,-497.0703125,-24.4140625,0.0
1676924172.3226218,34.66796875,-874.0234375,-829.58984375,42.48046875,0.0
1676924172.3276787,49.31640625,-898.92578125,-868.65234375,20.01953125,0.0
1676924172.3327355,56.15234375,-492.1875,-446.2890625,-28.80859375,0.0
1676924172.3377924,38.0859375,-560.546875,-529.78515625,-25.390625,0.0
1676924172.3428493,42.48046875,-822.75390625,-796.875,32.71484375,0.0
1676924172.347906,58.10546875,-648.92578125,-632.32421875,42.48046875,0.0
1676924172.352963,42.96875,-486.328125,-480.46875,-14.6484375,0.0
1676924172.3566234,20.01953125,-681.15234375,-641.11328125,-40.52734375,0.0
1676924172.3602839,34.66796875,-773.4375,-686.03515625,3.90625,0.0
1676924172.3639443,38.0859375,-545.8984375,-529.78515625,42.48046875,0.0
1676924172.3676047,33.203125,-428.22265625,-437.01171875,-3.41796875,0.0
1676924172.3712652,23.92578125,-687.5,-652.34375,-41.9921875,0.0
1676924172.3749256,11.23046875,-990.72265625,-905.76171875,-4.8828125,0.0
1676924172.3785858,20.01953125,-951.66015625,-854.00390625,34.1796875,0.0
1676924172.3822463,33.203125,-732.421875,-652.83203125,-4.8828125,0.0
1676924172.3859067,19.53125,-770.99609375,-742.67578125,-48.33984375,0.0
1676924172.3895671,15.625,-1000.0,-1000.0,-20.99609375,0.0
1676924172.3932276,22.94921875,-684.5703125,-666.015625,15.13671875,0.0
1676924172.396888,25.390625,-430.6640625,-376.953125,12.20703125,0.0
1676924172.4006388,23.92578125,-652.34375,-556.640625,-29.78515625,0.0
1676924172.4043896,5.859375,-632.8125,-575.1953125,-41.50390625,0.0
1676924172.4081404,16.11328125,-478.515625,-440.91796875,7.8125,0.0
1676924172.4118912,20.99609375,-530.2734375,-483.88671875,21.97265625,0.0
1676924172.415642,13.18359375,-703.125,-632.8125,-12.6953125,0.0
1676924172.4193926,10.7421875,-906.73828125,-813.96484375,-41.9921875,0.0
1676924172.4231434,8.7890625,-762.6953125,-674.31640625,-27.34375,0.0
1676924172.4268942,20.99609375,-561.03515625,-464.35546875,16.6015625,0.0
1676924172.430645,9.27734375,-905.76171875,-844.7265625,9.765625,0.0
1676924172.4343958,-4.8828125,-876.953125,-884.765625,-19.04296875,0.0
1676924172.4381466,4.39453125,-439.453125,-416.9921875,-13.18359375,0.0
1676924172.4418974,11.23046875,-596.19140625,-533.203125,30.76171875,0.0
1676924172.4456809,9.27734375,-822.265625,-753.41796875,12.6953125,0.0
1676924172.449464,16.6015625,-608.88671875,-590.33203125,-51.7578125,0.0
1676924172.4532475,11.23046875,-437.98828125,-456.0546875,-41.9921875,0.0
1676924172.457031,28.80859375,-634.27734375,-597.65625,21.97265625,0.0
1676924172.4608142,21.484375,-764.16015625,-703.61328125,17.578125,0.0
1676924172.4645977,-7.8125,-801.26953125,-744.62890625,-41.9921875,0.0
1676924172.4683812,-9.765625,-810.05859375,-748.046875,-65.91796875,0.0
1676924172.4721644,-24.90234375,-814.453125,-787.59765625,-13.671875,0.0
1676924172.4759479,0.9765625,-819.82421875,-797.8515625,8.7890625,0.0
1676924172.4797313,2.9296875,-464.84375,-466.30859375,-33.203125,0.0
1676924172.4835145,-24.90234375,-554.6875,-542.96875,-68.359375,0.0
1676924172.487298,-8.7890625,-915.0390625,-888.18359375,-32.71484375,0.0
1676924172.4911304,5.37109375,-939.94140625,-919.921875,15.625,0.0
1676924172.4949627,6.34765625,-566.40625,-549.31640625,-30.2734375,0.0
1676924172.498795,2.44140625,-441.40625,-423.828125,-71.77734375,0.0
1676924172.5026274,-18.06640625,-761.71875,-741.69921875,-53.7109375,0.0
1676924172.5064597,-18.06640625,-768.06640625,-775.390625,1.46484375,0.0
1676924172.510292,-12.20703125,-719.23828125,-682.12890625,14.16015625,0.0
1676924172.5141244,-7.32421875,-823.2421875,-757.32421875,-46.875,0.0
1676924172.5179567,-18.06640625,-949.21875,-916.50390625,-49.8046875,0.0
1676924172.521789,-33.203125,-844.7265625,-849.12109375,-8.30078125,0.0
1676924172.5256214,-19.04296875,-434.08203125,-446.77734375,-3.90625,0.0
1676924172.5294538,-9.765625,-554.6875,-532.2265625,-42.48046875,0.0
1676924172.533286,-19.53125,-726.5625,-681.15234375,-69.3359375,0.0
1676924172.5369236,-24.4140625,-526.85546875,-503.41796875,-13.671875,0.0
1676924172.5405612,-21.97265625,-400.87890625,-392.578125,21.484375,0.0
1676924172.5441988,-27.34375,-614.2578125,-610.3515625,-25.87890625,0.0
1676924172.5478363,-27.83203125,-896.484375,-841.30859375,-65.91796875,0.0
1676924172.5514739,-28.80859375,-776.3671875,-722.65625,-47.36328125,0.0
1676924172.5551114,-22.94921875,-765.625,-687.01171875,-21.484375,0.0
1676924172.558749,-4.8828125,-907.71484375,-835.9375,-23.92578125,0.0
1676924172.5623865,-23.4375,-1000.0,-1000.0,-50.29296875,0.0
1676924172.566024,-23.92578125,-751.953125,-767.578125,-55.6640625,0.0
1676924172.5696616,-4.39453125,-404.296875,-419.43359375,-3.90625,0.0
1676924172.5732992,-3.90625,-585.9375,-529.296875,-0.9765625,0.0
1676924172.5769367,-18.06640625,-604.00390625,-568.84765625,-73.73046875,0.0
1676924172.5806866,-26.85546875,-408.203125,-435.05859375,-93.75,0.0
1676924172.5844364,-23.92578125,-486.328125,-481.93359375,-27.83203125,0.0
1676924172.5881865,-14.6484375,-685.546875,-643.5546875,-9.27734375,0.0
1676924172.5919363,-8.30078125,-604.4921875,-579.1015625,-52.734375,0.0
1676924172.5956862,-11.23046875,-517.08984375,-509.27734375,-73.2421875,0.0
1676924172.5994363,-13.671875,-766.6015625,-688.96484375,-16.6015625,0.0
1676924172.6031861,-11.23046875,-967.7734375,-904.78515625,24.90234375,0.0
1676924172.606936,-17.08984375,-949.21875,-925.78125,-26.85546875,0.0
1676924172.6106858,-13.671875,-592.28515625,-587.40234375,-74.21875,0.0
1676924172.6144357,-28.3203125,-490.234375,-480.95703125,-47.36328125,0.0
1676924172.6181858,-22.94921875,-758.7890625,-717.28515625,1.46484375,0.0
1676924172.6219356,-8.30078125,-645.99609375,-646.97265625,-19.04296875,0.0
1676924172.625693,-27.34375,-454.58984375,-481.93359375,-75.68359375,0.0
1676924172.6294506,-41.015625,-633.30078125,-619.140625,-71.2890625,0.0
1676924172.633208,-27.83203125,-772.4609375,-692.3828125,-23.4375,0.0
1676924172.6369655,-29.296875,-493.65234375,-465.8203125,-20.01953125,0.0
1676924172.640723,-34.66796875,-470.703125,-453.125,-61.03515625,0.0
1676924172.6444807,-31.73828125,-855.95703125,-783.69140625,-54.19921875,0.0
1676924172.6482382,-34.1796875,-913.0859375,-887.6953125,-8.30078125,0.0
1676924172.6519957,-28.3203125,-527.34375,-525.390625,-22.94921875,0.0
1676924172.6557531,-34.66796875,-415.52734375,-412.109375,-74.21875,0.0
1676924172.6595106,-46.875,-699.21875,-677.24609375,-80.56640625,0.0
1676924172.663268,-41.50390625,-861.81640625,-805.6640625,-41.015625,0.0
1676924172.6670256,-32.2265625,-729.4921875,-661.62109375,-11.71875,0.0
1676924172.670897,-33.203125,-520.99609375,-484.375,-53.7109375,0.0
1676924172.6747684,-38.57421875,-748.53515625,-751.46484375,-90.33203125,0.0
1676924172.6786401,-51.26953125,-791.015625,-788.0859375,-64.94140625,0.0
1676924172.6825116,-45.8984375,-488.76953125,-489.74609375,-43.45703125,0.0
1676924172.686383,-52.24609375,-592.7734375,-588.37890625,-61.5234375,0.0
1676924172.6902547,-57.6171875,-921.38671875,-857.91015625,-82.03125,0.0
1676924172.6941261,-48.828125,-873.53515625,-815.91796875,-101.5625,0.0
1676924172.6979976,-62.98828125,-513.671875,-508.30078125,-90.33203125,0.0
1676924172.701869,-79.58984375,-583.0078125,-531.73828125,-89.35546875,0.0
1676924172.7057405,-90.8203125,-901.85546875,-855.46875,-143.06640625,0.0
1676924172.7096121,-104.00390625,-712.40234375,-731.4453125,-176.7578125,0.0
1676924172.7134836,-118.1640625,-435.05859375,-445.80078125,-156.25,0.0
1676924172.718362,-133.30078125,-645.01953125,-593.75,-155.76171875,0.0
1676924172.7232404,-150.87890625,-830.56640625,-772.4609375,-231.4453125,0.0
1676924172.728119,-186.03515625,-784.66796875,-731.93359375,-291.015625,0.0
1676924172.7329974,-214.84375,-691.89453125,-611.328125,-272.94921875,0.0
1676924172.737876,-235.3515625,-685.05859375,-647.4609375,-257.32421875,0.0
1676924172.7427545,-247.55859375,-1000.0,-981.93359375,-296.38671875,0.0
1676924172.7476327,-252.44140625,-882.32421875,-834.9609375,-350.09765625,0.0
1676924172.7525113,-268.5546875,-505.859375,-487.79296875,-349.609375,0.0
1676924172.7573898,-270.01953125,-715.33203125,-686.5234375,-304.19921875,0.0
1676924172.762268,-271.484375,-884.27734375,-871.58203125,-300.78125,0.0
1676924172.7671466,-269.04296875,-528.80859375,-536.1328125,-352.05078125,0.0
1676924172.772025,-249.51171875,-497.0703125,-476.07421875,-359.86328125,0.0
1676924172.775782,-247.55859375,-738.28125,-647.94921875,-293.45703125,0.0
1676924172.7795389,-245.60546875,-697.75390625,-622.0703125,-266.11328125,0.0
1676924172.7832956,-225.09765625,-503.90625,-494.62890625,-302.24609375,0.0
1676924172.7870526,-220.703125,-527.34375,-503.41796875,-309.08203125,0.0
1676924172.7908096,-208.984375,-755.37109375,-668.9453125,-235.3515625,0.0
1676924172.7945664,-154.296875,-897.94921875,-791.9921875,-159.1796875,0.0
1676924172.7983232,-128.41796875,-853.515625,-791.50390625,-163.57421875,0.0
1676924172.8020802,-132.32421875,-850.09765625,-795.8984375,-173.828125,0.0
1676924172.8058372,-111.328125,-948.2421875,-919.921875,-110.3515625,0.0
1676924172.809594,-86.9140625,-750.48828125,-758.7890625,-46.875,0.0
1676924172.8133507,-60.05859375,-421.875,-418.45703125,-67.87109375,0.0
1676924172.8171077,-58.59375,-600.5859375,-557.6171875,-93.26171875,0.0
1676924172.820843,-64.453125,-775.390625,-711.42578125,-41.9921875,0.0
1676924172.8245783,-41.9921875,-534.1796875,-505.859375,29.78515625,0.0
1676924172.8283136,-20.5078125,-362.3046875,-343.75,32.2265625,0.0
1676924172.832049,-14.16015625,-626.46484375,-577.63671875,-4.8828125,0.0
1676924172.8357842,-20.01953125,-908.69140625,-875.0,4.39453125,0.0
1676924172.8395195,-17.08984375,-857.91015625,-786.62109375,48.828125,0.0
1676924172.8432548,12.20703125,-704.58984375,-607.421875,56.15234375,0.0
1676924172.84699,37.109375,-756.8359375,-703.125,38.0859375,0.0
1676924172.8507254,27.83203125,-911.1328125,-911.1328125,25.87890625,0.0
1676924172.8544607,22.4609375,-710.9375,-691.40625,54.19921875,0.0
1676924172.858196,39.0625,-711.42578125,-624.51171875,96.19140625,0.0
1676924172.8619313,52.24609375,-885.25390625,-837.40234375,83.49609375,0.0
1676924172.8656816,55.17578125,-749.51171875,-763.18359375,60.546875,0.0
1676924172.8694317,65.91796875,-392.578125,-406.73828125,68.359375,0.0
1676924172.8731818,70.3125,-456.54296875,-464.84375,84.47265625,0.0
1676924172.8769321,54.6875,-612.3046875,-567.3828125,66.89453125,0.0
1676924172.8806825,46.38671875,-560.546875,-510.7421875,36.1328125,0.0
1676924172.8844326,43.45703125,-688.96484375,-623.046875,49.31640625,0.0
1676924172.8881826,59.08203125,-825.68359375,-702.1484375,76.171875,0.0
1676924172.891933,61.03515625,-910.64453125,-851.07421875,81.54296875,0.0
1676924172.8956833,56.640625,-796.875,-798.828125,19.53125,0.0
1676924172.8994334,53.7109375,-414.0625,-396.484375,-25.390625,0.0
1676924172.9031835,62.01171875,-554.6875,-491.69921875,39.55078125,0.0
1676924172.9069338,81.54296875,-715.33203125,-601.5625,58.10546875,0.0
1676924172.9107635,70.80078125,-517.578125,-461.42578125,-3.41796875,0.0
1676924172.9145932,69.82421875,-629.39453125,-561.03515625,-25.87890625,0.0
1676924172.9184227,76.171875,-885.7421875,-767.08984375,23.4375,0.0
1676924172.9222524,83.984375,-834.47265625,-785.15625,62.98828125,0.0
1676924172.9260821,86.9140625,-551.7578125,-520.01953125,14.6484375,0.0
1676924172.9299119,70.3125,-722.16796875,-612.79296875,-20.5078125,0.0
1676924172.9337416,62.5,-994.140625,-898.4375,7.8125,0.0
1676924172.9375713,58.10546875,-888.671875,-884.27734375,46.875,0.0
1676924172.941401,67.87109375,-516.11328125,-523.4375,36.1328125,0.0
1676924172.9452305,80.078125,-348.6328125,-361.81640625,-11.23046875,0.0
1676924172.9490602,64.94140625,-620.60546875,-592.7734375,-17.08984375,0.0
1676924172.95289,54.6875,-668.9453125,-624.0234375,39.0625,0.0
1676924172.95656,64.453125,-423.33984375,-409.1796875,55.6640625,0.0
1676924172.9602299,57.12890625,-445.80078125,-423.828125,-0.9765625,0.0
1676924172.9638999,43.9453125,-688.4765625,-635.7421875,-32.2265625,0.0
1676924172.9675698,41.50390625,-649.4140625,-625.0,6.34765625,0.0
1676924172.9712398,58.10546875,-576.171875,-537.59765625,35.15625,0.0
1676924172.9749098,60.05859375,-743.65234375,-646.97265625,0.0,0.0
1676924172.9785795,28.80859375,-948.2421875,-894.53125,-9.27734375,0.0
1676924172.9822495,41.015625,-899.90234375,-912.59765625,18.06640625,0.0
1676924172.9859195,50.78125,-523.92578125,-555.17578125,42.96875,0.0
1676924172.9895895,34.66796875,-591.796875,-579.1015625,33.69140625,0.0
1676924172.9932594,41.9921875,-736.81640625,-709.9609375,-1.46484375,0.0
1676924172.9969294,41.015625,-550.78125,-523.4375,17.578125,0.0
1676924173.0006843,47.36328125,-403.3203125,-379.8828125,70.3125,0.0
1676924173.004439,51.26953125,-570.80078125,-550.29296875,78.125,0.0
1676924173.008194,41.9921875,-802.24609375,-764.16015625,28.80859375,0.0
1676924173.0119488,28.3203125,-618.1640625,-642.08984375,22.4609375,0.0
1676924173.0157037,29.78515625,-507.32421875,-521.484375,65.4296875,0.0
1676924173.0194588,26.85546875,-838.8671875,-813.96484375,73.2421875,0.0
1676924173.0232136,34.1796875,-896.97265625,-893.06640625,43.9453125,0.0
1676924173.0269685,38.0859375,-547.8515625,-575.1953125,5.859375,0.0
1676924173.0307233,25.87890625,-640.625,-618.1640625,39.0625,0.0
1676924173.0344782,18.5546875,-943.359375,-892.08984375,75.1953125,0.0
1676924173.038233,19.04296875,-858.88671875,-873.53515625,26.3671875,0.0
1676924173.041988,12.20703125,-520.99609375,-575.1953125,-23.92578125,0.0
1676924173.0469754,2.44140625,-480.46875,-504.8828125,6.34765625,0.0
1676924173.0519629,3.90625,-680.6640625,-649.4140625,54.19921875,0.0
1676924173.0569506,11.23046875,-643.06640625,-614.74609375,22.4609375,0.0
1676924173.061938,9.765625,-501.953125,-520.99609375,-35.64453125,0.0
1676924173.0669255,-1.46484375,-529.296875,-576.171875,-24.90234375,0.0
1676924173.071913,0.9765625,-857.421875,-831.0546875,32.71484375,0.0
1676924173.0769005,13.18359375,-895.99609375,-841.796875,6.8359375,0.0
1676924173.081888,10.25390625,-494.62890625,-498.53515625,-54.19921875,0.0
