timestamps,TP9,Fp1,Fp2,TP10,stim
1676924546.2761426,-9.765625,-17.578125,127.9296875,-3.90625,0.0
1676924546.279891,-34.66796875,-6.8359375,102.05078125,-8.30078125,0.0
1676924546.2836397,-58.59375,-17.578125,93.75,-30.76171875,0.0
1676924546.2873883,-38.0859375,-29.78515625,103.515625,-33.69140625,0.0
1676924546.2912223,-11.23046875,-32.71484375,79.58984375,-31.25,0.0
1676924546.2950563,-32.2265625,-18.06640625,53.7109375,-24.90234375,0.0
1676924546.2988906,-54.6875,-28.3203125,26.85546875,-19.53125,0.0
1676924546.3027246,-33.69140625,-58.10546875,46.875,-19.53125,0.0
1676924546.3065586,-24.4140625,-52.734375,58.59375,-20.01953125,0.0
1676924546.3103926,-36.1328125,-34.1796875,34.66796875,-21.97265625,0.0
1676924546.3142266,-51.7578125,-47.8515625,16.6015625,-24.4140625,0.0
1676924546.3180606,-65.91796875,-62.5,65.91796875,-42.96875,0.0
1676924546.3218946,-39.55078125,-39.0625,83.984375,-49.31640625,0.0
1676924546.325729,-13.18359375,-27.83203125,38.0859375,-23.4375,0.0
1676924546.329563,-31.73828125,-41.9921875,19.53125,-32.2265625,0.0
1676924546.333397,-47.8515625,-46.38671875,8.7890625,-54.6875,0.0
1676924546.3370733,-18.5546875,-39.55078125,-7.8125,-43.45703125,0.0
1676924546.3407497,-20.99609375,-31.73828125,-5.37109375,-43.45703125,0.0
1676924546.344426,-24.4140625,-24.4140625,22.94921875,-33.69140625,0.0
1676924546.3481023,-9.765625,-26.85546875,35.64453125,-13.18359375,0.0
1676924546.3517787,-17.08984375,-40.0390625,39.55078125,-16.11328125,0.0
1676924546.355455,-12.6953125,-41.50390625,3.41796875,-12.20703125,0.0
1676924546.3591313,-7.8125,-53.7109375,-8.30078125,-15.13671875,0.0
1676924546.3628078,-35.64453125,-67.87109375,50.78125,-33.69140625,0.0
1676924546.3664842,-34.66796875,-53.22265625,39.0625,-30.76171875,0.0
1676924546.3701606,-23.4375,-27.83203125,20.5078125,-25.390625,0.0
1676924546.3738368,-29.78515625,-23.92578125,46.38671875,-27.34375,0.0
1676924546.3775132,-25.87890625,-18.5546875,65.4296875,-28.3203125,0.0
1676924546.3824754,-20.01953125,-27.34375,51.7578125,-28.3203125,0.0
1676924546.3874378,1.953125,-45.8984375,48.33984375,-34.1796875,0.0
1676924546.3924003,3.41796875,-41.9921875,78.61328125,-36.1328125,0.0
1676924546.3973625,-20.99609375,-42.48046875,79.1015625,-22.4609375,0.0
1676924546.4023247,-15.625,-47.36328125,30.76171875,-6.34765625,0.0
1676924546.4072871,7.8125,-26.3671875,-8.30078125,-8.30078125,0.0
1676924546.4122496,10.7421875,-6.8359375,26.3671875,-19.53125,0.0
1676924546.4172118,-10.7421875,-16.11328125,69.3359375,-35.64453125,0.0
1676924546.422174,-28.3203125,-37.59765625,51.7578125,-60.05859375,0.0
1676924546.4271364,-17.578125,-44.921875,5.859375,-48.33984375,0.0
1676924546.4320989,-16.11328125,-31.25,52.734375,-43.9453125,0.0
1676924546.437061,-25.390625,-30.76171875,89.84375,-42.96875,0.0
1676924546.4408085,-26.3671875,-37.59765625,61.03515625,-25.390625,0.0
1676924546.4445558,-1.46484375,-33.203125,42.96875,-20.01953125,0.0
1676924546.4483032,18.06640625,-21.97265625,45.41015625,-20.99609375,0.0
1676924546.4520507,-22.94921875,-24.4140625,60.05859375,-20.5078125,0.0
1676924546.455798,-41.9921875,-20.99609375,56.15234375,-26.3671875,0.0
1676924546.4595454,-14.6484375,-34.66796875,41.9921875,-17.578125,0.0
1676924546.4632928,16.6015625,-31.73828125,78.61328125,10.25390625,0.0
1676924546.46704,23.92578125,-25.390625,105.46875,2.9296875,0.0
1676924546.4707875,0.0,-52.24609375,40.0390625,-11.71875,0.0
1676924546.474535,-3.41796875,-48.33984375,26.3671875,-11.71875,0.0
1676924546.4782822,26.85546875,-14.16015625,59.5703125,-6.34765625,0.0
1676924546.4820297,18.06640625,0.48828125,0.9765625,-9.27734375,0.0
1676924546.4857743,-22.4609375,-18.5546875,-0.9765625,-21.97265625,0.0
1676924546.4895186,-26.3671875,-31.25,40.0390625,-17.08984375,0.0
1676924546.4932632,-3.90625,-32.71484375,53.22265625,6.8359375,0.0
1676924546.4970076,14.16015625,-31.25,51.7578125,2.44140625,0.0
1676924546.5007522,20.01953125,-23.4375,41.015625,-13.671875,0.0
1676924546.5044966,-4.8828125,-11.71875,35.64453125,-19.53125,0.0
1676924546.5082412,-12.20703125,-8.30078125,39.0625,-3.41796875,0.0
1676924546.5119858,4.39453125,-24.4140625,41.015625,-0.9765625,0.0
1676924546.5157301,-2.9296875,-44.921875,8.7890625,-10.25390625,0.0
1676924546.5194747,-14.16015625,-48.33984375,52.24609375,-8.7890625,0.0
1676924546.523219,-14.16015625,-29.78515625,64.453125,-5.37109375,0.0
1676924546.5269637,-1.953125,-20.99609375,12.6953125,3.90625,0.0
1676924546.5308197,14.16015625,-20.01953125,21.484375,1.953125,0.0
1676924546.5346758,5.37109375,-9.27734375,40.0390625,5.37109375,0.0
1676924546.5385318,-21.484375,-12.20703125,20.99609375,1.46484375,0.0
1676924546.5423877,-5.859375,-34.66796875,-35.64453125,-2.44140625,0.0
1676924546.546244,6.34765625,-51.26953125,-45.41015625,-4.39453125,0.0
1676924546.5500998,-11.71875,-48.33984375,-22.4609375,-31.73828125,0.0
1676924546.5539558,-14.6484375,-59.08203125,-12.6953125,-41.9921875,0.0
1676924546.557812,6.8359375,-56.640625,-40.0390625,-17.08984375,0.0
1676924546.561668,3.41796875,-20.01953125,-21.97265625,-18.06640625,0.0
1676924546.5655239,-19.53125,-9.765625,61.5234375,-27.34375,0.0
1676924546.56938,-35.64453125,-20.99609375,51.26953125,-13.18359375,0.0
1676924546.573236,-29.296875,-20.99609375,5.859375,-17.08984375,2.0
1676924546.5769033,-8.30078125,-24.4140625,10.7421875,-11.71875,0.0
1676924546.5805707,-11.71875,-44.921875,46.875,-20.5078125,0.0
1676924546.5842378,-42.96875,-44.921875,39.55078125,-35.15625,0.0
1676924546.5879052,-50.78125,-29.296875,43.9453125,-31.73828125,0.0
1676924546.5915725,-26.85546875,-26.85546875,62.5,-34.66796875,0.0
1676924546.5952396,-28.3203125,-34.66796875,61.5234375,-19.04296875,0.0
1676924546.598907,-34.1796875,-22.94921875,77.1484375,-10.7421875,0.0
1676924546.6025743,-29.78515625,-2.9296875,44.43359375,-31.25,0.0
1676924546.6062417,-43.45703125,-20.01953125,69.3359375,-48.828125,0.0
1676924546.609909,-41.50390625,-33.69140625,100.09765625,-42.48046875,0.0
1676924546.6135762,-43.45703125,-34.1796875,51.7578125,-23.92578125,0.0
1676924546.6172435,-44.921875,-37.109375,72.265625,-29.296875,0.0
1676924546.6210067,-25.87890625,-33.203125,106.93359375,-29.296875,0.0
1676924546.62477,-30.2734375,-32.2265625,84.9609375,-11.71875,0.0
1676924546.6285331,-57.6171875,-26.85546875,45.8984375,-37.59765625,0.0
1676924546.6322963,-57.6171875,-22.4609375,63.4765625,-45.8984375,0.0
1676924546.6360595,-48.33984375,-30.76171875,62.98828125,-32.71484375,0.0
1676924546.6398227,-40.52734375,-27.34375,12.6953125,-36.1328125,0.0
1676924546.643586,-37.109375,-14.16015625,-16.11328125,-27.34375,0.0
1676924546.647349,-49.8046875,-26.3671875,29.296875,-50.78125,0.0
1676924546.6511123,-55.17578125,-30.76171875,86.9140625,-49.8046875,0.0
1676924546.6548755,-26.3671875,-25.87890625,20.5078125,-25.87890625,0.0
1676924546.6586387,-11.71875,-38.0859375,-16.11328125,-21.97265625,0.0
1676924546.662402,-36.1328125,-42.96875,19.53125,-32.71484375,0.0
1676924546.6661236,-48.33984375,-29.78515625,33.69140625,-56.15234375,0.0
1676924546.6698456,-26.3671875,-7.8125,9.765625,-43.9453125,0.0
1676924546.6735673,-15.13671875,-3.90625,-9.27734375,-31.25,0.0
1676924546.6772892,-36.1328125,-22.94921875,24.90234375,-24.4140625,0.0
1676924546.681011,-59.08203125,-35.64453125,25.87890625,-32.2265625,0.0
1676924546.684733,-54.6875,-37.109375,-20.01953125,-55.17578125,0.0
1676924546.6884546,-26.3671875,-41.50390625,-40.52734375,-50.29296875,0.0
1676924546.6921763,-29.78515625,-35.64453125,6.8359375,-36.62109375,0.0
1676924546.6958983,-43.9453125,-35.15625,34.66796875,-37.109375,0.0
1676924546.69962,-29.78515625,-50.29296875,-14.6484375,-28.80859375,0.0
1676924546.703342,-1.46484375,-45.41015625,-43.45703125,-27.34375,0.0
1676924546.7070637,2.9296875,-16.11328125,8.30078125,-19.04296875,0.0
1676924546.7109115,-25.390625,-10.7421875,43.45703125,-5.859375,0.0
1676924546.7147593,-37.59765625,-31.73828125,-7.8125,-23.4375,0.0
1676924546.718607,-22.4609375,-42.48046875,-25.390625,-28.80859375,0.0
1676924546.7224548,-18.06640625,-31.25,21.484375,-35.15625,0.0
1676924546.7263026,-44.43359375,-20.99609375,16.11328125,-43.45703125,0.0
1676924546.7301505,-58.10546875,-24.90234375,-37.59765625,-43.9453125,0.0
1676924546.7339983,-41.015625,-44.43359375,-44.43359375,-39.0625,0.0
1676924546.7378461,-43.9453125,-57.6171875,-0.9765625,-36.1328125,0.0
1676924546.741694,-46.38671875,-41.015625,-2.9296875,-16.6015625,0.0
1676924546.7455416,-50.78125,-25.390625,2.9296875,-18.06640625,0.0
1676924546.7493894,-44.43359375,-34.66796875,24.4140625,-40.52734375,0.0
1676924546.7532372,-26.3671875,-40.0390625,31.25,-38.0859375,0.0
1676924546.7582371,-39.0625,-35.15625,13.18359375,-41.50390625,0.0
1676924546.7632372,-43.9453125,-38.57421875,-12.20703125,-41.015625,0.0
1676924546.768237,-30.2734375,-51.26953125,10.25390625,-26.3671875,0.0
1676924546.7732372,-12.20703125,-47.36328125,32.2265625,-34.66796875,0.0
1676924546.778237,-21.97265625,-53.22265625,-5.37109375,-32.71484375,0.0
1676924546.783237,-23.4375,-31.73828125,-56.640625,-16.11328125,0.0
1676924546.788237,-22.4609375,9.27734375,-10.25390625,-11.71875,0.0
1676924546.793237,-36.62109375,-8.30078125,41.9921875,-33.69140625,0.0
1676924546.798237,-50.29296875,-32.71484375,-12.6953125,-52.734375,0.0
1676924546.803237,-55.6640625,-30.76171875,-14.16015625,-49.8046875,0.0
1676924546.808237,-46.875,-26.3671875,27.83203125,-21.484375,0.0
1676924546.813237,-46.875,-34.1796875,15.13671875,-23.92578125,0.0
1676924546.816887,-33.203125,-30.76171875,-17.08984375,-47.8515625,0.0
1676924546.8205366,-35.15625,-52.24609375,-40.0390625,-32.71484375,0.0
1676924546.8241866,-46.875,-69.3359375,-21.484375,-20.5078125,0.0
1676924546.8278365,-38.57421875,-35.15625,-20.99609375,-25.87890625,0.0
1676924546.8314865,-20.99609375,-13.18359375,-30.76171875,-24.90234375,0.0
1676924546.8351364,-12.6953125,-8.30078125,-23.92578125,-12.6953125,0.0
1676924546.8387861,-24.4140625,-20.01953125,-23.4375,-19.53125,0.0
1676924546.842436,-41.9921875,-33.69140625,3.90625,-35.15625,0.0
1676924546.846086,-41.9921875,-29.296875,-54.19921875,-18.5546875,0.0
1676924546.8497357,-5.859375,-27.83203125,-96.6796875,-2.44140625,0.0
1676924546.8533857,-18.5546875,-37.109375,4.39453125,-31.25,0.0
1676924546.8570356,-65.91796875,-50.29296875,20.99609375,-60.546875,0.0
1676924546.8608034,-61.03515625,-44.921875,22.4609375,-48.828125,0.0
1676924546.8645709,-39.0625,-41.015625,37.59765625,-52.24609375,0.0
1676924546.8683386,-33.203125,-16.11328125,56.15234375,-42.48046875,0.0
1676924546.8721063,-30.76171875,-2.9296875,47.36328125,-33.203125,0.0
1676924546.8758738,-37.109375,-41.50390625,-14.16015625,-51.26953125,0.0
1676924546.8796415,-41.9921875,-50.78125,-59.08203125,-31.73828125,0.0
1676924546.8834093,-35.64453125,-35.15625,-20.01953125,-13.671875,0.0
1676924546.8871768,-44.921875,-34.1796875,13.671875,-25.390625,0.0
1676924546.8909445,-43.45703125,-38.57421875,-50.78125,-15.13671875,0.0
1676924546.8947122,-29.296875,-41.015625,-14.16015625,-1.953125,0.0
1676924546.8984797,-16.6015625,-44.43359375,33.69140625,-9.765625,0.0
1676924546.9022474,-12.6953125,-29.78515625,1.953125,-8.7890625,0.0
1676924546.9059956,-29.296875,-13.671875,9.27734375,-18.5546875,0.0
1676924546.9097438,-33.69140625,-19.04296875,9.765625,-12.20703125,0.0
1676924546.9134922,-41.015625,-25.87890625,-11.71875,-4.39453125,0.0
1676924546.9172404,-46.875,-40.52734375,-6.34765625,-39.0625,0.0
1676924546.9209886,-49.31640625,-41.9921875,4.8828125,-31.73828125,0.0
1676924546.9247367,-35.15625,-29.78515625,-5.37109375,-20.99609375,0.0
1676924546.928485,-8.7890625,-18.06640625,13.671875,-15.13671875,0.0
1676924546.932233,-4.39453125,-25.87890625,4.39453125,1.953125,0.0
1676924546.9359813,-23.4375,-43.9453125,22.4609375,-10.25390625,0.0
1676924546.9397297,-41.015625,-26.3671875,57.6171875,-29.296875,0.0
1676924546.9434779,-23.4375,-17.578125,3.41796875,-22.4609375,0.0
1676924546.947226,-20.5078125,-30.2734375,-18.5546875,-11.23046875,0.0
1676924546.9510233,-33.69140625,-30.2734375,19.53125,-11.23046875,0.0
1676924546.9548206,-23.92578125,-30.76171875,38.0859375,-5.37109375,0.0
1676924546.958618,-28.3203125,-47.36328125,-1.46484375,-10.25390625,0.0
1676924546.9624152,-34.1796875,-50.78125,-18.5546875,-17.08984375,0.0
1676924546.9662125,-37.59765625,-34.1796875,19.53125,-16.11328125,0.0
1676924546.9700098,-28.80859375,-31.25,24.90234375,-16.6015625,0.0
1676924546.973807,-14.16015625,-37.109375,3.41796875,-24.4140625,0.0
1676924546.9776044,-23.4375,-33.203125,-1.953125,-33.203125,0.0
1676924546.9814017,-32.2265625,-29.296875,45.8984375,-10.7421875,0.0
1676924546.985199,-31.73828125,-34.66796875,45.41015625,-8.7890625,0.0
1676924546.9889963,-10.7421875,-36.62109375,-20.01953125,-20.99609375,0.0
1676924546.9927936,-1.953125,-22.94921875,-13.18359375,-19.04296875,0.0
1676924546.9965107,-16.6015625,-28.80859375,43.9453125,-12.20703125,0.0
1676924547.0002282,-14.6484375,-44.921875,58.59375,5.37109375,0.0
1676924547.0039454,9.765625,-29.296875,29.296875,20.5078125,0.0
1676924547.0076625,8.30078125,-16.6015625,41.9921875,9.27734375,0.0
1676924547.01138,-23.4375,-28.80859375,58.10546875,-10.25390625,0.0
1676924547.0150971,-47.8515625,-36.1328125,41.50390625,-20.5078125,0.0
1676924547.0188143,-31.73828125,-23.92578125,-1.46484375,-16.6015625,0.0
1676924547.0225317,-9.765625,-18.06640625,-17.08984375,-21.97265625,0.0
1676924547.026249,-20.01953125,-30.2734375,40.52734375,-46.875,0.0
1676924547.029966,-28.3203125,-43.45703125,23.92578125,-38.57421875,0.0
1676924547.0336835,-29.78515625,-33.69140625,15.625,-17.08984375,0.0
1676924547.0374007,-28.80859375,-27.34375,18.5546875,-29.296875,0.0
1676924547.0411499,-20.01953125,-37.59765625,11.23046875,-37.109375,0.0
1676924547.044899,-25.87890625,-23.92578125,10.25390625,-4.8828125,0.0
1676924547.048648,-36.1328125,-24.90234375,20.5078125,-0.9765625,0.0
1676924547.0523973,-20.5078125,-37.59765625,34.66796875,-17.08984375,0.0
1676924547.0561464,-22.4609375,-20.5078125,14.16015625,-20.99609375,0.0
1676924547.0598955,-28.3203125,-18.06640625,-11.23046875,-22.94921875,0.0
1676924547.0636444,-32.71484375,-28.80859375,-27.34375,-24.90234375,0.0
1676924547.0673935,-51.26953125,-17.578125,23.4375,-31.73828125,0.0
1676924547.0711427,-43.9453125,-19.04296875,76.66015625,-38.0859375,0.0
1676924547.0748918,-38.57421875,-37.109375,51.26953125,-43.45703125,0.0
1676924547.078641,-39.55078125,-24.90234375,46.875,-36.62109375,0.0
1676924547.08239,-34.66796875,-14.16015625,72.75390625,-31.73828125,0.0
1676924547.0861454,-27.83203125,-26.3671875,74.21875,-33.203125,0.0
1676924547.0899005,-30.2734375,-23.4375,48.828125,-35.15625,0.0
1676924547.0936556,-34.1796875,-11.23046875,49.31640625,-26.85546875,0.0
1676924547.097411,-29.78515625,-25.390625,79.58984375,-17.578125,0.0
1676924547.1011662,-8.7890625,-30.76171875,66.40625,-22.4609375,0.0
1676924547.1049213,0.48828125,-23.92578125,-6.34765625,-37.109375,0.0
1676924547.1086764,-36.62109375,-41.015625,-1.953125,-59.08203125,0.0
1676924547.1124318,-50.78125,-39.55078125,57.12890625,-61.03515625,0.0
1676924547.116187,-39.0625,-22.94921875,41.015625,-33.203125,0.0
1676924547.1199422,-50.29296875,-36.62109375,-8.30078125,-36.62109375,0.0
1676924547.1236973,-58.59375,-41.015625,20.99609375,-37.109375,0.0
1676924547.1274526,-50.78125,-20.99609375,71.77734375,-37.59765625,0.0
1676924547.132416,-37.109375,-17.08984375,48.33984375,-28.80859375,0.0
1676924547.1373794,-24.4140625,-30.2734375,41.50390625,-31.73828125,0.0
1676924547.1423428,-13.671875,-22.4609375,53.22265625,-27.83203125,0.0
1676924547.1473062,-27.34375,-14.6484375,54.19921875,-14.16015625,0.0
1676924547.1522696,-50.29296875,-32.71484375,32.71484375,-21.484375,0.0
1676924547.1572328,-44.921875,-34.66796875,1.953125,-23.4375,0.0
1676924547.1621962,-26.85546875,-35.15625,15.13671875,-19.04296875,0.0
1676924547.1671596,-38.57421875,-56.15234375,59.08203125,-27.34375,0.0
1676924547.172123,-54.6875,-32.71484375,41.9921875,-41.9921875,0.0
1676924547.1770864,-35.15625,-12.20703125,26.85546875,-25.87890625,0.0
1676924547.1820498,-25.87890625,-24.4140625,50.29296875,-32.2265625,0.0
1676924547.1870131,-37.109375,-27.34375,45.41015625,-34.66796875,0.0
1676924547.190762,-46.38671875,-27.34375,1.953125,-23.92578125,0.0
1676924547.194511,-36.62109375,-35.15625,0.9765625,-31.25,0.0
1676924547.1982598,-19.53125,-42.96875,54.6875,-23.92578125,0.0
1676924547.2020087,-39.0625,-30.2734375,52.24609375,-25.87890625,0.0
1676924547.2057576,-71.2890625,-36.1328125,21.484375,-34.1796875,0.0
1676924547.2095065,-50.29296875,-68.84765625,16.6015625,-28.80859375,0.0
1676924547.2132554,-24.90234375,-62.01171875,12.6953125,-32.71484375,0.0
1676924547.2170043,-50.29296875,-25.87890625,5.37109375,-66.40625,0.0
1676924547.2207532,-48.828125,-8.30078125,-10.7421875,-55.6640625,0.0
1676924547.224502,-47.8515625,-17.578125,2.9296875,-36.1328125,0.0
1676924547.228251,-34.1796875,-28.3203125,51.26953125,-41.50390625,0.0
1676924547.2319999,-21.484375,-48.828125,11.23046875,-38.0859375,0.0
1676924547.2357593,-44.921875,-70.3125,15.625,-42.96875,0.0
1676924547.2395186,-47.8515625,-54.6875,38.57421875,-24.90234375,0.0
1676924547.243278,-29.296875,-17.08984375,12.20703125,-6.8359375,0.0
1676924547.2470374,-16.6015625,-24.4140625,-6.34765625,-24.90234375,0.0
1676924547.2507968,-48.33984375,-56.640625,-8.7890625,-31.25,0.0
1676924547.2545562,-63.4765625,-37.59765625,13.18359375,-21.484375,0.0
1676924547.2583156,-40.52734375,-21.97265625,27.83203125,-31.73828125,0.0
1676924547.262075,-24.90234375,-26.85546875,7.8125,-34.66796875,0.0
1676924547.2658343,-32.2265625,-34.66796875,-0.9765625,-40.52734375,0.0
1676924547.2695937,-42.48046875,-51.7578125,41.50390625,-47.36328125,0.0
1676924547.273353,-34.66796875,-65.91796875,53.22265625,-38.0859375,0.0
1676924547.2771125,-12.20703125,-38.0859375,18.06640625,-13.18359375,2.0
1676924547.2808743,1.953125,-8.30078125,10.25390625,-0.48828125,0.0
1676924547.2846363,-27.34375,-19.04296875,48.33984375,-23.4375,0.0
1676924547.288398,-57.6171875,-47.36328125,47.8515625,-35.64453125,0.0
1676924547.29216,-42.48046875,-52.734375,25.87890625,-27.34375,0.0
1676924547.2959218,-23.4375,-21.484375,32.2265625,-16.6015625,0.0
1676924547.2996836,-41.9921875,-21.97265625,28.3203125,-18.5546875,0.0
1676924547.3034456,-52.734375,-33.69140625,11.71875,-33.203125,0.0
1676924547.3072073,-45.41015625,-33.69140625,-27.83203125,-17.08984375,0.0
1676924547.3109694,-31.73828125,-33.69140625,-18.5546875,5.859375,0.0
1676924547.3147311,-25.390625,-41.9921875,55.6640625,-10.7421875,0.0
1676924547.3184931,-31.25,-39.55078125,64.94140625,-28.80859375,0.0
1676924547.322255,-31.25,-24.4140625,61.03515625,-34.66796875,0.0
1676924547.3260026,-7.8125,-37.109375,59.08203125,-47.8515625,0.0
1676924547.3297505,1.46484375,-43.9453125,39.55078125,-32.2265625,0.0
1676924547.3334982,-36.1328125,-38.57421875,12.20703125,-15.13671875,0.0
1676924547.337246,-57.12890625,-29.296875,13.671875,-28.80859375,0.0
1676924547.3409936,-23.4375,-17.578125,30.2734375,-16.11328125,0.0
1676924547.3447413,-10.25390625,-28.3203125,7.8125,-13.18359375,0.0
1676924547.3484893,-20.5078125,-25.87890625,-3.41796875,-19.53125,0.0
1676924547.352237,-22.94921875,-9.765625,1.46484375,-20.5078125,0.0
1676924547.3559847,-10.25390625,-32.71484375,26.3671875,-20.5078125,0.0
1676924547.3597326,11.71875,-53.22265625,39.0625,-20.5078125,0.0
1676924547.3634803,-36.62109375,-36.1328125,14.6484375,-29.78515625,0.0
1676924547.367228,-65.91796875,-23.92578125,-27.34375,-25.390625,0.0
1676924547.3709888,-49.31640625,-30.76171875,13.18359375,-30.2734375,0.0
1676924547.3747497,-47.36328125,-28.3203125,36.62109375,-22.94921875,0.0
1676924547.3785102,-39.55078125,-34.66796875,4.39453125,-24.4140625,0.0
1676924547.382271,-31.25,-37.59765625,19.04296875,-42.96875,0.0
1676924547.3860319,-29.296875,-15.13671875,29.296875,-20.99609375,0.0
1676924547.3897924,-21.484375,2.44140625,3.41796875,-12.20703125,0.0
1676924547.3935533,-21.97265625,-4.39453125,-18.06640625,-27.83203125,0.0
1676924547.397314,-30.76171875,-37.109375,20.01953125,-27.34375,0.0
1676924547.401075,-10.7421875,-56.640625,67.3828125,-4.8828125,0.0
1676924547.4048357,-1.46484375,-51.7578125,20.01953125,-4.39453125,0.0
1676924547.4085963,-46.38671875,-53.22265625,2.9296875,-26.85546875,0.0
1676924547.412357,-60.05859375,-32.71484375,23.4375,-32.2265625,0.0
1676924547.4161804,-58.59375,-15.625,7.32421875,-40.52734375,0.0
1676924547.4200037,-41.9921875,-32.2265625,-4.39453125,-35.15625,0.0
1676924547.423827,-14.16015625,-33.69140625,19.04296875,-29.78515625,0.0
1676924547.4276502,-24.90234375,-21.484375,40.0390625,-33.69140625,0.0
1676924547.4314735,-48.33984375,-10.7421875,40.0390625,-36.1328125,0.0
1676924547.435297,-34.66796875,-16.6015625,26.3671875,-16.6015625,0.0
1676924547.4391203,-15.625,-27.83203125,-5.859375,0.0,0.0
1676924547.4429436,-13.671875,-39.55078125,25.390625,-25.390625,0.0
1676924547.4467669,-25.87890625,-60.05859375,58.10546875,-34.66796875,0.0
1676924547.4505901,-30.2734375,-36.1328125,12.20703125,-38.57421875,0.0
1676924547.4544134,-12.20703125,-17.08984375,-16.6015625,-52.734375,0.0
1676924547.4582367,-1.46484375,-23.92578125,9.765625,-31.25,0.0
1676924547.4618955,-18.5546875,-41.50390625,25.390625,-21.484375,0.0
1676924547.4655545,-27.83203125,-49.31640625,-8.30078125,-41.50390625,0.0
1676924547.4692135,-22.94921875,-27.34375,-6.8359375,-23.92578125,0.0
1676924547.4728723,-21.484375,-8.7890625,21.484375,-7.32421875,0.0
1676924547.476531,-15.625,-10.25390625,21.97265625,-34.66796875,0.0
1676924547.48019,0.9765625,-20.01953125,-14.16015625,-22.4609375,0.0
1676924547.483849,10.7421875,-41.015625,-28.3203125,2.44140625,0.0
1676924547.4875078,-0.9765625,-43.45703125,24.4140625,-13.671875,0.0
1676924547.4911666,-19.53125,-20.01953125,8.7890625,-31.73828125,0.0
1676924547.4948256,-26.85546875,-18.5546875,3.41796875,-37.59765625,0.0
1676924547.4984846,-12.6953125,-28.3203125,26.85546875,-30.76171875,0.0
1676924547.5021434,-9.27734375,-38.0859375,-8.30078125,-19.53125,0.0
1676924547.507133,-14.16015625,-35.64453125,-38.57421875,-30.2734375,0.0
1676924547.5121224,-24.90234375,-26.3671875,-11.23046875,-41.50390625,0.0
1676924547.517112,-15.625,-21.97265625,21.97265625,-42.48046875,0.0
1676924547.5221014,13.18359375,-6.8359375,7.8125,-29.78515625,0.0
1676924547.527091,16.11328125,-14.6484375,-30.76171875,-5.859375,0.0
1676924547.5320807,5.37109375,-35.15625,-56.15234375,-17.08984375,0.0
1676924547.53707,-5.37109375,-44.43359375,-31.73828125,-36.62109375,0.0
1676924547.5420597,-0.9765625,-43.45703125,-10.7421875,-15.13671875,0.0
1676924547.547049,11.71875,-29.296875,-41.50390625,-27.34375,0.0
1676924547.5520387,-14.6484375,-27.83203125,-75.68359375,-44.921875,0.0
1676924547.557028,-24.90234375,-37.59765625,-7.32421875,-55.17578125,0.0
1676924547.5620177,-10.25390625,-34.1796875,36.62109375,-63.96484375,0.0
1676924547.5657716,7.32421875,-28.80859375,-29.78515625,-40.0390625,0.0
1676924547.5695255,0.9765625,-14.6484375,-25.390625,-16.11328125,0.0
1676924547.5732794,-8.7890625,-6.8359375,5.859375,-14.16015625,0.0
1676924547.577033,-5.37109375,-25.87890625,-20.99609375,-35.15625,0.0
1676924547.580787,-25.390625,-45.8984375,-49.8046875,-32.2265625,0.0
1676924547.5845408,-37.59765625,-41.9921875,-62.01171875,-20.01953125,0.0
1676924547.5882947,-34.1796875,-25.390625,-20.01953125,-35.15625,0.0
1676924547.5920486,-26.3671875,-33.203125,11.71875,-39.55078125,0.0
1676924547.5958023,-6.8359375,-51.26953125,-64.453125,-20.01953125,0.0
1676924547.5995562,3.90625,-46.38671875,-67.3828125,5.859375,0.0
1676924547.60331,-15.13671875,-33.203125,-11.23046875,0.0,0.0
1676924547.607064,-17.578125,-17.578125,-25.87890625,-4.8828125,0.0
1676924547.6108394,-5.859375,5.37109375,-17.578125,-7.8125,0.0
1676924547.6146147,-25.390625,-12.6953125,0.9765625,-32.2265625,0.0
1676924547.61839,-49.31640625,-30.2734375,14.16015625,-45.41015625,0.0
1676924547.6221657,-69.3359375,-37.59765625,-15.625,-43.45703125,0.0
1676924547.625941,-63.96484375,-61.5234375,-33.69140625,-40.52734375,0.0
1676924547.6297164,-39.0625,-56.640625,-40.0390625,-41.015625,0.0
1676924547.6334918,-45.8984375,-53.22265625,-16.6015625,-30.76171875,0.0
1676924547.637267,-48.33984375,-53.7109375,-0.9765625,-31.25,0.0
1676924547.6410427,-25.390625,-29.78515625,-61.03515625,-28.80859375,0.0
1676924547.644818,-15.625,-20.01953125,-44.921875,-23.92578125,0.0
1676924547.6485934,-18.06640625,-18.06640625,-7.8125,-23.92578125,0.0
1676924547.6523688,-26.3671875,-14.16015625,4.8828125,-17.08984375,0.0
1676924547.6562216,-50.78125,-21.97265625,22.4609375,-32.71484375,0.0
1676924547.6600742,-50.29296875,-19.53125,1.46484375,-39.0625,0.0
1676924547.663927,-29.78515625,-41.015625,-21.97265625,-38.57421875,0.0
1676924547.66778,-33.203125,-75.68359375,-46.875,-22.94921875,0.0
1676924547.6716325,-46.875,-42.48046875,-45.41015625,-10.25390625,0.0
1676924547.6754854,-44.921875,-0.48828125,-22.4609375,-41.015625,0.0
1676924547.6793382,-20.5078125,-9.765625,-17.08984375,-54.6875,0.0
1676924547.6831908,-13.18359375,-17.578125,-39.0625,-35.64453125,0.0
1676924547.6870437,-35.64453125,-13.671875,-36.62109375,-24.4140625,0.0
1676924547.6908965,-24.4140625,-29.296875,12.20703125,-10.25390625,0.0
1676924547.694749,-1.46484375,-26.3671875,-0.9765625,-20.99609375,0.0
1676924547.698602,-9.765625,-19.04296875,-7.8125,-32.71484375,0.0
1676924547.7022495,-31.25,-31.73828125,0.48828125,-32.71484375,0.0
1676924547.705897,-22.4609375,-59.08203125,5.859375,-35.64453125,0.0
1676924547.7095447,-13.18359375,-61.5234375,-5.37109375,-31.25,0.0
1676924547.713192,-34.1796875,-24.4140625,-3.41796875,-47.8515625,0.0
1676924547.7168396,-41.9921875,-7.32421875,17.08984375,-38.0859375,0.0
1676924547.720487,-33.203125,-15.625,-10.25390625,-20.5078125,0.0
1676924547.7241347,-17.08984375,-32.2265625,-11.71875,-29.296875,0.0
1676924547.7277822,-15.13671875,-30.76171875,-34.1796875,-16.6015625,0.0
1676924547.7314296,-28.3203125,-25.390625,-20.5078125,-7.8125,0.0
1676924547.7350771,-43.9453125,-38.57421875,7.8125,-35.15625,0.0
1676924547.7387247,-35.15625,-62.5,-22.94921875,-57.12890625,0.0
1676924547.7423723,-31.73828125,-60.05859375,-12.6953125,-40.52734375,0.0
1676924547.746114,-42.48046875,-27.34375,32.2265625,-29.78515625,0.0
1676924547.7498558,-33.69140625,-14.6484375,38.57421875,-26.85546875,0.0
1676924547.7535975,-20.5078125,-11.23046875,-7.32421875,-5.37109375,0.0
1676924547.7573392,-2.44140625,-8.7890625,4.8828125,-0.48828125,0.0
1676924547.761081,5.37109375,-16.11328125,18.06640625,-7.32421875,0.0
1676924547.7648227,-25.87890625,-43.9453125,-9.27734375,-29.78515625,0.0
1676924547.7685645,-18.06640625,-63.96484375,-38.57421875,-25.390625,0.0
1676924547.7723062,10.7421875,-42.96875,-35.15625,4.39453125,0.0
1676924547.776048,-22.4609375,-38.57421875,10.7421875,-9.765625,0.0
1676924547.7797897,-44.921875,-42.48046875,21.484375,-11.71875,0.0
1676924547.7835314,-30.2734375,-13.18359375,-10.7421875,-8.30078125,0.0
1676924547.7872732,-11.23046875,-12.20703125,4.39453125,-19.53125,0.0
1676924547.7910419,-2.44140625,-25.390625,33.69140625,-17.578125,0.0
1676924547.7948105,-1.46484375,-13.18359375,10.7421875,-14.6484375,0.0
1676924547.7985792,-14.16015625,-20.01953125,1.953125,-19.53125,0.0
1676924547.8023477,-19.04296875,-31.73828125,10.7421875,-25.390625,0.0
1676924547.8061163,1.953125,-38.57421875,16.6015625,-18.06640625,0.0
1676924547.809885,0.9765625,-50.78125,-9.27734375,-26.3671875,0.0
1676924547.8136537,-14.16015625,-50.29296875,-39.0625,-23.92578125,0.0
1676924547.8174224,-14.6484375,-24.90234375,4.8828125,-19.53125,0.0
1676924547.8211908,0.9765625,-2.9296875,27.83203125,-26.85546875,0.0
1676924547.8249595,0.0,-8.30078125,5.37109375,-28.3203125,0.0
1676924547.8287282,-24.4140625,-20.99609375,20.01953125,-30.76171875,0.0
1676924547.832497,-31.25,-37.109375,19.53125,-27.83203125,0.0
1676924547.8363588,-7.8125,-39.55078125,24.90234375,-25.87890625,0.0
1676924547.8402205,9.27734375,-32.2265625,5.859375,-15.13671875,0.0
1676924547.8440824,-20.5078125,-48.828125,-20.99609375,-26.3671875,0.0
1676924547.8479443,-26.85546875,-44.43359375,11.23046875,-32.2265625,0.0
1676924547.8518062,-0.9765625,-12.6953125,12.20703125,-27.83203125,0.0
1676924547.855668,8.7890625,-14.16015625,-41.015625,-27.83203125,0.0
1676924547.8595297,-11.71875,-41.015625,-28.80859375,-24.4140625,0.0
1676924547.8633916,-31.73828125,-63.4765625,55.17578125,-37.59765625,0.0
1676924547.8672535,-11.23046875,-60.546875,46.38671875,-36.1328125,0.0
1676924547.8711152,4.39453125,-25.87890625,-7.32421875,-9.765625,0.0
1676924547.874977,-11.23046875,5.859375,10.7421875,-6.34765625,0.0
1676924547.878839,-28.80859375,-0.48828125,44.43359375,-26.3671875,0.0
1676924547.883719,-30.2734375,-19.53125,6.8359375,-31.25,0.0
1676924547.888599,-1.46484375,-17.578125,-11.23046875,-29.78515625,0.0
1676924547.8934789,4.39453125,-21.97265625,-8.30078125,-10.7421875,0.0
1676924547.8983588,-29.296875,-42.96875,-1.953125,-12.20703125,0.0
1676924547.9032388,-32.2265625,-39.0625,5.859375,-33.69140625,0.0
1676924547.9081187,-19.04296875,-42.96875,-49.8046875,-26.85546875,0.0
1676924547.9129987,-24.4140625,-46.875,-23.92578125,-18.06640625,0.0
1676924547.9178786,-28.80859375,-21.484375,41.9921875,-28.3203125,0.0
1676924547.9227586,-32.2265625,-19.53125,0.0,-40.52734375,0.0
1676924547.9276385,-27.83203125,-27.83203125,-13.671875,-41.9921875,0.0
1676924547.9325185,-15.625,-32.2265625,0.48828125,-48.33984375,0.0
1676924547.9373984,-26.3671875,-40.52734375,-11.71875,-28.80859375,0.0
1676924547.9411514,-39.55078125,-42.96875,-17.578125,-15.13671875,0.0
1676924547.944904,-20.5078125,-40.0390625,-4.39453125,-26.85546875,0.0
1676924547.948657,-11.23046875,-46.875,-3.41796875,-31.73828125,0.0
1676924547.95241,-12.20703125,-41.015625,-16.6015625,-33.203125,0.0
1676924547.9561627,-37.109375,-23.4375,-42.96875,-48.828125,0.0
1676924547.9599156,-36.1328125,-19.53125,-41.9921875,-54.19921875,0.0
1676924547.9636686,-11.71875,-23.4375,-25.87890625,-36.62109375,0.0
1676924547.9674213,-20.99609375,-23.4375,-20.01953125,-41.9921875,0.0
1676924547.9711742,-34.66796875,-31.73828125,-45.41015625,-38.0859375,0.0
1676924547.9749272,-33.203125,-38.57421875,-49.8046875,-26.85546875,0.0
1676924547.97868,-17.08984375,-47.8515625,24.90234375,-36.1328125,0.0
1676924547.9824328,-17.08984375,-46.38671875,25.87890625,-40.52734375,0.0
1676924547.9861805,-41.9921875,-23.4375,12.6953125,-28.80859375,0.0
1676924547.9899282,-50.29296875,-9.765625,14.6484375,-14.6484375,0.0
1676924547.993676,-43.45703125,-30.2734375,-2.9296875,-35.15625,0.0
1676924547.9974236,-39.0625,-46.38671875,-41.9921875,-39.55078125,0.0
1676924548.0011714,-39.55078125,-26.85546875,-60.546875,-23.92578125,0.0
1676924548.004919,-33.69140625,-10.7421875,-39.55078125,1.953125,0.0
1676924548.0086668,-25.87890625,-34.1796875,-2.44140625,0.48828125,0.0
1676924548.0124145,-23.92578125,-56.640625,11.23046875,-30.76171875,0.0
1676924548.0161622,-27.34375,-44.43359375,-26.85546875,-25.390625,0.0
1676924548.0199099,-59.5703125,-34.1796875,21.97265625,-29.296875,0.0
1676924548.0236576,-64.453125,-15.625,66.89453125,-30.2734375,0.0
1676924548.0274053,-43.9453125,-19.53125,-6.34765625,-42.96875,0.0
1676924548.0311704,-48.33984375,-33.203125,-42.48046875,-57.12890625,0.0
1676924548.0349355,-57.12890625,-33.203125,5.859375,-42.96875,0.0
1676924548.0387006,-48.828125,-44.921875,8.7890625,-32.2265625,0.0
1676924548.0424654,-29.78515625,-29.78515625,-12.6953125,-28.3203125,0.0
1676924548.0462306,-17.578125,-10.25390625,-20.01953125,-26.3671875,0.0
1676924548.0499957,-40.52734375,-14.6484375,-14.6484375,-29.296875,0.0
1676924548.0537608,-62.5,-25.87890625,17.08984375,-26.3671875,0.0
1676924548.0575259,-42.48046875,-33.69140625,-31.73828125,-29.78515625,0.0
1676924548.0612907,-38.0859375,-29.78515625,-61.03515625,-45.8984375,0.0
1676924548.0650558,-24.4140625,-22.4609375,15.13671875,-38.0859375,0.0
1676924548.068821,-33.69140625,-12.20703125,-10.25390625,-38.57421875,0.0
1676924548.072586,-59.5703125,-18.5546875,-50.29296875,-57.12890625,0.0
1676924548.0763903,-74.70703125,-32.2265625,-40.52734375,-84.9609375,0.0
1676924548.0801947,-99.609375,-18.06640625,-16.6015625,-109.375,0.0
1676924548.0839992,-140.625,-12.20703125,-40.0390625,-116.69921875,0.0
1676924548.0878034,-154.78515625,-21.97265625,-58.59375,-134.765625,0.0
1676924548.0916076,-132.32421875,-25.87890625,-53.7109375,-151.85546875,0.0
1676924548.095412,-166.50390625,-20.01953125,-62.01171875,-172.36328125,0.0
1676924548.0992165,-229.98046875,0.0,-30.76171875,-204.1015625,0.0
1676924548.1030207,-237.79296875,-4.39453125,-31.25,-209.47265625,0.0
1676924548.1068249,-219.7265625,-20.99609375,5.37109375,-197.75390625,0.0
1676924548.1106293,-197.265625,0.48828125,30.76171875,-225.5859375,0.0
1676924548.1144338,-187.5,-8.30078125,-0.9765625,-207.51953125,0.0
1676924548.118238,-220.21484375,-34.66796875,-12.20703125,-191.40625,0.0
1676924548.1218896,-199.21875,-20.5078125,-8.7890625,-177.734375,0.0
1676924548.1255412,-137.6953125,0.9765625,4.8828125,-132.32421875,0.0
1676924548.1291928,-130.859375,6.34765625,-24.4140625,-127.44140625,0.0
1676924548.1328444,-146.484375,-1.953125,-35.64453125,-128.41796875,0.0
1676924548.136496,-135.7421875,-2.44140625,-16.11328125,-108.88671875,0.0
1676924548.1401477,-92.7734375,-15.625,-19.04296875,-96.19140625,0.0
1676924548.1437995,-82.51953125,-32.2265625,-42.96875,-82.03125,0.0
1676924548.1474512,-89.35546875,-35.15625,-44.43359375,-66.40625,0.0
1676924548.1511028,-63.96484375,-35.15625,8.7890625,-48.33984375,0.0
1676924548.1547544,-29.78515625,-48.33984375,-1.953125,-23.4375,0.0
1676924548.158406,-6.34765625,-52.734375,-15.13671875,-6.8359375,0.0
1676924548.1620576,-4.8828125,-41.50390625,-16.11328125,-9.765625,0.0
1676924548.1658077,-12.20703125,-33.69140625,-36.1328125,-5.37109375,0.0
1676924548.1695578,2.9296875,-17.08984375,-51.26953125,15.625,0.0
1676924548.173308,18.06640625,-25.87890625,-62.01171875,31.25,0.0
1676924548.1770582,-0.9765625,-37.109375,-44.921875,28.3203125,0.0
1676924548.1808083,-9.27734375,-32.71484375,-18.5546875,27.34375,0.0
1676924548.1845584,-2.44140625,-46.875,-34.1796875,21.484375,0.0
1676924548.1883085,6.8359375,-50.78125,-91.796875,31.25,0.0
1676924548.1920586,13.671875,-55.6640625,-54.19921875,31.73828125,0.0
1676924548.195809,16.11328125,-57.12890625,28.3203125,38.57421875,0.0
1676924548.199559,14.6484375,-46.875,-28.80859375,50.78125,0.0
1676924548.203309,17.578125,-33.69140625,-69.3359375,42.96875,0.0
1676924548.2070591,24.4140625,-34.1796875,-11.23046875,52.24609375,1.0
1676924548.2108335,20.01953125,-50.29296875,17.578125,45.41015625,0.0
1676924548.2146082,21.97265625,-56.15234375,-30.76171875,37.59765625,0.0
1676924548.2183828,26.3671875,-40.0390625,-54.6875,25.87890625,0.0
1676924548.2221572,29.296875,-23.92578125,-49.8046875,15.13671875,0.0
1676924548.2259316,27.83203125,-18.5546875,-32.71484375,31.25,0.0
1676924548.2297063,6.8359375,-29.296875,-63.96484375,35.15625,0.0
1676924548.233481,25.87890625,-52.734375,-42.96875,37.59765625,0.0
1676924548.2372553,31.25,-61.5234375,25.87890625,47.36328125,0.0
1676924548.2410297,15.625,-41.9921875,-6.8359375,23.92578125,0.0
1676924548.2448044,21.97265625,-14.16015625,-29.78515625,15.625,0.0
1676924548.248579,22.4609375,-20.99609375,5.37109375,34.1796875,0.0
1676924548.2523534,26.85546875,-45.41015625,36.1328125,29.296875,0.0
1676924548.2573571,30.2734375,-45.41015625,20.99609375,9.27734375,0.0
1676924548.2623608,29.296875,-26.85546875,-10.25390625,11.71875,0.0
1676924548.2673645,28.3203125,-23.92578125,-4.39453125,21.97265625,0.0
1676924548.272368,29.296875,-29.296875,10.7421875,26.85546875,0.0
1676924548.2773716,27.83203125,-14.6484375,-22.94921875,45.8984375,0.0
1676924548.2823753,11.71875,-18.06640625,-50.78125,45.8984375,0.0
1676924548.287379,20.5078125,-36.1328125,-30.76171875,34.66796875,0.0
1676924548.2923827,41.50390625,-29.78515625,5.859375,24.90234375,0.0
1676924548.2973862,21.484375,-27.83203125,-18.5546875,3.90625,0.0
1676924548.3023899,-5.859375,-43.45703125,-22.94921875,-5.37109375,0.0
1676924548.3073936,-10.25390625,-49.8046875,33.69140625,-13.671875,0.0
1676924548.3123972,11.23046875,-43.45703125,14.16015625,-10.25390625,0.0
1676924548.3161607,15.13671875,-39.0625,-33.69140625,5.37109375,0.0
1676924548.3199244,2.9296875,-33.203125,-24.90234375,7.32421875,0.0
1676924548.3236878,-0.48828125,-38.57421875,21.484375,-4.8828125,0.0
1676924548.3274512,-2.44140625,-45.41015625,2.9296875,-11.23046875,0.0
1676924548.3312147,16.11328125,-41.9921875,-63.96484375,-8.30078125,0.0
1676924548.334978,25.390625,-43.45703125,-61.5234375,12.20703125,0.0
1676924548.3387418,-7.8125,-28.3203125,3.90625,2.9296875,0.0
1676924548.3425052,3.90625,-16.6015625,40.0390625,3.41796875,0.0
1676924548.3462687,46.38671875,-22.4609375,-35.64453125,12.20703125,0.0
1676924548.3500323,12.20703125,-27.34375,-58.10546875,-3.41796875,0.0
1676924548.3537958,-29.296875,-34.66796875,29.78515625,-23.92578125,0.0
1676924548.3575592,-36.62109375,-40.0390625,-6.34765625,-33.203125,0.0
1676924548.3612688,-35.15625,-53.7109375,-40.52734375,-23.4375,0.0
1676924548.3649783,-29.78515625,-44.921875,-20.01953125,-14.16015625,0.0
1676924548.368688,-41.50390625,-32.71484375,-14.6484375,-10.25390625,0.0
1676924548.3723977,-37.59765625,-28.3203125,-30.2734375,-11.71875,0.0
1676924548.3761072,-18.06640625,-37.109375,-46.38671875,-5.37109375,0.0
1676924548.3798168,12.6953125,-45.8984375,-44.43359375,-0.48828125,0.0
1676924548.3835263,24.4140625,-28.80859375,-13.18359375,-5.37109375,0.0
1676924548.3872359,-13.18359375,-23.92578125,7.32421875,-10.25390625,0.0
1676924548.3909454,-16.11328125,-24.4140625,-48.828125,1.953125,0.0
1676924548.3946552,7.32421875,-20.99609375,-9.765625,1.953125,0.0
1676924548.3983648,-13.18359375,-34.66796875,22.4609375,-32.71484375,0.0
1676924548.4020743,-35.15625,-35.15625,-39.0625,-34.1796875,0.0
1676924548.405823,-32.2265625,-23.92578125,-47.36328125,-17.08984375,0.0
1676924548.4095716,-16.11328125,-26.3671875,-52.734375,-17.08984375,0.0
1676924548.4133205,-8.30078125,-46.38671875,-54.6875,-20.5078125,0.0
1676924548.4170692,-22.4609375,-50.78125,-12.6953125,-24.90234375,0.0
1676924548.4208179,-28.80859375,-35.64453125,5.37109375,-27.83203125,0.0
1676924548.4245667,-2.44140625,-20.5078125,-27.34375,-26.3671875,0.0
1676924548.4283154,0.9765625,-15.625,-39.55078125,-18.06640625,0.0
1676924548.432064,-14.16015625,-38.0859375,-49.8046875,-14.6484375,0.0
1676924548.4358127,-18.5546875,-60.05859375,-46.875,0.48828125,0.0
1676924548.4395614,-16.11328125,-43.9453125,-0.9765625,1.46484375,0.0
1676924548.4433103,-14.6484375,-22.4609375,-31.73828125,-25.87890625,0.0
1676924548.447059,-25.390625,-27.83203125,-48.828125,-34.66796875,0.0
1676924548.4508054,-31.25,-23.92578125,-3.41796875,-13.671875,0.0
1676924548.4545517,-31.25,-21.97265625,4.39453125,-14.16015625,0.0
1676924548.4582982,-4.39453125,-30.76171875,-37.59765625,-33.203125,0.0
1676924548.4620447,11.71875,-25.390625,-38.0859375,-19.53125,0.0
1676924548.465791,14.16015625,-22.4609375,-33.69140625,-13.18359375,0.0
1676924548.4695375,-13.671875,-36.62109375,-52.24609375,-20.99609375,0.0
1676924548.473284,-21.97265625,-34.66796875,-59.5703125,-14.16015625,0.0
1676924548.4770303,-9.27734375,-16.11328125,-87.890625,-9.27734375,0.0
1676924548.4807768,-33.69140625,-24.4140625,-38.0859375,-37.59765625,0.0
1676924548.4845233,-37.109375,-25.390625,10.25390625,-43.9453125,0.0
1676924548.4882696,-18.5546875,-22.4609375,-30.2734375,-25.87890625,0.0
1676924548.492016,-0.9765625,-31.73828125,-51.26953125,-27.83203125,0.0
1676924548.4957778,-16.6015625,-30.76171875,-24.90234375,-24.90234375,0.0
1676924548.4995399,-18.06640625,-23.4375,-23.4375,-2.9296875,0.0
1676924548.5033016,1.46484375,-38.0859375,-68.359375,-14.6484375,0.0
1676924548.5070634,-24.90234375,-52.24609375,-52.24609375,-35.64453125,0.0
1676924548.5108252,-43.45703125,-38.57421875,-6.8359375,-25.87890625,0.0
1676924548.514587,-51.26953125,-33.69140625,-17.08984375,-30.2734375,0.0
1676924548.518349,-43.45703125,-22.4609375,-40.52734375,-27.34375,0.0
1676924548.5221107,-14.6484375,-12.6953125,-15.13671875,-17.08984375,0.0
1676924548.5258725,-16.11328125,-19.53125,25.87890625,-28.80859375,0.0
1676924548.5296345,-42.96875,-19.53125,4.8828125,-16.6015625,0.0
1676924548.5333962,-33.69140625,-17.578125,4.8828125,4.39453125,0.0
1676924548.537158,-5.37109375,-38.57421875,-9.765625,-14.16015625,0.0
1676924548.5409646,-26.85546875,-59.08203125,-22.94921875,-42.48046875,0.0
1676924548.5447714,-46.875,-51.7578125,-21.97265625,-46.38671875,0.0
1676924548.548578,-67.3828125,-38.0859375,-14.6484375,-34.1796875,0.0
1676924548.5523849,-73.2421875,-33.203125,3.41796875,-31.73828125,0.0
1676924548.5561914,-48.828125,-24.4140625,2.9296875,-30.2734375,0.0
1676924548.559998,-44.43359375,-11.23046875,-13.18359375,-16.6015625,0.0
1676924548.5638049,-61.03515625,-12.20703125,-39.55078125,-15.625,0.0
1676924548.5676115,-51.26953125,-23.92578125,-1.953125,-26.3671875,0.0
1676924548.5714183,-32.2265625,-29.78515625,37.109375,-24.90234375,0.0
1676924548.5752249,-40.52734375,-41.9921875,8.30078125,-20.99609375,0.0
1676924548.5790317,-39.0625,-42.96875,4.8828125,-24.4140625,0.0
1676924548.5828383,-37.109375,-26.3671875,-1.953125,-43.9453125,0.0
1676924548.5865614,-54.6875,-26.85546875,-19.53125,-49.8046875,0.0
1676924548.5902848,-70.3125,-52.24609375,-26.3671875,-22.94921875,0.0
1676924548.594008,-64.453125,-51.26953125,-7.32421875,3.41796875,0.0
1676924548.5977314,-64.94140625,-23.4375,14.16015625,-0.48828125,0.0
1676924548.6014545,-49.8046875,-13.18359375,-14.6484375,-15.625,0.0
1676924548.6051779,-36.62109375,-18.5546875,-60.546875,-4.39453125,0.0
1676924548.608901,-59.5703125,-21.97265625,-63.96484375,3.90625,0.0
1676924548.6126242,-69.3359375,-36.62109375,-3.41796875,-12.20703125,0.0
1676924548.6163476,-65.4296875,-52.734375,8.30078125,-28.3203125,0.0
1676924548.6200707,-64.453125,-43.9453125,-49.8046875,-26.3671875,0.0
1676924548.623794,-75.1953125,-23.4375,-31.73828125,-21.484375,0.0
1676924548.6275172,-81.54296875,-18.06640625,22.94921875,-42.48046875,0.0
1676924548.63251,-73.2421875,-26.3671875,-4.39453125,-39.55078125,0.0
1676924548.6375027,-55.6640625,-38.0859375,-10.25390625,-12.20703125,0.0
1676924548.6424954,-56.15234375,-38.57421875,-14.6484375,-2.44140625,0.0
1676924548.647488,-73.73046875,-27.34375,-13.18359375,-18.06640625,0.0
1676924548.6524808,-67.3828125,-28.80859375,-14.6484375,-24.90234375,0.0
1676924548.6574736,-51.7578125,-40.52734375,-47.8515625,-15.625,0.0
1676924548.6624663,-44.43359375,-28.3203125,-18.06640625,-10.7421875,0.0
1676924548.667459,-54.19921875,-0.48828125,11.71875,-4.39453125,0.0
1676924548.6724517,-76.66015625,-18.5546875,-19.53125,-14.6484375,0.0
1676924548.6774445,-60.546875,-48.828125,-56.640625,-37.109375,0.0
1676924548.6824372,-52.734375,-33.203125,-9.27734375,-46.38671875,0.0
1676924548.68743,-53.7109375,-9.765625,13.671875,-27.83203125,0.0
1676924548.69118,-40.0390625,-19.53125,-30.76171875,-23.4375,0.0
1676924548.69493,-50.78125,-32.2265625,-10.7421875,-33.69140625,0.0
1676924548.6986804,-59.5703125,-45.8984375,2.44140625,-29.296875,0.0
1676924548.7024305,-63.4765625,-41.50390625,-18.06640625,-36.1328125,0.0
1676924548.7061806,-61.5234375,-36.62109375,-26.3671875,-41.9921875,0.0
1676924548.7099307,-55.17578125,-47.8515625,-47.36328125,-18.5546875,0.0
1676924548.7136807,-31.25,-22.94921875,-28.3203125,-14.6484375,0.0
1676924548.7174308,-17.578125,-5.37109375,11.71875,-20.99609375,0.0
1676924548.721181,-28.80859375,-21.97265625,-50.78125,0.9765625,0.0
1676924548.7249312,-52.734375,-34.1796875,-54.19921875,-16.11328125,0.0
1676924548.7286813,-55.17578125,-28.3203125,21.484375,-33.203125,0.0
1676924548.7324314,-42.48046875,-20.5078125,10.25390625,-13.18359375,0.0
1676924548.7361815,-65.4296875,-30.76171875,-10.25390625,-9.27734375,0.0
1676924548.7399313,-76.66015625,-44.921875,-6.34765625,-32.71484375,0.0
1676924548.7436814,-66.40625,-41.50390625,1.46484375,-42.48046875,0.0
1676924548.7474313,-44.921875,-29.78515625,-19.04296875,-36.62109375,0.0
1676924548.7511814,-49.31640625,-18.06640625,-27.34375,-40.52734375,0.0
1676924548.7549314,-89.35546875,-26.3671875,-26.3671875,-54.19921875,0.0
1676924548.7586813,-91.796875,-31.73828125,-13.671875,-46.875,0.0
1676924548.7624314,-69.82421875,-24.90234375,-8.30078125,-40.52734375,0.0
1676924548.7661812,-67.87109375,-40.0390625,-58.59375,-15.13671875,0.0
1676924548.7699313,-83.0078125,-45.8984375,-3.41796875,-10.25390625,0.0
1676924548.7736812,-76.171875,-36.62109375,20.99609375,-28.80859375,0.0
1676924548.7774312,-66.89453125,-48.33984375,-34.66796875,-29.296875,0.0
1676924548.7811816,-67.87109375,-35.64453125,-5.37109375,-43.9453125,0.0
1676924548.7849321,-83.0078125,-31.73828125,1.46484375,-35.15625,0.0
1676924548.7886825,-97.16796875,-40.0390625,-39.0625,-36.62109375,0.0
1676924548.792433,-73.2421875,-22.4609375,-70.3125,-33.69140625,0.0
1676924548.7961833,-57.6171875,-16.6015625,-42.48046875,-19.04296875,0.0
1676924548.799934,-69.82421875,-8.7890625,0.9765625,-12.20703125,0.0
1676924548.8036842,-77.1484375,-18.5546875,-5.37109375,-15.625,0.0
1676924548.8074346,-57.6171875,-47.8515625,-54.6875,-6.8359375,0.0
1676924548.8111851,-71.77734375,-40.0390625,-74.21875,-12.6953125,0.0
1676924548.8149354,-100.09765625,-22.4609375,-12.6953125,-30.2734375,0.0
1676924548.818686,-103.02734375,-39.55078125,-37.109375,-33.203125,0.0
1676924548.8224363,-102.05078125,-76.66015625,-53.22265625,-32.71484375,0.0
1676924548.8262513,-89.35546875,-61.5234375,-32.2265625,-23.4375,0.0
1676924548.8300662,-78.61328125,-10.7421875,-36.62109375,-9.27734375,0.0
1676924548.833881,-92.7734375,-1.46484375,-22.4609375,-19.04296875,0.0
1676924548.8376958,-100.09765625,-29.78515625,-3.41796875,-35.64453125,0.0
1676924548.8415108,-80.078125,-37.109375,-9.27734375,-29.78515625,0.0
1676924548.8453257,-69.82421875,-21.484375,-13.18359375,-22.94921875,0.0
1676924548.8491406,-77.63671875,-22.4609375,10.25390625,-21.484375,0.0
1676924548.8529556,-83.0078125,-34.1796875,-27.34375,-32.2265625,0.0
1676924548.8567705,-103.515625,-45.8984375,-12.6953125,-46.38671875,0.0
1676924548.8605852,-106.4453125,-58.59375,22.4609375,-40.52734375,0.0
1676924548.8644001,-103.02734375,-54.19921875,-10.7421875,-40.0390625,0.0
1676924548.868215,-97.16796875,-32.71484375,4.8828125,-43.9453125,0.0
1676924548.871871,-77.1484375,-32.2265625,4.39453125,-36.62109375,0.0
1676924548.875527,-74.70703125,-31.73828125,-12.20703125,-42.48046875,0.0
1676924548.879183,-74.21875,-17.578125,-9.765625,-14.6484375,0.0
1676924548.882839,-69.82421875,-19.04296875,8.7890625,4.39453125,0.0
1676924548.8864949,-51.26953125,-34.1796875,-1.953125,1.46484375,0.0
1676924548.890151,-51.26953125,-35.64453125,-36.62109375,-14.6484375,0.0
1676924548.893807,-75.68359375,-29.296875,-70.3125,-45.8984375,0.0
1676924548.8974628,-85.9375,-34.66796875,-53.22265625,-45.41015625,0.0
1676924548.9011188,-94.7265625,-40.52734375,8.7890625,-19.53125,0.0
1676924548.9047747,-74.70703125,-60.546875,-36.1328125,-8.30078125,0.0
1676924548.9084308,-74.21875,-75.1953125,-61.03515625,-31.73828125,0.0
1676924548.9120867,-103.515625,-40.52734375,-12.20703125,-36.62109375,0.0
1676924548.915879,-114.74609375,-13.671875,14.16015625,-42.96875,0.0
1676924548.9196715,-91.30859375,-21.97265625,-16.6015625,-41.015625,0.0
1676924548.9234638,-77.63671875,-25.87890625,-17.578125,-27.83203125,0.0
1676924548.927256,-100.5859375,-27.34375,13.671875,-32.71484375,0.0
1676924548.9310484,-110.83984375,-36.1328125,9.765625,-32.71484375,0.0
1676924548.9348407,-104.00390625,-44.43359375,-24.4140625,-20.5078125,0.0
1676924548.9386332,-75.1953125,-42.48046875,-56.15234375,-8.7890625,0.0
1676924548.9424255,-73.2421875,-35.15625,-10.7421875,-20.01953125,0.0
1676924548.9462178,-103.02734375,-37.109375,22.4609375,-51.7578125,0.0
1676924548.9500103,-102.5390625,-42.48046875,-27.34375,-58.59375,0.0
1676924548.9538026,-79.1015625,-29.296875,-28.80859375,-48.828125,0.0
1676924548.9575949,-85.9375,-15.625,-1.46484375,-42.96875,0.0
1676924548.9613988,-104.00390625,-29.78515625,-20.5078125,-40.0390625,0.0
1676924548.9652028,-92.7734375,-30.76171875,-31.25,-34.66796875,0.0
1676924548.9690065,-71.77734375,-17.578125,-5.859375,-24.4140625,0.0
1676924548.9728105,-63.96484375,-24.4140625,19.04296875,-25.87890625,0.0
1676924548.9766145,-80.078125,-40.52734375,3.41796875,-31.73828125,0.0
1676924548.9804184,-90.33203125,-56.640625,-57.6171875,-18.5546875,0.0
1676924548.9842224,-74.21875,-70.3125,-48.828125,-16.6015625,0.0
1676924548.9880264,-57.6171875,-51.7578125,28.80859375,-19.53125,0.0
1676924548.9918303,-70.80078125,-22.4609375,18.06640625,-13.18359375,0.0
1676924548.995634,-84.47265625,-17.578125,-12.6953125,-18.5546875,0.0
1676924548.999438,-76.66015625,-24.4140625,-9.27734375,-20.01953125,0.0
1676924549.003242,-86.42578125,-24.90234375,-1.953125,-21.484375,2.0
1676924549.0081906,-89.35546875,-16.11328125,-25.87890625,-32.2265625,0.0
1676924549.013139,-75.1953125,-32.71484375,-21.97265625,-25.87890625,0.0
1676924549.0180876,-74.21875,-38.57421875,10.7421875,2.44140625,0.0
1676924549.023036,-61.03515625,-24.90234375,2.9296875,6.34765625,0.0
1676924549.0279846,-58.10546875,-25.390625,15.13671875,-8.30078125,0.0
1676924549.0329332,-81.54296875,-26.3671875,-18.06640625,-10.7421875,0.0
1676924549.0378816,-86.9140625,-22.4609375,-13.671875,-5.37109375,0.0
1676924549.0428302,-73.73046875,-22.4609375,24.90234375,-14.6484375,0.0
1676924549.0477786,-69.82421875,-31.25,-30.76171875,-21.484375,0.0
1676924549.0527272,-78.61328125,-16.11328125,-29.78515625,-10.7421875,0.0
1676924549.0576756,-98.14453125,-20.01953125,-20.5078125,-25.390625,0.0
1676924549.0626242,-83.49609375,-41.9921875,-24.4140625,-46.875,0.0
1676924549.0663433,-72.75390625,-22.94921875,-22.94921875,-39.0625,0.0
1676924549.0700626,-86.9140625,-17.08984375,-20.01953125,-32.71484375,0.0
1676924549.073782,-92.7734375,-27.83203125,20.5078125,-19.04296875,0.0
1676924549.077501,-81.54296875,-9.765625,2.44140625,0.0,0.0
1676924549.0812201,-68.359375,-8.7890625,-38.0859375,-19.04296875,0.0
1676924549.0849395,-75.1953125,-31.73828125,-37.109375,-33.203125,0.0
1676924549.0886588,-104.98046875,-35.64453125,-30.76171875,-40.52734375,0.0
1676924549.092378,-105.95703125,-28.3203125,-11.23046875,-41.9921875,0.0
1676924549.096097,-83.49609375,-46.38671875,-51.7578125,-17.578125,0.0
1676924549.0998163,-68.84765625,-47.8515625,-65.91796875,-6.34765625,0.0
1676924549.1035357,-79.1015625,-23.4375,18.06640625,-23.92578125,0.0
1676924549.1072547,-93.26171875,-22.94921875,10.7421875,-30.2734375,0.0
1676924549.1110106,-77.63671875,-32.2265625,-22.94921875,-27.83203125,0.0
1676924549.1147664,-63.96484375,-31.25,-18.06640625,-33.69140625,0.0
1676924549.1185222,-58.59375,-31.73828125,-2.44140625,-24.90234375,0.0
1676924549.122278,-52.24609375,-13.18359375,-28.3203125,-17.578125,0.0
1676924549.1260338,-57.12890625,-20.01953125,-47.8515625,-37.109375,0.0
1676924549.1297894,-73.2421875,-59.08203125,-23.92578125,-41.50390625,0.0
1676924549.1335452,-74.70703125,-71.77734375,3.41796875,-20.99609375,0.0
1676924549.137301,-72.265625,-56.640625,-16.11328125,-24.90234375,0.0
1676924549.1410568,-70.80078125,-42.48046875,-69.82421875,-38.57421875,0.0
1676924549.1448126,-71.2890625,-36.62109375,-48.828125,-43.45703125,0.0
1676924549.1485684,-58.59375,-24.90234375,-3.90625,-37.109375,0.0
1676924549.1523242,-44.43359375,-28.80859375,-6.8359375,-20.99609375,0.0
1676924549.1573048,-47.8515625,-24.90234375,-28.80859375,-19.53125,0.0
1676924549.1622853,-62.01171875,-26.85546875,-23.4375,-9.765625,0.0
1676924549.1672657,-78.61328125,-34.1796875,-18.5546875,-18.5546875,0.0
1676924549.1722462,-81.54296875,-51.7578125,-9.765625,-21.484375,0.0
1676924549.1772268,-66.89453125,-61.5234375,-19.53125,-19.53125,0.0
1676924549.182207,-66.89453125,-49.31640625,-45.8984375,-47.8515625,0.0
1676924549.1871877,-64.453125,-50.78125,-41.9921875,-51.26953125,0.0
1676924549.1921682,-57.12890625,-38.0859375,-78.125,-16.6015625,0.0
1676924549.1971488,-38.0859375,-20.99609375,-72.75390625,-2.9296875,0.0
1676924549.2021294,-40.0390625,-17.578125,1.953125,-30.76171875,0.0
1676924549.2071097,-62.98828125,-29.78515625,-39.55078125,-53.7109375,0.0
1676924549.2120903,-67.87109375,-36.1328125,-66.40625,-45.8984375,0.0
1676924549.2146904,-61.5234375,-43.9453125,-44.43359375,-33.203125,0.0
1676924549.2172906,-49.8046875,-50.78125,-36.1328125,-26.3671875,0.0
1676924549.2198906,-51.26953125,-63.96484375,-40.0390625,-32.2265625,0.0
1676924549.2224908,-50.78125,-49.31640625,-39.0625,-28.3203125,0.0
1676924549.225091,-58.59375,-16.11328125,-30.2734375,-17.578125,0.0
1676924549.2276912,-58.10546875,-23.4375,-53.22265625,-28.80859375,0.0
1676924549.2302914,-42.96875,-23.92578125,-57.12890625,-16.11328125,0.0
1676924549.2328916,-53.7109375,-39.55078125,-49.8046875,-11.23046875,0.0
1676924549.2354918,-76.66015625,-58.10546875,-18.5546875,-25.390625,0.0
1676924549.2380917,-66.40625,-24.90234375,-11.23046875,-38.57421875,0.0
1676924549.240692,-57.12890625,-23.4375,-55.6640625,-40.52734375,0.0
1676924549.243292,-72.75390625,-46.875,-80.078125,-29.78515625,0.0
1676924549.2469432,-74.70703125,-48.828125,-25.390625,-59.5703125,0.0
1676924549.2505946,-72.265625,-53.7109375,-6.34765625,-55.17578125,0.0
1676924549.2542458,-83.49609375,-62.5,-43.45703125,-31.73828125,0.0
1676924549.257897,-82.03125,-43.45703125,-51.7578125,-46.38671875,0.0
1676924549.2615483,-69.82421875,-9.27734375,-35.64453125,-42.48046875,0.0
1676924549.2651994,-58.59375,-12.20703125,-15.625,-20.99609375,0.0
1676924549.2688506,-57.12890625,-49.8046875,-44.43359375,-32.71484375,0.0
1676924549.272502,-48.33984375,-54.6875,-77.1484375,-59.5703125,0.0
1676924549.276153,-32.2265625,-26.85546875,-19.04296875,-72.75390625,0.0
1676924549.2798042,-47.8515625,-20.99609375,-2.9296875,-55.17578125,0.0
1676924549.2834556,-58.10546875,-15.625,-16.6015625,-36.62109375,0.0
1676924549.2871068,-44.921875,-16.6015625,-15.13671875,-36.62109375,0.0
1676924549.2908504,-45.8984375,-30.2734375,-17.578125,-24.90234375,0.0
1676924549.2945943,-45.8984375,-45.8984375,-34.66796875,-31.25,0.0
1676924549.298338,-29.78515625,-29.78515625,-43.45703125,-32.71484375,0.0
1676924549.3020816,-31.73828125,-9.765625,-13.671875,4.8828125,0.0
1676924549.3058255,-40.52734375,-12.20703125,-3.90625,16.6015625,0.0
1676924549.3095691,-51.26953125,-26.3671875,-21.484375,-33.203125,0.0
1676924549.3133128,-65.91796875,-39.0625,-72.75390625,-52.24609375,0.0
1676924549.3170567,-68.359375,-56.15234375,-55.17578125,-40.0390625,0.0
1676924549.3208003,-54.19921875,-52.734375,5.859375,-45.41015625,0.0
1676924549.324544,-45.41015625,-24.90234375,-16.11328125,-39.0625,0.0
1676924549.3282878,-56.640625,-35.64453125,-40.52734375,-35.15625,0.0
1676924549.3320315,-74.70703125,-48.828125,-9.27734375,-21.484375,0.0
1676924549.335811,-70.80078125,-37.59765625,-12.6953125,-10.7421875,0.0
1676924549.3395903,-45.8984375,-23.4375,-38.0859375,-23.92578125,0.0
1676924549.3433695,-58.10546875,-20.5078125,-28.80859375,-16.6015625,0.0
1676924549.347149,-96.19140625,-30.2734375,-18.5546875,-20.5078125,0.0
1676924549.3509283,-96.6796875,-44.921875,-36.1328125,-20.99609375,0.0
1676924549.3547077,-63.4765625,-51.7578125,-54.19921875,-24.90234375,0.0
1676924549.3584871,-52.24609375,-39.0625,-29.296875,0.9765625,0.0
1676924549.3622665,-67.3828125,-26.85546875,8.7890625,12.20703125,0.0
1676924549.366046,-65.4296875,-25.390625,2.9296875,-30.76171875,0.0
1676924549.3698251,-61.5234375,-26.3671875,-30.76171875,-30.2734375,0.0
1676924549.3736045,-64.94140625,-19.04296875,-31.25,-22.4609375,0.0
1676924549.377384,-63.4765625,-7.8125,11.23046875,-23.92578125,0.0
1676924549.3823867,-74.70703125,-16.11328125,5.859375,-15.625,0.0
1676924549.3873894,-55.17578125,-18.5546875,-41.015625,-0.48828125,0.0
1676924549.3923922,-55.17578125,-9.27734375,-18.5546875,0.9765625,0.0
1676924549.397395,-76.66015625,-36.1328125,17.578125,-5.859375,0.0
1676924549.4023976,-55.17578125,-41.50390625,-15.13671875,1.46484375,0.0
1676924549.4074006,-31.25,-19.04296875,-33.203125,-20.5078125,0.0
1676924549.4124033,-51.26953125,-39.0625,2.9296875,-26.85546875,0.0
1676924549.417406,-85.9375,-43.45703125,48.33984375,-17.578125,0.0
1676924549.4224088,-83.0078125,-14.6484375,16.11328125,-28.3203125,0.0
1676924549.4274116,-70.80078125,-11.71875,-23.4375,-23.4375,0.0
1676924549.4324143,-81.54296875,-9.765625,4.39453125,-21.97265625,0.0
1676924549.437417,-83.0078125,-1.46484375,4.8828125,-12.20703125,0.0
1676924549.441169,-53.22265625,-11.23046875,-19.53125,7.32421875,0.0
1676924549.444921,-41.015625,-40.52734375,-23.4375,-19.53125,0.0
1676924549.4486732,-55.17578125,-38.0859375,-19.04296875,-34.66796875,0.0
1676924549.4524252,-54.6875,-23.4375,-14.6484375,-20.01953125,0.0
1676924549.4561772,-60.546875,-42.48046875,-32.71484375,-20.01953125,0.0
1676924549.4599292,-64.94140625,-62.98828125,-29.78515625,-34.66796875,0.0
1676924549.4636812,-57.6171875,-43.9453125,3.41796875,-41.015625,0.0
1676924549.4674332,-47.36328125,-21.484375,16.6015625,-27.34375,0.0
1676924549.4711852,-38.57421875,-14.6484375,-28.3203125,-1.953125,0.0
1676924549.4749374,-36.62109375,-17.578125,-45.41015625,-8.7890625,0.0
1676924549.4786894,-39.0625,-19.04296875,7.32421875,-23.92578125,0.0
1676924549.4824414,-58.59375,-51.26953125,-24.4140625,-7.32421875,0.0
1676924549.4861941,-58.10546875,-64.453125,-16.6015625,-13.671875,0.0
1676924549.489947,-50.78125,-54.19921875,28.80859375,-44.921875,0.0
1676924549.4936998,-44.921875,-39.55078125,11.23046875,-36.62109375,0.0
1676924549.4974525,-43.9453125,-23.4375,-25.390625,-25.87890625,0.0
1676924549.5012054,-56.640625,-25.87890625,-16.11328125,-32.2265625,0.0
1676924549.5049582,-61.5234375,-16.6015625,12.6953125,-28.3203125,0.0
1676924549.5087109,-45.41015625,-15.625,-2.9296875,-15.625,0.0
1676924549.5124638,-32.2265625,-27.83203125,-20.01953125,-19.53125,0.0
1676924549.5162165,-52.24609375,-48.33984375,-41.015625,-35.64453125,0.0
1676924549.5199692,-56.15234375,-51.7578125,-8.30078125,-48.33984375,0.0
1676924549.5237222,-55.6640625,-48.828125,33.203125,-51.7578125,0.0
1676924549.5274749,-53.22265625,-54.6875,-2.9296875,-39.55078125,0.0
1676924549.5312061,-39.55078125,-41.50390625,-12.6953125,-26.3671875,0.0
1676924549.5349374,-46.875,-18.06640625,24.4140625,-15.625,0.0
1676924549.5386686,-34.1796875,4.39453125,42.48046875,9.765625,0.0
1676924549.5424001,-20.99609375,-4.8828125,-5.37109375,-3.90625,0.0
1676924549.5461314,-37.109375,-17.578125,-11.23046875,-52.24609375,0.0
1676924549.5498626,-61.03515625,-16.6015625,16.11328125,-43.45703125,0.0
1676924549.5535939,-52.734375,-23.4375,7.32421875,-15.13671875,0.0
1676924549.5573251,-5.859375,-28.3203125,-20.01953125,-13.18359375,0.0
1676924549.5610566,-14.16015625,-40.0390625,-8.30078125,-41.50390625,0.0
1676924549.5647879,-55.6640625,-53.7109375,24.4140625,-59.5703125,0.0
1676924549.568519,-71.77734375,-35.64453125,32.71484375,-50.29296875,0.0
1676924549.5722504,-54.19921875,-23.4375,10.7421875,-10.7421875,0.0
1676924549.5760162,-38.0859375,-30.76171875,16.11328125,-9.27734375,0.0
1676924549.5797818,-39.55078125,-14.16015625,51.26953125,-36.62109375,0.0
1676924549.5835476,-53.22265625,-10.25390625,25.390625,-48.828125,0.0
1676924549.5873134,-66.89453125,-16.6015625,12.6953125,-25.87890625,0.0
1676924549.591079,-59.08203125,-17.578125,20.01953125,-14.16015625,0.0
1676924549.5948448,-52.24609375,-28.3203125,21.97265625,-7.32421875,0.0
1676924549.5986106,-60.546875,-44.43359375,3.90625,5.859375,0.0
1676924549.6023762,-70.3125,-33.69140625,-27.83203125,-36.62109375,0.0
1676924549.606142,-54.19921875,-10.25390625,25.87890625,-47.36328125,0.0
1676924549.6099079,-36.1328125,-27.83203125,58.59375,-28.3203125,0.0
1676924549.6136734,-52.734375,-44.43359375,17.08984375,-48.828125,0.0
1676924549.6174393,-49.31640625,-27.83203125,-11.23046875,-41.9921875,0.0
1676924549.6212819,-39.0625,-30.76171875,3.90625,-24.4140625,0.0
1676924549.6251245,-39.0625,-35.15625,14.16015625,-34.1796875,0.0
1676924549.6289668,-41.9921875,-33.203125,0.48828125,-29.78515625,0.0
1676924549.6328094,-58.10546875,-31.73828125,2.44140625,-24.4140625,0.0
1676924549.636652,-52.24609375,-15.13671875,3.90625,-30.76171875,0.0
1676924549.6404946,-28.3203125,3.41796875,-12.20703125,-28.3203125,0.0
1676924549.6443372,-44.43359375,-4.39453125,-30.76171875,-19.04296875,0.0
1676924549.6481798,-58.10546875,-32.2265625,-12.20703125,-25.390625,0.0
1676924549.6520224,-54.19921875,-44.921875,30.2734375,-35.64453125,0.0
1676924549.6558647,-38.57421875,-43.9453125,-9.765625,-29.296875,0.0
1676924549.6597073,-9.765625,-37.109375,-6.8359375,-23.4375,0.0
1676924549.66355,-31.73828125,-36.1328125,24.90234375,-18.06640625,0.0
1676924549.667182,-43.9453125,-41.015625,14.6484375,-7.32421875,0.0
1676924549.670814,-38.0859375,-39.0625,-23.92578125,-18.06640625,0.0
1676924549.674446,-42.96875,-18.06640625,-44.921875,-45.41015625,0.0
1676924549.6780782,-53.22265625,-12.6953125,4.8828125,-45.41015625,0.0
1676924549.6817102,-56.640625,-26.3671875,23.4375,-36.1328125,0.0
1676924549.6853423,-46.38671875,-45.41015625,-17.578125,-23.92578125,0.0
1676924549.6889744,-40.0390625,-44.43359375,-74.70703125,-22.4609375,0.0
1676924549.6926064,-56.15234375,-33.69140625,-41.015625,-40.52734375,0.0
1676924549.6962385,-76.66015625,-26.3671875,39.55078125,-35.64453125,0.0
1676924549.6998706,-77.63671875,-27.34375,7.32421875,-40.0390625,0.0
1676924549.7035027,-63.96484375,-33.69140625,-3.41796875,-17.08984375,0.0
1676924549.7071347,-57.6171875,-25.87890625,22.4609375,-5.37109375,0.0
1676924549.7108905,-70.3125,-18.06640625,30.2734375,-14.16015625,0.0
1676924549.7146463,-79.58984375,-19.53125,-2.9296875,-21.97265625,0.0
1676924549.718402,-77.1484375,-42.96875,-17.578125,-44.43359375,0.0
1676924549.7221577,-84.47265625,-39.55078125,8.30078125,-36.1328125,0.0
1676924549.7259135,-76.66015625,-17.578125,2.44140625,-18.5546875,0.0
1676924549.729669,-64.94140625,-19.04296875,-51.26953125,-15.13671875,0.0
1676924549.733425,-57.12890625,-29.296875,-32.71484375,-24.4140625,0.0
1676924549.7371807,-42.48046875,-40.52734375,38.57421875,-40.52734375,0.0
1676924549.7409365,-51.26953125,-30.76171875,22.4609375,-42.96875,0.0
1676924549.7446923,-78.61328125,-20.01953125,-19.53125,-36.62109375,0.0
1676924549.748448,-76.66015625,-39.0625,2.44140625,-38.0859375,0.0
1676924549.7522037,-60.546875,-39.0625,39.0625,-36.1328125,0.0
1676924549.757194,-70.80078125,-26.3671875,5.859375,-40.52734375,0.0
1676924549.7621846,-90.8203125,-39.0625,6.8359375,-50.29296875,0.0
1676924549.767175,-86.9140625,-31.25,20.99609375,-37.59765625,0.0
1676924549.7721653,-77.1484375,-10.25390625,13.671875,-47.36328125,0.0
1676924549.7771556,-91.30859375,-14.6484375,-5.37109375,-53.22265625,0.0
1676924549.782146,-118.65234375,-25.390625,-42.48046875,-43.45703125,0.0
1676924549.7871366,-127.9296875,-38.57421875,-38.0859375,-60.05859375,0.0
1676924549.792127,-114.74609375,-55.6640625,-6.8359375,-49.8046875,0.0
1676924549.7971172,-95.21484375,-42.96875,-10.25390625,-1.46484375,0.0
1676924549.8021078,-104.00390625,-23.92578125,-36.62109375,1.953125,0.0
1676924549.8070982,-113.28125,-28.3203125,5.859375,-25.390625,0.0
1676924549.8120885,-97.16796875,-35.64453125,26.85546875,-39.55078125,0.0
1676924549.8158329,-98.14453125,-30.76171875,-8.30078125,-73.2421875,0.0
1676924549.8195772,-100.5859375,-29.78515625,-11.23046875,-44.921875,0.0
1676924549.8233218,-102.05078125,-21.97265625,-10.25390625,-14.6484375,0.0
1676924549.8270662,-99.609375,-25.390625,-20.5078125,-51.7578125,0.0
1676924549.8308105,-83.0078125,-43.45703125,-31.73828125,-28.80859375,0.0
1676924549.8345551,-83.984375,-39.55078125,-37.109375,-7.32421875,0.0
1676924549.8382995,-89.35546875,-14.6484375,-14.16015625,-9.765625,0.0
1676924549.8420439,-83.49609375,-15.13671875,11.71875,-21.484375,0.0
1676924549.8457882,-73.2421875,-34.66796875,-26.3671875,-41.9921875,0.0
1676924549.8495326,-77.63671875,-39.0625,-41.9921875,-30.76171875,0.0
1676924549.8532772,-83.984375,-29.296875,19.04296875,-16.6015625,0.0
1676924549.8570216,-80.56640625,-33.69140625,6.34765625,-29.296875,2.0
1676924549.8608792,-80.078125,-50.29296875,-19.53125,-55.17578125,0.0
1676924549.8647368,-77.63671875,-49.31640625,-8.30078125,-51.26953125,0.0
1676924549.8685944,-92.7734375,-38.0859375,7.8125,-56.15234375,0.0
1676924549.872452,-107.91015625,-28.3203125,-15.625,-45.41015625,0.0
1676924549.8763096,-93.75,-29.296875,-38.57421875,-17.08984375,0.0
1676924549.8801675,-59.5703125,-28.80859375,-30.2734375,1.46484375,0.0
1676924549.884025,-63.4765625,-20.01953125,-9.27734375,-16.11328125,0.0
1676924549.8878827,-81.54296875,-28.3203125,-14.16015625,-25.87890625,0.0
1676924549.8917403,-75.68359375,-41.50390625,-56.640625,-16.6015625,0.0
1676924549.895598,-74.70703125,-32.2265625,-16.6015625,-38.0859375,0.0
1676924549.8994555,-67.3828125,-45.8984375,-2.9296875,-41.50390625,0.0
1676924549.9033132,-72.75390625,-54.19921875,-42.48046875,-23.92578125,0.0
1676924549.906976,-82.51953125,-25.390625,-23.92578125,-23.92578125,0.0
1676924549.910639,-66.89453125,-17.08984375,-2.44140625,-20.01953125,0.0
1676924549.9143019,-36.1328125,-17.08984375,-4.8828125,-13.671875,0.0
1676924549.9179647,-46.38671875,-22.4609375,-23.4375,-30.2734375,0.0
1676924549.9216278,-66.89453125,-39.55078125,-35.64453125,-22.4609375,0.0
1676924549.9252906,-43.9453125,-49.31640625,-31.73828125,-11.71875,0.0
1676924549.9289534,-32.2265625,-38.0859375,-16.6015625,-22.94921875,0.0
1676924549.9326165,-31.25,-28.3203125,-55.6640625,-35.64453125,0.0
1676924549.9362793,-37.59765625,-34.1796875,-82.51953125,-46.875,0.0
1676924549.9399421,-36.62109375,-34.66796875,-6.8359375,-38.57421875,0.0
1676924549.9436052,-7.32421875,-30.2734375,0.48828125,-27.83203125,0.0
1676924549.947268,-11.71875,-23.4375,-16.6015625,-16.11328125,0.0
1676924549.9510329,-35.15625,-11.23046875,-24.90234375,-5.859375,0.0
1676924549.9547975,-30.2734375,-19.53125,-24.90234375,-20.01953125,0.0
1676924549.9585624,-15.13671875,-56.15234375,-16.6015625,-33.203125,0.0
1676924549.962327,-6.8359375,-51.26953125,-23.92578125,-23.92578125,0.0
1676924549.9660919,-35.15625,-16.6015625,-31.73828125,-6.8359375,0.0
1676924549.9698567,-54.6875,-11.71875,-41.015625,-16.11328125,0.0
1676924549.9736214,-30.76171875,-23.92578125,-34.66796875,-27.34375,0.0
1676924549.9773862,-19.04296875,-39.55078125,-69.3359375,-0.48828125,0.0
1676924549.9811509,-42.48046875,-50.29296875,-54.6875,-12.20703125,0.0
1676924549.9849157,-62.01171875,-54.19921875,-6.34765625,-29.78515625,0.0
1676924549.9886804,-49.31640625,-48.828125,-39.0625,-35.15625,0.0
1676924549.9924452,-42.48046875,-41.9921875,-39.0625,-50.29296875,0.0
1676924549.996162,-42.48046875,-33.203125,-2.44140625,-39.55078125,0.0
1676924549.9998786,-33.203125,-29.78515625,0.0,-20.01953125,0.0
1676924550.0035954,-35.15625,-30.2734375,-20.5078125,-9.765625,0.0
1676924550.0073118,-40.52734375,-26.85546875,-23.4375,-11.23046875,0.0
1676924550.0110285,-51.7578125,-36.62109375,-26.3671875,-25.87890625,0.0
1676924550.0147452,-52.24609375,-45.8984375,-38.57421875,-31.25,0.0
1676924550.018462,-28.80859375,-34.66796875,-57.6171875,-22.94921875,0.0
1676924550.0221786,0.0,-22.94921875,-51.7578125,-8.7890625,0.0
1676924550.025895,-4.39453125,-31.73828125,-6.8359375,-4.8828125,0.0
1676924550.0296118,-20.01953125,-52.24609375,-5.37109375,-23.92578125,0.0
1676924550.0333285,-8.7890625,-52.734375,-8.7890625,-34.1796875,0.0
1676924550.0370452,6.8359375,-42.96875,5.37109375,-40.0390625,0.0
1676924550.0408945,4.8828125,-27.83203125,5.37109375,-31.25,0.0
1676924550.0447438,-2.9296875,-30.76171875,-10.25390625,-16.11328125,0.0
1676924550.048593,0.9765625,-45.8984375,-27.34375,-20.5078125,0.0
1676924550.0524423,12.6953125,-30.2734375,-3.90625,-18.5546875,0.0
1676924550.0562916,20.5078125,-21.97265625,-1.953125,-3.90625,0.0
1676924550.0601406,5.37109375,-41.50390625,-28.3203125,-7.32421875,0.0
1676924550.0639899,-13.671875,-29.78515625,-44.43359375,-18.5546875,0.0
1676924550.0678391,0.48828125,-19.53125,-22.4609375,-22.94921875,0.0
1676924550.0716884,-4.8828125,-42.96875,-14.6484375,-44.921875,0.0
1676924550.0755377,-13.18359375,-42.48046875,-35.64453125,-45.41015625,0.0
1676924550.079387,-30.76171875,-38.0859375,-50.29296875,-41.015625,0.0
1676924550.0832362,-76.66015625,-52.734375,-26.3671875,-45.41015625,0.0
1676924550.0870132,-69.82421875,-58.10546875,-1.953125,-62.5,0.0
1676924550.0907903,-47.8515625,-47.36328125,-39.0625,-58.59375,0.0
1676924550.0945673,-46.875,-37.59765625,-37.109375,-22.4609375,0.0
1676924550.0983443,-24.90234375,-18.5546875,-18.06640625,0.0,0.0
1676924550.1021214,-28.3203125,-20.5078125,-29.296875,-14.6484375,0.0
1676924550.1058984,-42.96875,-41.9921875,-87.40234375,-33.69140625,0.0
1676924550.1096752,-23.92578125,-31.73828125,-128.41796875,-27.34375,0.0
1676924550.1134522,-29.296875,-26.3671875,-41.015625,-46.38671875,0.0
1676924550.1172292,-40.0390625,-37.59765625,3.41796875,-48.33984375,0.0
1676924550.1210063,-34.66796875,-44.921875,-12.6953125,-15.13671875,0.0
1676924550.1247833,-34.66796875,-32.71484375,-15.13671875,-21.97265625,0.0
1676924550.1285603,-52.24609375,-24.90234375,-13.18359375,-43.45703125,0.0
1676924550.1335187,-49.8046875,-39.0625,-31.73828125,-33.69140625,0.0
1676924550.1384773,-16.6015625,-48.33984375,-46.38671875,-15.13671875,0.0
1676924550.143436,-11.71875,-40.52734375,-42.48046875,-23.4375,0.0
1676924550.1483943,-48.828125,-24.4140625,-34.1796875,-36.1328125,0.0
1676924550.1533527,-42.48046875,-19.04296875,-41.015625,-27.83203125,0.0
1676924550.1583114,-28.3203125,-33.203125,-61.5234375,-21.97265625,0.0
1676924550.16327,-40.52734375,-48.33984375,-41.9921875,-31.25,0.0
1676924550.1682284,-46.875,-29.296875,-20.99609375,-44.921875,0.0
1676924550.1731868,-57.6171875,-11.71875,-44.921875,-58.10546875,0.0
1676924550.1781454,-43.9453125,-20.5078125,-48.33984375,-41.015625,0.0
1676924550.183104,-20.99609375,-30.2734375,-4.8828125,-21.484375,0.0
1676924550.1880624,-33.203125,-41.015625,-0.9765625,-36.1328125,0.0
1676924550.1917462,-50.78125,-45.8984375,-29.78515625,-31.73828125,0.0
1676924550.1954303,-29.78515625,-38.57421875,-23.92578125,-20.99609375,0.0
1676924550.1991143,-11.71875,-25.390625,-33.69140625,-31.25,0.0
1676924550.2027981,-31.25,-41.015625,-50.78125,-28.3203125,0.0
1676924550.206482,-42.96875,-59.08203125,-44.921875,-12.6953125,0.0
1676924550.210166,-34.1796875,-28.3203125,-52.24609375,-4.39453125,0.0
1676924550.21385,-9.27734375,-10.25390625,-15.13671875,-6.8359375,0.0
1676924550.2175338,-16.11328125,-13.18359375,-23.4375,-28.80859375,0.0
1676924550.2212176,-36.1328125,-18.5546875,-65.91796875,-20.99609375,0.0
1676924550.2249017,-40.52734375,-33.203125,-20.01953125,-13.671875,0.0
1676924550.2285857,-15.625,-40.0390625,-2.9296875,-30.2734375,0.0
1676924550.2322695,-11.71875,-33.69140625,-37.109375,-17.08984375,0.0
1676924550.2360346,-37.59765625,-43.45703125,-88.8671875,4.39453125,0.0
1676924550.2397997,-47.36328125,-51.7578125,-83.49609375,-17.578125,0.0
1676924550.2435646,-38.57421875,-44.43359375,-16.11328125,-44.43359375,0.0
1676924550.2473297,-29.78515625,-37.59765625,-22.94921875,-34.1796875,0.0
1676924550.2510948,-39.0625,-21.484375,-39.55078125,-33.69140625,0.0
1676924550.25486,-52.734375,-13.671875,-48.33984375,-36.62109375,0.0
1676924550.258625,-46.38671875,-15.13671875,-14.16015625,-31.25,0.0
1676924550.2623901,-25.87890625,-28.3203125,-12.6953125,-37.109375,0.0
1676924550.2661552,-25.390625,-49.31640625,-82.51953125,-28.3203125,0.0
1676924550.26992,-35.64453125,-45.41015625,-55.17578125,-35.64453125,0.0
1676924550.2736852,-32.71484375,-31.73828125,-14.16015625,-31.25,0.0
1676924550.2774503,-22.94921875,-25.390625,-47.8515625,-15.625,0.0
1676924550.2812004,-18.06640625,-27.34375,-50.29296875,-17.08984375,0.0
1676924550.2849505,-29.78515625,-37.59765625,-8.7890625,-12.6953125,0.0
1676924550.2887006,-36.1328125,-28.3203125,-2.9296875,-5.859375,0.0
1676924550.2924504,-33.203125,-12.6953125,-37.109375,-12.6953125,0.0
1676924550.2962005,-30.2734375,-2.44140625,-45.41015625,-18.5546875,0.0
1676924550.2999506,-48.828125,-16.6015625,-45.41015625,-33.203125,0.0
1676924550.3037007,-64.453125,-45.8984375,-31.73828125,-28.80859375,0.0
1676924550.3074508,-27.83203125,-37.59765625,-49.31640625,8.7890625,0.0
1676924550.3112006,-3.41796875,-16.11328125,-50.78125,11.71875,0.0
1676924550.3149507,-30.76171875,-9.27734375,9.27734375,-25.390625,0.0
1676924550.3187008,-57.12890625,-22.94921875,-19.04296875,-52.734375,0.0
1676924550.3224509,-43.9453125,-36.1328125,-52.24609375,-47.36328125,0.0
1676924550.3262005,-18.06640625,-27.34375,-46.875,-37.59765625,0.0
1676924550.3299503,-13.671875,-37.109375,-38.0859375,-37.59765625,0.0
1676924550.3337002,-23.4375,-57.12890625,-42.48046875,-26.3671875,0.0
1676924550.3374498,-21.484375,-38.0859375,-36.62109375,-12.6953125,0.0
1676924550.3411994,-5.37109375,-11.71875,-22.4609375,-20.99609375,0.0
1676924550.3449492,-9.27734375,-16.11328125,-40.52734375,-40.52734375,0.0
1676924550.348699,-16.6015625,-13.671875,-35.15625,-35.15625,0.0
1676924550.3524487,-9.27734375,-10.7421875,-54.6875,-18.5546875,0.0
1676924550.3561983,-21.484375,-25.390625,-38.57421875,-30.2734375,0.0
1676924550.3599482,-30.2734375,-23.92578125,2.44140625,-37.109375,0.0
1676924550.363698,-17.578125,-35.15625,-20.01953125,-24.90234375,0.0
1676924550.3674476,-23.4375,-66.89453125,-28.80859375,-36.1328125,0.0
1676924550.3711975,-17.578125,-50.78125,-25.390625,-37.109375,0.0
1676924550.3749473,0.0,-11.71875,-22.94921875,-20.5078125,0.0
1676924550.3786974,-15.13671875,-23.92578125,-12.6953125,-7.32421875,0.0
1676924550.3824472,-35.64453125,-44.921875,0.9765625,-18.06640625,0.0
1676924550.386197,-35.15625,-22.4609375,-17.578125,-35.15625,0.0
1676924550.389947,-24.4140625,-7.32421875,-33.203125,-17.578125,0.0
1676924550.3936968,-13.671875,-12.6953125,-42.48046875,12.6953125,0.0
1676924550.3974466,-28.3203125,-33.203125,-41.50390625,8.30078125,0.0
1676924550.4011965,-36.1328125,-52.734375,22.94921875,-40.0390625,0.0
1676924550.4049466,-2.9296875,-37.59765625,6.34765625,-41.015625,0.0
1676924550.4086964,-5.37109375,-23.92578125,-27.34375,-18.5546875,0.0
1676924550.4124463,-26.85546875,-26.85546875,-12.20703125,-22.94921875,0.0
1676924550.4161708,-24.90234375,-17.578125,-0.9765625,-30.76171875,0.0
1676924550.4198954,-16.6015625,-39.0625,-16.11328125,-44.921875,0.0
1676924550.4236197,1.46484375,-51.7578125,-17.08984375,-39.0625,0.0
1676924550.4273443,3.41796875,-36.1328125,8.7890625,-21.484375,0.0
1676924550.431069,-29.78515625,-41.9921875,-4.39453125,-17.08984375,0.0
1676924550.4347935,-26.3671875,-44.921875,-26.85546875,-45.8984375,0.0
1676924550.438518,-4.8828125,-21.484375,-59.5703125,-45.41015625,0.0
1676924550.4422426,-21.97265625,-3.41796875,-49.31640625,-10.25390625,0.0
1676924550.4459672,-23.92578125,-14.16015625,-20.5078125,-28.80859375,0.0
1676924550.4496915,-31.25,-40.52734375,-37.59765625,-51.7578125,0.0
1676924550.453416,-31.73828125,-58.59375,-37.59765625,-43.45703125,0.0
1676924550.4571407,-19.53125,-48.33984375,-3.41796875,-37.59765625,0.0
1676924550.4608884,-43.9453125,-39.0625,11.23046875,-18.06640625,0.0
1676924550.464636,-38.57421875,-40.52734375,-29.296875,-2.44140625,0.0
1676924550.4683838,-15.625,-34.1796875,-47.36328125,-26.3671875,0.0
1676924550.4721317,-21.97265625,-43.9453125,-29.78515625,-39.55078125,0.0
1676924550.4758794,-29.78515625,-53.7109375,-42.96875,-52.24609375,0.0
1676924550.4796271,-20.99609375,-22.4609375,-78.125,-48.33984375,0.0
1676924550.4833748,8.7890625,-1.953125,-70.3125,-16.11328125,0.0
1676924550.4871225,-0.48828125,-8.7890625,-28.80859375,-23.92578125,0.0
1676924550.4908705,-29.296875,-19.04296875,-32.2265625,-36.1328125,0.0
1676924550.4946182,-17.578125,-38.0859375,-45.41015625,-36.62109375,0.0
1676924550.4983659,-0.9765625,-37.109375,-25.390625,-21.484375,0.0
1676924550.5021136,-11.71875,-37.59765625,-19.53125,-12.20703125,0.0
1676924550.5071058,-20.99609375,-61.5234375,-58.59375,-37.59765625,0.0
1676924550.512098,-27.34375,-55.6640625,-59.08203125,-38.57421875,0.0
1676924550.5170903,-25.87890625,-18.06640625,-16.11328125,-26.3671875,0.0
1676924550.5220823,-5.37109375,-8.30078125,-20.99609375,-41.9921875,0.0
1676924550.5270746,2.9296875,-17.578125,-42.48046875,-35.64453125,0.0
1676924550.5320668,-8.30078125,-23.4375,-49.31640625,-25.390625,0.0
1676924550.537059,-10.25390625,-31.73828125,-36.1328125,-18.5546875,0.0
1676924550.5420513,1.46484375,-39.0625,-13.18359375,-15.625,0.0
1676924550.5470433,11.71875,-29.296875,-39.55078125,-20.5078125,0.0
1676924550.5520356,6.34765625,-16.11328125,-64.453125,-20.01953125,0.0
1676924550.5570278,-16.6015625,-25.390625,-23.4375,-30.2734375,0.0
1676924550.56202,-19.53125,-34.66796875,-6.34765625,-24.90234375,0.0
1676924550.565774,-1.46484375,-38.57421875,-46.38671875,-32.71484375,0.0
1676924550.569528,-3.41796875,-26.3671875,-57.6171875,-30.76171875,0.0
1676924550.573282,-23.92578125,-21.97265625,-40.0390625,-12.20703125,0.0
1676924550.577036,-28.80859375,-17.578125,-16.6015625,-23.4375,0.0
1676924550.58079,-4.8828125,-23.92578125,-31.73828125,-30.76171875,0.0
1676924550.584544,-11.71875,-40.52734375,-64.94140625,-35.64453125,0.0
1676924550.5882978,-32.2265625,-46.875,-24.90234375,-34.66796875,0.0
1676924550.592052,-27.83203125,-58.10546875,0.9765625,-31.25,0.0
1676924550.595806,-16.11328125,-37.109375,-50.78125,-20.01953125,0.0
1676924550.5995598,-24.90234375,-24.4140625,-81.0546875,-20.01953125,0.0
1676924550.603314,-42.96875,-31.25,-4.8828125,-28.80859375,0.0
1676924550.6070678,-46.38671875,-36.62109375,4.8828125,-25.390625,2.0
1676924550.6108212,-38.57421875,-36.1328125,-31.25,-37.109375,0.0
1676924550.614575,-21.484375,-41.9921875,-23.4375,-36.62109375,0.0
1676924550.6183283,-42.96875,-36.1328125,-21.484375,-43.9453125,0.0
1676924550.622082,-63.4765625,-37.109375,-38.0859375,-37.59765625,0.0
1676924550.6258354,-48.828125,-47.8515625,-45.8984375,-29.78515625,0.0
1676924550.629589,-47.36328125,-43.9453125,-40.52734375,-54.6875,0.0
1676924550.6333425,-47.8515625,-37.59765625,-30.76171875,-49.8046875,0.0
1676924550.637096,-51.7578125,-38.0859375,-24.90234375,-33.69140625,0.0
1676924550.6408496,-63.96484375,-48.828125,-81.54296875,-43.45703125,0.0
1676924550.644603,-48.33984375,-38.0859375,-82.03125,-52.24609375,0.0
1676924550.6483567,-51.26953125,-46.38671875,-9.27734375,-51.26953125,0.0
1676924550.65211,-63.96484375,-58.10546875,-12.20703125,-43.9453125,0.0
1676924550.6558907,-44.921875,-44.921875,-24.4140625,-40.52734375,0.0
1676924550.6596713,-42.48046875,-39.0625,-26.85546875,-34.66796875,0.0
1676924550.6634521,-46.38671875,-22.4609375,-32.71484375,-28.80859375,0.0
1676924550.6672328,-37.59765625,-7.8125,-29.78515625,-20.01953125,0.0
1676924550.6710134,-41.015625,-14.6484375,-19.04296875,-32.2265625,0.0
1676924550.674794,-33.69140625,-28.3203125,-23.92578125,-29.296875,0.0
1676924550.6785746,-16.6015625,-34.66796875,-10.7421875,-16.11328125,0.0
1676924550.6823552,-16.6015625,-34.66796875,-36.62109375,-4.39453125,0.0
1676924550.6861358,-36.1328125,-21.97265625,-58.10546875,-1.953125,0.0
1676924550.6899166,-24.90234375,-30.76171875,-3.90625,-34.66796875,0.0
1676924550.6936972,-9.27734375,-62.5,-11.23046875,-46.38671875,0.0
1676924550.6974778,-18.5546875,-41.015625,-48.828125,-39.55078125,0.0
1676924550.7012262,-15.625,3.41796875,-33.69140625,-31.73828125,0.0
1676924550.7049744,-24.4140625,4.8828125,-21.484375,-22.4609375,0.0
1676924550.7087228,-7.32421875,-16.11328125,-41.50390625,-34.66796875,0.0
1676924550.7124712,-5.37109375,-29.78515625,-31.73828125,-45.8984375,0.0
1676924550.7162194,-19.53125,-30.2734375,-12.6953125,-45.8984375,0.0
1676924550.7199678,-11.71875,-39.55078125,-23.4375,-50.29296875,0.0
1676924550.7237163,3.41796875,-35.64453125,-51.7578125,-39.55078125,0.0
1676924550.7274644,22.4609375,-53.22265625,-62.98828125,-17.578125,0.0
1676924550.7312129,19.53125,-62.01171875,1.46484375,-16.11328125,0.0
1676924550.7349613,-1.953125,-35.64453125,35.64453125,-14.16015625,0.0
1676924550.7387094,-0.48828125,-28.80859375,-25.390625,-19.53125,0.0
1676924550.7424579,2.44140625,-24.4140625,-47.36328125,-36.62109375,0.0
1676924550.7462752,-10.7421875,-20.01953125,-26.85546875,-36.1328125,0.0
1676924550.7500927,-24.90234375,-16.11328125,3.41796875,-39.0625,0.0
1676924550.75391,-16.11328125,-34.1796875,-4.39453125,-36.1328125,0.0
1676924550.7577276,-5.37109375,-49.31640625,-29.296875,-27.34375,0.0
1676924550.761545,-11.23046875,-41.9921875,0.9765625,-30.2734375,0.0
1676924550.7653623,-16.11328125,-61.5234375,-9.27734375,-47.36328125,0.0
1676924550.7691798,5.859375,-75.1953125,-64.453125,-20.99609375,0.0
1676924550.7729971,13.671875,-23.4375,-48.33984375,10.25390625,0.0
1676924550.7768147,-5.859375,-3.41796875,3.90625,-27.34375,0.0
1676924550.780632,-33.69140625,-25.390625,-42.96875,-49.31640625,0.0
1676924550.7844496,-46.875,-26.85546875,-40.52734375,-47.36328125,0.0
1676924550.788267,-23.92578125,-18.06640625,12.20703125,-48.828125,0.0
1676924550.7919197,-4.39453125,-41.50390625,23.92578125,-29.296875,0.0
1676924550.7955728,-24.90234375,-65.91796875,4.39453125,-12.20703125,0.0
1676924550.7992256,-47.36328125,-48.33984375,-14.6484375,-35.15625,0.0
1676924550.8028784,-6.8359375,-33.69140625,-32.71484375,-38.57421875,0.0
1676924550.8065314,32.2265625,-33.203125,-38.57421875,-11.23046875,0.0
1676924550.8101842,14.6484375,-24.90234375,-30.76171875,-15.13671875,0.0
1676924550.813837,-23.92578125,-29.78515625,-60.05859375,-28.3203125,0.0
1676924550.81749,-12.6953125,-19.53125,-35.15625,-9.27734375,0.0
1676924550.821143,14.16015625,-7.8125,28.3203125,0.48828125,0.0
1676924550.8247957,-2.9296875,-37.109375,-7.32421875,-24.90234375,0.0
1676924550.8284488,-16.6015625,-46.875,-14.6484375,-33.203125,0.0
1676924550.8321016,-12.20703125,-42.96875,-10.25390625,-23.92578125,0.0
1676924550.8358746,-14.6484375,-56.640625,-41.50390625,-26.85546875,0.0
1676924550.8396473,-24.4140625,-48.33984375,-58.10546875,-29.296875,0.0
1676924550.8434203,-34.1796875,-27.34375,-28.80859375,-28.3203125,0.0
1676924550.8471932,-42.96875,-32.71484375,14.6484375,-12.6953125,0.0
1676924550.850966,-37.109375,-35.15625,-5.859375,-31.73828125,0.0
1676924550.854739,-26.3671875,-21.97265625,-70.80078125,-51.7578125,0.0
1676924550.858512,-24.90234375,-26.3671875,-62.5,-22.4609375,0.0
1676924550.8622847,-41.50390625,-39.0625,6.34765625,-10.7421875,0.0
1676924550.8660576,-31.73828125,-21.97265625,20.99609375,-14.16015625,0.0
1676924550.8698306,-17.578125,-24.90234375,-45.41015625,-21.484375,0.0
1676924550.8736033,-11.23046875,-41.015625,-43.45703125,-30.76171875,0.0
1676924550.8773763,-8.7890625,-28.80859375,18.5546875,-23.92578125,0.0
1676924550.8823519,-31.25,-17.08984375,4.8828125,-30.2734375,0.0
1676924550.8873277,-36.62109375,-22.94921875,5.37109375,-31.73828125,0.0
1676924550.8923032,-29.78515625,-17.08984375,19.53125,-29.78515625,0.0
1676924550.8972788,-39.0625,-12.6953125,20.01953125,-30.2734375,0.0
1676924550.9022546,-41.015625,-31.25,-12.20703125,-12.20703125,0.0
1676924550.9072301,-42.48046875,-36.62109375,-58.10546875,-13.18359375,0.0
1676924550.9122057,-33.69140625,-26.85546875,-26.85546875,-15.625,0.0
1676924550.9171815,-39.0625,-35.64453125,10.25390625,-29.296875,0.0
1676924550.922157,-37.109375,-38.0859375,-7.32421875,-17.08984375,0.0
1676924550.9271326,-27.34375,-24.90234375,-23.92578125,-3.41796875,0.0
1676924550.9321084,-33.203125,-10.7421875,0.48828125,-30.2734375,0.0
1676924550.937084,-34.66796875,-17.08984375,9.27734375,-43.9453125,0.0
1676924550.9408655,-41.50390625,-32.2265625,-27.83203125,-41.9921875,0.0
1676924550.944647,-40.0390625,-32.2265625,-33.69140625,-20.99609375,0.0
1676924550.9484286,-42.96875,-29.78515625,-9.765625,-31.25,0.0
1676924550.9522102,-56.640625,-38.57421875,-17.08984375,-45.8984375,0.0
1676924550.9559917,-47.8515625,-46.38671875,-47.8515625,-32.71484375,0.0
1676924550.959773,-29.78515625,-47.8515625,-48.33984375,-25.390625,0.0
1676924550.9635546,-1.46484375,-41.9921875,-25.390625,-21.97265625,0.0
1676924550.9673362,-1.46484375,-23.92578125,-30.76171875,-12.6953125,0.0
1676924550.9711177,-23.4375,-23.4375,-53.7109375,-11.23046875,0.0
1676924550.9748993,-32.2265625,-25.87890625,-23.92578125,0.48828125,0.0
1676924550.9786808,-40.52734375,-44.921875,25.390625,6.34765625,0.0
1676924550.9824624,-49.31640625,-54.19921875,-12.20703125,-25.87890625,0.0
1676924550.9863117,-59.5703125,-30.2734375,-46.875,-44.921875,0.0
1676924550.990161,-58.59375,-23.4375,-40.0390625,-27.34375,0.0
1676924550.99401,-30.76171875,-30.2734375,-11.71875,-10.25390625,0.0
1676924550.9978592,-1.46484375,-52.734375,-34.66796875,-8.7890625,0.0
1676924551.0017085,-17.578125,-65.91796875,-55.6640625,-10.7421875,0.0
1676924551.0055578,-40.0390625,-36.62109375,-22.94921875,-5.859375,0.0
1676924551.009407,-26.85546875,-21.484375,-15.625,-19.04296875,0.0
1676924551.0132563,-16.6015625,-47.36328125,-23.4375,-22.94921875,0.0
1676924551.0171056,-19.04296875,-30.2734375,-39.55078125,-24.4140625,0.0
1676924551.0209546,-33.69140625,-0.9765625,-3.90625,-31.25,0.0
1676924551.0248039,-25.87890625,-8.30078125,6.34765625,-32.71484375,0.0
1676924551.0286531,-5.859375,-20.99609375,-20.01953125,-29.296875,0.0
1676924551.0323021,-9.765625,-43.9453125,-19.53125,-21.484375,0.0
1676924551.0359511,-25.87890625,-53.7109375,-9.27734375,-20.5078125,0.0
1676924551.0396001,-24.4140625,-34.66796875,-4.8828125,-22.94921875,0.0
1676924551.0432491,-26.3671875,-46.38671875,-33.69140625,-39.55078125,0.0
1676924551.0468981,-18.5546875,-42.48046875,-42.96875,-21.484375,0.0
1676924551.0505471,-20.5078125,-10.25390625,-25.390625,6.8359375,0.0
1676924551.054196,-49.31640625,-6.8359375,-8.7890625,-18.06640625,0.0
1676924551.0578449,-24.4140625,-11.23046875,-21.484375,-16.11328125,0.0
1676924551.0614939,-2.9296875,-15.625,-37.59765625,-3.90625,0.0
1676924551.0651429,-22.94921875,-28.3203125,17.08984375,-27.34375,0.0
1676924551.0687919,-23.4375,-59.5703125,-3.90625,-22.94921875,0.0
1676924551.0724409,-32.2265625,-75.68359375,-29.296875,-30.76171875,0.0
1676924551.0761926,-21.484375,-29.296875,-3.90625,-49.31640625,0.0
1676924551.0799444,-5.859375,6.8359375,-9.27734375,-42.48046875,0.0
1676924551.0836961,-14.16015625,-8.30078125,-29.78515625,-41.9921875,0.0
1676924551.087448,-17.578125,-23.4375,-45.41015625,-42.48046875,0.0
1676924551.0911996,-20.5078125,-24.90234375,-27.34375,-45.8984375,0.0
1676924551.0949512,-6.34765625,-26.85546875,-27.34375,-34.66796875,0.0
1676924551.098703,-4.8828125,-28.3203125,-22.94921875,-20.99609375,0.0
1676924551.1024547,-7.32421875,-43.9453125,-48.33984375,-37.59765625,0.0
1676924551.1062064,26.85546875,-72.265625,-28.80859375,-35.64453125,0.0
1676924551.1099582,16.6015625,-58.10546875,3.90625,-29.78515625,0.0
1676924551.11371,-31.25,-23.4375,-37.59765625,-45.41015625,0.0
1676924551.1174617,-29.78515625,-2.44140625,-19.04296875,-31.25,0.0
1676924551.121209,-16.11328125,-7.8125,36.62109375,-20.01953125,0.0
1676924551.1249561,-19.04296875,-23.4375,2.9296875,-37.109375,0.0
1676924551.1287034,-41.015625,-25.390625,-29.78515625,-41.9921875,0.0
1676924551.1324506,-35.64453125,-28.80859375,14.16015625,-37.109375,0.0
1676924551.1361978,-19.04296875,-47.36328125,15.625,-36.62109375,0.0
1676924551.139945,-28.80859375,-50.78125,-14.16015625,-29.296875,0.0
1676924551.143692,-21.484375,-42.96875,-44.43359375,-25.390625,0.0
1676924551.1474392,-15.625,-45.41015625,-66.40625,-11.71875,0.0
1676924551.1511865,-28.80859375,-33.69140625,16.11328125,-10.7421875,0.0
1676924551.1549337,-14.16015625,-21.97265625,50.78125,-18.06640625,0.0
1676924551.158681,-8.7890625,-18.06640625,18.5546875,-7.8125,0.0
1676924551.1624281,-36.62109375,-14.16015625,1.46484375,-19.04296875,0.0
1676924551.1662512,-62.5,-18.06640625,-1.46484375,-38.57421875,0.0
1676924551.170074,-63.4765625,-22.4609375,-21.484375,-39.0625,0.0
1676924551.1738968,-43.45703125,-41.50390625,-35.64453125,-26.85546875,0.0
1676924551.1777198,-37.59765625,-57.12890625,-11.71875,-20.99609375,0.0
1676924551.1815429,-47.36328125,-59.08203125,9.765625,-21.97265625,0.0
1676924551.1853657,-36.62109375,-41.50390625,-17.08984375,-20.01953125,0.0
1676924551.1891885,-11.71875,-19.53125,-37.59765625,-20.01953125,0.0
1676924551.1930115,-11.71875,-22.94921875,17.578125,-13.671875,0.0
1676924551.1968346,-22.4609375,-18.06640625,46.875,-3.41796875,0.0
1676924551.2006574,-50.78125,-36.1328125,-27.83203125,-30.76171875,0.0
1676924551.2044802,-47.36328125,-51.7578125,-76.171875,-44.43359375,0.0
1676924551.2083032,-36.1328125,-47.36328125,-23.92578125,-53.22265625,0.0
1676924551.2119825,-49.31640625,-53.7109375,-3.41796875,-69.3359375,0.0
1676924551.2156615,-46.875,-53.22265625,-40.0390625,-59.5703125,0.0
1676924551.2193408,-25.390625,-31.73828125,-58.59375,-44.921875,0.0
1676924551.22302,-9.765625,-24.4140625,-26.3671875,-38.0859375,0.0
1676924551.2266994,-19.04296875,-29.78515625,13.671875,-45.8984375,0.0
1676924551.2303786,-17.08984375,-18.06640625,-27.83203125,-43.45703125,0.0
1676924551.2340577,-7.8125,-11.71875,-64.94140625,-25.87890625,0.0
1676924551.237737,5.37109375,-37.59765625,4.8828125,-13.18359375,0.0
1676924551.2414162,-2.44140625,-54.6875,13.671875,-0.9765625,0.0
1676924551.2450953,-38.0859375,-40.52734375,-64.94140625,-23.4375,0.0
1676924551.2487745,-27.83203125,-45.8984375,-83.0078125,-43.9453125,0.0
1676924551.2524538,-12.20703125,-39.0625,-30.76171875,-38.57421875,0.0
1676924551.2574286,-25.390625,-17.08984375,-37.59765625,-28.3203125,0.0
1676924551.2624035,-54.6875,-23.92578125,-33.69140625,-22.94921875,0.0
1676924551.2673783,-55.6640625,-33.203125,-5.859375,-39.55078125,0.0
1676924551.2723532,-21.97265625,-23.92578125,-1.953125,-43.45703125,0.0
1676924551.277328,-7.8125,-35.64453125,-19.53125,-42.48046875,0.0
1676924551.2823029,-21.97265625,-50.29296875,-32.71484375,-27.83203125,0.0
1676924551.2872777,-30.2734375,-35.64453125,-35.64453125,-31.25,0.0
1676924551.2922525,-12.20703125,-40.52734375,-40.52734375,-45.8984375,0.0
1676924551.2972274,-21.97265625,-46.38671875,-46.875,-39.55078125,0.0
1676924551.3022022,-30.2734375,-20.01953125,-61.03515625,-22.94921875,0.0
1676924551.307177,-39.55078125,-5.37109375,-21.97265625,-36.62109375,0.0
1676924551.312152,-46.38671875,-35.64453125,-2.44140625,-60.546875,0.0
1676924551.3158972,-42.96875,-46.38671875,-32.2265625,-50.29296875,0.0
1676924551.3196428,-51.7578125,-35.64453125,-11.71875,-41.9921875,0.0
1676924551.323388,-61.5234375,-38.57421875,2.44140625,-54.19921875,0.0
1676924551.3271334,-47.36328125,-34.66796875,4.39453125,-52.734375,0.0
1676924551.330879,-28.3203125,-30.2734375,-19.04296875,-43.9453125,0.0
1676924551.3346243,-51.7578125,-35.15625,-62.5,-55.6640625,0.0
1676924551.3383696,-72.75390625,-45.41015625,-50.78125,-52.24609375,0.0
1676924551.3421152,-66.89453125,-47.36328125,-33.203125,-46.38671875,0.0
1676924551.3458605,-40.52734375,-29.296875,-80.56640625,-26.85546875,0.0
1676924551.3496058,-42.96875,-12.6953125,-70.80078125,-12.20703125,0.0
1676924551.3533514,-62.5,-18.5546875,20.5078125,-20.99609375,0.0
1676924551.3570967,-57.12890625,-41.9921875,21.97265625,-28.3203125,0.0
1676924551.3608403,-47.8515625,-41.50390625,-5.859375,-30.2734375,0.0
1676924551.364584,-63.4765625,-28.80859375,-14.6484375,-34.66796875,0.0
1676924551.3683276,-87.890625,-40.0390625,-19.04296875,-39.0625,0.0
1676924551.3720713,-84.9609375,-64.94140625,-38.57421875,-34.1796875,0.0
1676924551.375815,-62.5,-46.38671875,-48.828125,-20.5078125,0.0
1676924551.3795586,-47.36328125,-16.11328125,-66.89453125,-10.25390625,0.0
1676924551.3833025,-34.1796875,-29.296875,-68.359375,-15.13671875,0.0
1676924551.387046,-56.15234375,-29.296875,-51.26953125,-41.9921875,0.0
1676924551.3907897,-75.68359375,-33.69140625,-77.63671875,-50.78125,0.0
1676924551.3945334,-53.22265625,-32.71484375,-36.1328125,-32.71484375,0.0
1676924551.398277,-41.9921875,-26.3671875,21.484375,-14.6484375,0.0
1676924551.4020207,-49.31640625,-32.2265625,-15.625,-28.80859375,0.0
1676924551.4058235,-58.59375,-45.41015625,-41.015625,-53.7109375,0.0
1676924551.4096262,-69.82421875,-53.7109375,-24.4140625,-30.2734375,0.0
1676924551.413429,-75.1953125,-34.1796875,-36.62109375,-28.3203125,0.0
1676924551.4172318,-75.68359375,-42.96875,-57.6171875,-42.96875,0.0
1676924551.4210346,-76.171875,-49.8046875,-53.7109375,-30.2734375,0.0
1676924551.4248374,-58.10546875,-19.04296875,-36.1328125,-35.15625,0.0
1676924551.4286401,-37.59765625,-24.4140625,-44.921875,-32.71484375,0.0
1676924551.432443,-45.41015625,-37.109375,-60.546875,-14.16015625,0.0
1676924551.4362457,-54.6875,-21.97265625,-20.99609375,-5.859375,0.0
1676924551.4400485,-32.2265625,-28.3203125,44.921875,-13.18359375,0.0
1676924551.4438512,-37.109375,-51.7578125,4.8828125,-49.31640625,0.0
1676924551.447654,-63.4765625,-44.43359375,-10.7421875,-48.828125,1.0
1676924551.4513755,-67.87109375,-15.625,23.4375,-35.64453125,0.0
1676924551.4550972,-60.05859375,-12.6953125,11.23046875,-40.52734375,0.0
1676924551.4588187,-37.59765625,-26.85546875,-10.7421875,-32.2265625,0.0
1676924551.4625404,-40.52734375,-43.45703125,-15.625,-37.109375,0.0
1676924551.4662619,-60.546875,-71.2890625,-26.3671875,-39.55078125,0.0
1676924551.4699836,-66.89453125,-58.10546875,-31.25,-43.45703125,0.0
1676924551.473705,-50.29296875,-22.94921875,4.39453125,-33.69140625,0.0
1676924551.4774265,-27.83203125,-22.94921875,-16.11328125,-24.4140625,0.0
1676924551.4811482,-20.5078125,-32.71484375,31.25,-20.01953125,0.0
1676924551.4848697,-28.3203125,-18.06640625,95.21484375,-12.6953125,0.0
1676924551.4885914,-36.1328125,-9.27734375,28.80859375,-17.578125,0.0
1676924551.492313,-34.1796875,-16.11328125,-2.9296875,-34.1796875,0.0
1676924551.4960573,-32.71484375,-12.6953125,27.34375,-29.78515625,0.0
1676924551.4998016,-17.08984375,-26.3671875,25.390625,-10.7421875,0.0
1676924551.503546,-28.80859375,-28.80859375,-26.85546875,-19.04296875,0.0
1676924551.5072904,-24.4140625,-30.76171875,-32.71484375,-40.52734375,0.0
1676924551.5110347,-9.765625,-47.8515625,-2.44140625,-32.2265625,0.0
1676924551.514779,-43.45703125,-43.45703125,15.13671875,-16.6015625,0.0
1676924551.5185235,-50.78125,-22.4609375,-0.9765625,3.90625,0.0
1676924551.5222678,-15.625,-14.6484375,-32.71484375,-34.1796875,0.0
1676924551.5260122,-6.8359375,-13.671875,31.73828125,-61.5234375,0.0
1676924551.5297565,-21.484375,-20.01953125,55.17578125,-31.25,0.0
1676924551.533501,-31.25,-41.9921875,9.765625,-19.04296875,0.0
1676924551.5372453,1.953125,-34.1796875,-2.9296875,-14.6484375,0.0
1676924551.5409884,14.16015625,-24.4140625,-20.01953125,-22.94921875,0.0
1676924551.5447314,-18.06640625,-43.9453125,-42.48046875,-31.25,0.0
1676924551.5484743,-30.76171875,-51.7578125,-22.4609375,-24.90234375,0.0
1676924551.5522175,-11.23046875,-52.24609375,20.01953125,-26.3671875,0.0
1676924551.5559607,5.37109375,-39.0625,16.11328125,-35.64453125,0.0
1676924551.5597036,-8.7890625,-22.94921875,4.39453125,-26.85546875,0.0
1676924551.5634465,-20.99609375,-14.16015625,-14.16015625,-16.11328125,0.0
1676924551.5671897,-16.6015625,-9.27734375,-15.13671875,-27.83203125,0.0
1676924551.5709329,-0.9765625,-27.83203125,1.953125,-41.9921875,0.0
1676924551.5746758,-4.39453125,-49.8046875,-11.23046875,-48.828125,0.0
1676924551.5784187,-31.73828125,-57.12890625,-16.6015625,-39.55078125,0.0
1676924551.582162,-21.97265625,-40.52734375,0.48828125,-15.625,0.0
1676924551.585914,0.0,-27.83203125,9.27734375,-9.27734375,0.0
1676924551.5896661,-10.25390625,-39.55078125,10.25390625,-19.53125,0.0
1676924551.5934181,-35.64453125,-38.57421875,20.5078125,-37.109375,0.0
1676924551.5971704,-41.50390625,-21.484375,19.04296875,-40.0390625,0.0
1676924551.6009223,-20.01953125,-13.671875,-5.859375,-37.109375,0.0
1676924551.6046743,0.9765625,-26.3671875,-43.45703125,-38.57421875,0.0
1676924551.6084266,0.48828125,-39.55078125,-26.3671875,-32.71484375,0.0
1676924551.6121786,-25.390625,-45.8984375,8.30078125,-35.64453125,0.0
1676924551.6159308,-10.25390625,-26.3671875,-1.46484375,-25.87890625,0.0
1676924551.6196828,15.625,-20.5078125,-14.16015625,-21.97265625,0.0
1676924551.623435,4.39453125,-39.55078125,-6.34765625,-22.4609375,0.0
1676924551.627187,-5.37109375,-40.0390625,20.99609375,-6.34765625,0.0
1676924551.6321726,-1.46484375,-17.08984375,10.25390625,-20.99609375,0.0
1676924551.6371584,-8.7890625,-3.90625,-35.64453125,-19.04296875,0.0
1676924551.642144,-22.94921875,-30.76171875,-28.80859375,-25.87890625,0.0
1676924551.6471298,-33.203125,-54.19921875,4.39453125,-54.6875,0.0
1676924551.6521153,-28.3203125,-41.015625,-5.37109375,-34.66796875,0.0
1676924551.6571012,-10.25390625,-28.3203125,-28.80859375,-28.3203125,0.0
1676924551.6620867,-4.39453125,-32.2265625,-5.37109375,-39.55078125,0.0
1676924551.6670723,-3.41796875,-39.55078125,22.94921875,-49.31640625,0.0
1676924551.672058,-12.6953125,-49.31640625,6.8359375,-36.62109375,0.0
1676924551.6770437,0.0,-47.8515625,-0.48828125,5.37109375,0.0
1676924551.6820295,-1.46484375,-41.015625,10.7421875,-9.27734375,0.0
1676924551.687015,-25.87890625,-46.38671875,-0.48828125,-42.48046875,0.0
1676924551.6907837,-40.52734375,-46.875,-16.6015625,-24.4140625,0.0
1676924551.6945524,-29.78515625,-33.203125,13.18359375,-14.6484375,0.0
1676924551.698321,-8.30078125,-26.85546875,11.23046875,-29.296875,0.0
1676924551.7020898,-22.94921875,-29.78515625,-26.85546875,-45.41015625,0.0
1676924551.7058585,-41.015625,-46.38671875,-42.48046875,-42.96875,0.0
1676924551.7096272,-32.71484375,-56.15234375,-38.57421875,-35.64453125,0.0
1676924551.7133956,-23.92578125,-35.64453125,0.0,-59.08203125,0.0
1676924551.7171643,-22.94921875,-27.83203125,20.01953125,-50.78125,0.0
1676924551.720933,-1.953125,-43.9453125,-20.5078125,-12.6953125,0.0
1676924551.7247016,-16.11328125,-30.76171875,-26.85546875,7.32421875,0.0
1676924551.7284703,-18.06640625,-10.25390625,15.625,-8.30078125,0.0
1676924551.732239,-2.44140625,-21.484375,-12.20703125,-16.6015625,0.0
1676924551.7359786,-13.671875,-38.57421875,-27.83203125,-25.390625,0.0
1676924551.7397184,-17.578125,-36.1328125,-4.39453125,-18.06640625,0.0
1676924551.743458,-14.6484375,-36.1328125,6.8359375,4.39453125,0.0
1676924551.7471976,13.18359375,-35.15625,-21.484375,-0.9765625,0.0
1676924551.7509372,33.69140625,-30.2734375,-38.57421875,6.8359375,0.0
1676924551.7546768,-6.8359375,-26.3671875,-9.765625,-23.4375,0.0
1676924551.7584167,15.13671875,-31.25,12.20703125,-22.94921875,0.0
1676924551.7621562,20.99609375,-38.57421875,-24.90234375,-0.9765625,0.0
1676924551.7658958,-19.53125,-34.66796875,-43.45703125,-21.484375,0.0
1676924551.7696357,-32.2265625,-25.390625,1.953125,-28.3203125,0.0
1676924551.7733753,-43.9453125,-26.3671875,14.6484375,-8.7890625,0.0
1676924551.7771149,-15.13671875,-37.109375,-15.13671875,-6.34765625,0.0
1676924551.7809064,-1.46484375,-33.69140625,-45.41015625,-20.5078125,0.0
1676924551.7846982,-23.92578125,-37.59765625,2.44140625,-19.53125,0.0
1676924551.7884898,-39.55078125,-34.1796875,26.3671875,-24.90234375,0.0
1676924551.7922814,-28.80859375,-18.5546875,-7.32421875,-18.5546875,0.0
1676924551.7960732,-11.71875,-23.4375,-13.671875,-3.41796875,0.0
1676924551.7998648,-5.37109375,-40.0390625,-16.11328125,-17.08984375,0.0
1676924551.8036563,-20.01953125,-23.4375,5.37109375,-21.484375,0.0
1676924551.8074481,-9.765625,-16.11328125,11.23046875,0.0,0.0
1676924551.8112397,5.859375,-24.90234375,-3.41796875,-4.39453125,0.0
1676924551.8150313,-13.18359375,-16.6015625,12.20703125,-23.4375,0.0
1676924551.818823,-19.04296875,-16.11328125,10.7421875,-3.90625,0.0
1676924551.8226147,-14.6484375,-12.20703125,9.765625,0.0,0.0
1676924551.8276024,-25.87890625,-20.99609375,22.4609375,-12.6953125,0.0
1676924551.83259,-22.94921875,-31.25,41.015625,-2.9296875,0.0
1676924551.8375778,-34.1796875,-37.59765625,13.671875,-19.53125,0.0
1676924551.8425658,-44.921875,-40.0390625,34.1796875,-36.1328125,0.0
1676924551.8475535,-20.5078125,-36.1328125,40.52734375,-22.4609375,0.0
1676924551.8525412,-13.18359375,-25.390625,-2.44140625,-20.5078125,0.0
1676924551.857529,-27.83203125,-25.87890625,-9.765625,-24.4140625,0.0
1676924551.8625166,-17.578125,-46.875,-22.4609375,-26.3671875,0.0
1676924551.8675046,-14.6484375,-44.921875,4.8828125,-23.4375,0.0
1676924551.8724923,-17.08984375,-13.671875,46.875,-13.18359375,0.0
1676924551.87748,-28.80859375,5.859375,46.38671875,-23.92578125,0.0
1676924551.8824677,-63.96484375,-17.578125,32.2265625,-31.73828125,0.0
1676924551.8863173,-37.109375,-41.50390625,6.8359375,-18.06640625,0.0
1676924551.8901665,-23.92578125,-38.57421875,-11.71875,-14.16015625,0.0
1676924551.894016,-39.0625,-40.0390625,-15.625,-19.53125,0.0
1676924551.8978653,-43.45703125,-43.9453125,-3.41796875,-24.4140625,0.0
1676924551.9017148,-32.2265625,-28.80859375,23.92578125,-24.4140625,0.0
1676924551.9055643,-4.39453125,-19.53125,10.25390625,-15.625,0.0
1676924551.9094136,-8.7890625,-21.484375,-4.8828125,-34.66796875,0.0
1676924551.913263,-27.34375,-10.25390625,32.71484375,-34.66796875,0.0
1676924551.9171124,-32.2265625,-4.8828125,65.4296875,-32.2265625,0.0
1676924551.9209619,-8.30078125,-29.78515625,43.45703125,-39.55078125,0.0
1676924551.9248111,1.953125,-31.25,-27.34375,-17.578125,0.0
1676924551.9286606,-26.3671875,-14.16015625,-6.8359375,-5.37109375,0.0
1676924551.9310582,-33.69140625,-20.01953125,82.03125,-32.2265625,0.0
1676924551.9334555,-21.97265625,-44.43359375,41.015625,-32.2265625,0.0
1676924551.935853,-16.6015625,-61.5234375,17.08984375,-9.27734375,0.0
1676924551.9382505,-16.11328125,-54.19921875,26.3671875,-23.4375,0.0
1676924551.940648,-22.94921875,-35.15625,1.953125,-45.8984375,0.0
1676924551.9430456,-25.390625,-16.6015625,5.859375,-30.2734375,0.0
1676924551.945443,-15.625,-16.6015625,34.66796875,-26.85546875,0.0
1676924551.9478405,-15.625,-25.390625,52.734375,-42.96875,0.0
1676924551.950238,-28.80859375,-25.87890625,39.55078125,-43.45703125,0.0
1676924551.9526353,-47.8515625,-29.78515625,26.3671875,-44.43359375,0.0
1676924551.9550328,-42.96875,-38.57421875,-24.4140625,-34.1796875,0.0
1676924551.9574304,-23.92578125,-38.0859375,-2.9296875,-22.94921875,0.0
1676924551.9611912,-25.87890625,-41.9921875,56.15234375,-12.20703125,0.0
1676924551.9649518,-42.48046875,-47.8515625,23.4375,-9.27734375,0.0
1676924551.9687126,-38.57421875,-24.90234375,12.20703125,-30.76171875,0.0
1676924551.9724734,-26.85546875,-15.13671875,22.4609375,-46.38671875,0.0
1676924551.976234,-42.96875,-36.62109375,26.3671875,-45.41015625,0.0
1676924551.9799948,-51.26953125,-47.8515625,-2.9296875,-43.9453125,0.0
1676924551.9837556,-31.25,-39.0625,-13.18359375,-23.92578125,0.0
1676924551.9875162,-19.53125,-23.4375,8.7890625,-21.97265625,0.0
1676924551.991277,-22.4609375,-18.06640625,35.15625,-35.15625,0.0
1676924551.9950378,-29.78515625,-29.296875,24.90234375,-31.73828125,0.0
1676924551.9987984,-52.24609375,-45.8984375,-1.953125,-28.3203125,0.0
1676924552.0025592,-41.50390625,-36.62109375,23.92578125,-37.59765625,0.0
1676924552.0075207,-17.08984375,-16.11328125,32.71484375,-13.18359375,0.0
1676924552.0124822,-23.92578125,-23.4375,34.1796875,8.30078125,0.0
1676924552.0174434,-31.25,-33.203125,35.15625,-44.43359375,0.0
1676924552.022405,-20.5078125,-34.66796875,24.90234375,-36.1328125,0.0
1676924552.0273664,-21.484375,-42.48046875,0.48828125,-22.94921875,0.0
1676924552.0323277,-44.43359375,-34.66796875,-14.6484375,-46.38671875,0.0
1676924552.0372891,-33.69140625,-26.3671875,16.11328125,-23.4375,0.0
1676924552.0422506,-29.78515625,-25.390625,36.62109375,-27.34375,0.0
1676924552.0472121,-19.04296875,-32.2265625,-1.46484375,-52.734375,0.0
1676924552.0521736,-22.4609375,-35.64453125,-3.90625,-41.50390625,0.0
1676924552.0571349,-57.12890625,-29.78515625,36.1328125,-37.109375,0.0
1676924552.0620964,-29.78515625,-16.11328125,33.69140625,-36.1328125,0.0
1676924552.0658443,8.30078125,-10.7421875,-4.39453125,-14.6484375,0.0
1676924552.069592,-14.6484375,-39.0625,-9.765625,-19.53125,0.0
1676924552.07334,-40.52734375,-61.03515625,21.97265625,-28.80859375,0.0
1676924552.0770876,-40.52734375,-26.85546875,17.08984375,-18.06640625,0.0
1676924552.0808356,-31.73828125,-8.7890625,-2.44140625,-6.34765625,0.0
1676924552.0845833,-28.3203125,-25.87890625,-7.8125,-28.80859375,0.0
1676924552.0883312,-42.48046875,-29.296875,30.2734375,-39.0625,0.0
1676924552.0920792,-46.875,-29.296875,63.96484375,-32.71484375,0.0
1676924552.0958269,-33.203125,-29.296875,0.9765625,-39.0625,0.0
1676924552.0995748,-20.01953125,-20.5078125,-26.3671875,-27.83203125,0.0
1676924552.1033225,-23.92578125,-12.6953125,41.015625,-17.578125,0.0
1676924552.1070704,-31.73828125,-14.6484375,27.34375,-17.08984375,0.0
1676924552.1108217,-21.484375,-32.2265625,-7.8125,-22.94921875,0.0
1676924552.1145732,-12.20703125,-56.15234375,-1.46484375,-6.34765625,0.0
1676924552.1183245,-22.4609375,-58.59375,2.44140625,-22.4609375,0.0
1676924552.122076,-20.5078125,-35.15625,5.859375,-24.90234375,0.0
1676924552.1258273,-5.859375,-9.27734375,-5.37109375,-2.44140625,0.0
1676924552.1295786,-18.06640625,-6.8359375,-1.46484375,-9.765625,0.0
1676924552.13333,-42.48046875,-19.04296875,15.625,-27.34375,0.0
1676924552.1370814,-49.8046875,-34.1796875,1.953125,-29.78515625,0.0
1676924552.140833,-23.92578125,-28.80859375,-27.34375,-36.1328125,0.0
1676924552.1445842,-2.9296875,-16.6015625,11.23046875,-31.73828125,0.0
1676924552.1483357,-6.8359375,-25.87890625,22.94921875,-30.2734375,0.0
1676924552.152087,-17.08984375,-37.109375,-20.99609375,-27.83203125,1.0
1676924552.158368,-32.71484375,-34.1796875,-11.71875,-24.4140625,0.0
1676924552.1646492,-37.59765625,-53.7109375,4.8828125,-47.36328125,0.0
1676924552.1709304,-32.2265625,-61.03515625,-1.953125,-56.15234375,0.0
1676924552.1772115,-57.12890625,-32.71484375,-9.27734375,-46.875,0.0
1676924552.1834927,-67.3828125,-25.390625,-9.27734375,-26.3671875,0.0
1676924552.1897736,-36.1328125,-34.66796875,-0.9765625,-25.390625,0.0
1676924552.1960547,-11.71875,-21.97265625,-10.7421875,-21.97265625,0.0
1676924552.2023358,-14.16015625,-8.7890625,-35.64453125,-5.37109375,0.0
1676924552.208617,-53.7109375,-19.53125,-27.83203125,-13.671875,0.0
1676924552.214898,-39.55078125,-38.0859375,39.0625,-31.25,0.0
1676924552.2211792,-17.08984375,-33.69140625,35.64453125,-23.4375,0.0
1676924552.2274604,-29.296875,-31.25,0.0,-24.4140625,0.0
1676924552.2287133,-52.734375,-35.64453125,24.4140625,-39.55078125,0.0
1676924552.2299664,-64.94140625,-35.15625,41.50390625,-52.24609375,0.0
1676924552.2312193,-45.41015625,-43.45703125,13.18359375,-52.24609375,0.0
1676924552.2324722,-44.921875,-45.8984375,4.39453125,-32.2265625,0.0
1676924552.2337253,-49.31640625,-32.2265625,11.71875,-27.34375,0.0
1676924552.2349782,-23.4375,-32.2265625,-22.4609375,-37.109375,0.0
1676924552.236231,8.30078125,-18.5546875,-18.5546875,-20.01953125,0.0
1676924552.2374842,-13.671875,-13.18359375,9.27734375,-25.87890625,0.0
1676924552.238737,-46.38671875,-41.50390625,26.3671875,-45.41015625,0.0
1676924552.23999,-56.15234375,-31.73828125,40.52734375,-40.52734375,0.0
1676924552.2412431,-61.03515625,-25.390625,16.6015625,-14.16015625,0.0
1676924552.242496,-38.0859375,-43.45703125,-1.953125,-10.25390625,0.0
1676924552.246249,-34.1796875,-44.43359375,13.671875,-36.1328125,0.0
1676924552.2500017,-45.8984375,-34.1796875,13.18359375,-24.4140625,0.0
1676924552.2537546,-37.109375,-33.69140625,10.7421875,-3.90625,0.0
1676924552.2575073,-20.5078125,-42.48046875,-23.4375,-8.7890625,0.0
1676924552.2612603,-4.39453125,-41.9921875,5.37109375,-20.99609375,0.0
1676924552.2650132,-28.80859375,-29.78515625,36.1328125,-27.83203125,0.0
1676924552.268766,-31.25,-22.94921875,16.6015625,-43.45703125,0.0
1676924552.2725189,-11.71875,-29.78515625,7.8125,-25.87890625,0.0
1676924552.2762716,-3.90625,-28.80859375,46.875,-7.8125,0.0
1676924552.2800245,-39.0625,-40.52734375,31.73828125,-38.57421875,0.0
1676924552.2837772,-72.265625,-41.50390625,-2.44140625,-50.78125,0.0
1676924552.2875302,-43.9453125,-29.296875,-3.41796875,-38.57421875,0.0
1676924552.2925384,-11.71875,-34.1796875,0.9765625,-40.0390625,0.0
1676924552.2975469,-8.30078125,-40.0390625,12.6953125,-32.71484375,0.0
1676924552.302555,-41.9921875,-47.36328125,-4.39453125,-18.06640625,0.0
1676924552.3075633,-40.52734375,-36.1328125,17.08984375,-19.04296875,0.0
1676924552.3125718,-14.6484375,-7.8125,28.3203125,-44.921875,0.0
1676924552.31758,-23.4375,-17.578125,-10.7421875,-33.69140625,0.0
1676924552.3225882,-39.55078125,-26.3671875,-63.4765625,-22.4609375,0.0
1676924552.3275967,-21.484375,-18.5546875,-49.8046875,-33.203125,0.0
1676924552.332605,3.90625,-18.06640625,2.9296875,-26.3671875,0.0
1676924552.337613,-9.765625,-12.20703125,6.34765625,-22.94921875,0.0
1676924552.3426216,-58.59375,-15.625,-12.6953125,-40.0390625,0.0
1676924552.3476298,-66.89453125,-26.3671875,-5.859375,-45.8984375,0.0
1676924552.350095,-31.73828125,-44.921875,25.390625,-42.48046875,0.0
1676924552.35256,-31.25,-65.4296875,2.44140625,-36.62109375,0.0
1676924552.3550253,-51.26953125,-77.63671875,-14.16015625,-29.296875,0.0
1676924552.3574905,-68.84765625,-59.08203125,7.8125,-31.25,0.0
1676924552.3599558,-78.61328125,-16.6015625,-2.44140625,-31.25,0.0
1676924552.362421,-57.6171875,5.37109375,-55.17578125,-32.2265625,0.0
1676924552.364886,-51.26953125,-3.90625,-32.2265625,-36.62109375,0.0
1676924552.3673513,-59.08203125,-23.92578125,27.83203125,-26.3671875,0.0
1676924552.3698165,-46.38671875,-35.15625,26.3671875,-25.87890625,0.0
1676924552.3722816,-18.5546875,-25.87890625,-5.37109375,-27.34375,0.0
1676924552.3747468,-11.71875,-0.48828125,10.25390625,8.30078125,0.0
1676924552.377212,-16.6015625,-49.31640625,85.44921875,-10.7421875,0.0
1676924552.3822112,-40.52734375,-92.28515625,52.734375,-40.52734375,0.0
1676924552.3872104,-51.7578125,-54.19921875,0.48828125,-32.2265625,0.0
1676924552.3922095,-40.52734375,-30.2734375,6.8359375,-39.0625,0.0
1676924552.3972087,-45.41015625,-15.13671875,28.80859375,-25.390625,0.0
1676924552.4022079,-24.4140625,-19.04296875,2.44140625,-13.671875,0.0
1676924552.407207,-13.18359375,-31.73828125,-20.01953125,-3.90625,0.0
1676924552.4122062,-43.45703125,-40.0390625,13.671875,-29.296875,0.0
1676924552.4172053,-57.12890625,-23.4375,48.33984375,-31.73828125,0.0
1676924552.4222045,-46.38671875,-8.7890625,32.71484375,-18.06640625,0.0
1676924552.4272037,-32.2265625,-41.015625,-41.9921875,-29.78515625,0.0
1676924552.4322028,-20.5078125,-70.80078125,7.8125,-4.8828125,0.0
1676924552.437202,-0.9765625,-42.96875,62.01171875,-14.6484375,0.0
1676924552.44094,-30.76171875,-21.97265625,21.97265625,-30.2734375,0.0
1676924552.4446778,-63.96484375,-15.13671875,21.97265625,-29.296875,0.0
1676924552.4484158,-52.734375,-13.671875,23.4375,-48.828125,0.0
1676924552.4521537,-43.45703125,-26.3671875,2.9296875,-55.6640625,0.0
1676924552.4558916,-34.1796875,-35.64453125,-13.671875,-44.43359375,0.0
1676924552.4596295,-31.73828125,-28.3203125,-0.48828125,-34.66796875,0.0
1676924552.4633675,-45.8984375,-12.6953125,48.828125,-34.66796875,0.0
1676924552.4671054,-57.12890625,-43.45703125,58.59375,-31.73828125,0.0
1676924552.4708433,-61.03515625,-87.40234375,22.94921875,-15.13671875,0.0
1676924552.4745812,-30.2734375,-58.59375,5.859375,-12.6953125,0.0
1676924552.4783192,-11.23046875,-12.20703125,20.5078125,-20.5078125,0.0
1676924552.482057,-29.296875,4.8828125,44.921875,-20.01953125,0.0
1676924552.485842,-31.25,-3.41796875,2.9296875,-10.25390625,0.0
1676924552.489627,-39.0625,-32.2265625,-6.8359375,-19.04296875,0.0
1676924552.493412,-40.52734375,-40.0390625,48.828125,-48.33984375,0.0
1676924552.497197,-54.6875,-38.57421875,6.8359375,-52.734375,0.0
1676924552.5009818,-65.91796875,-46.38671875,1.46484375,-41.50390625,0.0
1676924552.5047667,-66.40625,-40.52734375,41.9921875,-42.48046875,0.0
1676924552.5085516,-50.29296875,-65.91796875,58.59375,-41.9921875,0.0
1676924552.5123365,-34.1796875,-78.125,35.15625,-41.015625,0.0
1676924552.5161214,-42.96875,-19.04296875,-3.41796875,-50.29296875,0.0
1676924552.5199065,-37.59765625,8.30078125,30.76171875,-43.45703125,0.0
1676924552.5236914,-21.484375,3.90625,60.546875,-24.90234375,0.0
1676924552.5274763,-15.13671875,14.6484375,32.71484375,-11.23046875,0.0
1676924552.5313165,-16.6015625,7.32421875,27.83203125,-11.23046875,0.0
1676924552.5351567,-33.203125,-12.6953125,44.43359375,-14.6484375,0.0
1676924552.5389972,-22.94921875,-16.6015625,25.87890625,-22.4609375,0.0
1676924552.5428374,-23.4375,-43.9453125,-25.87890625,-34.1796875,0.0
1676924552.5466776,-51.7578125,-62.5,-16.11328125,-27.34375,0.0
1676924552.5505178,-55.6640625,-46.875,36.62109375,-24.90234375,0.0
1676924552.554358,-54.6875,-45.8984375,53.22265625,-37.59765625,0.0
1676924552.5581982,-41.015625,-47.8515625,0.9765625,-39.55078125,0.0
1676924552.5620384,-41.9921875,-35.15625,-16.11328125,-20.5078125,0.0
1676924552.5658789,-61.5234375,-18.06640625,44.43359375,-23.4375,0.0
1676924552.569719,-53.22265625,-11.71875,43.9453125,-23.4375,0.0
1676924552.5735593,-21.484375,-16.11328125,24.4140625,-14.16015625,0.0
1676924552.5772192,0.48828125,-6.34765625,26.85546875,-23.4375,0.0
1676924552.5808794,-2.44140625,-8.7890625,38.0859375,-10.25390625,0.0
1676924552.5845394,-24.90234375,-35.15625,38.57421875,-8.30078125,0.0
1676924552.5881996,-51.26953125,-46.38671875,25.390625,-33.69140625,0.0
1676924552.5918596,-36.1328125,-41.015625,19.04296875,-32.2265625,0.0
1676924552.5955195,-15.625,-34.66796875,17.578125,-20.5078125,0.0
1676924552.5991797,-13.18359375,-13.18359375,27.83203125,-17.08984375,0.0
1676924552.6028397,-24.4140625,-21.484375,-30.76171875,-19.04296875,0.0
1676924552.6065,-31.25,-34.66796875,-30.2734375,-26.3671875,0.0
1676924552.6101599,-31.73828125,-7.8125,52.24609375,-18.06640625,0.0
1676924552.61382,-33.203125,-3.41796875,19.53125,-0.9765625,0.0
1676924552.61748,-55.6640625,-17.08984375,2.9296875,-15.625,0.0
1676924552.6212306,-77.1484375,-33.69140625,41.015625,-20.5078125,0.0
1676924552.6249812,-52.734375,-45.8984375,56.15234375,-29.78515625,0.0
1676924552.6287317,-37.59765625,-54.19921875,24.4140625,-47.8515625,0.0
1676924552.6324825,-59.08203125,-47.36328125,11.23046875,-55.17578125,0.0
1676924552.636233,-56.15234375,-28.80859375,27.34375,-42.48046875,0.0
1676924552.6399837,-38.57421875,-20.99609375,12.6953125,-30.76171875,0.0
1676924552.6437342,-35.15625,-26.3671875,-18.06640625,-30.76171875,0.0
1676924552.6474848,-38.0859375,-47.8515625,-12.20703125,-14.16015625,0.0
1676924552.6512356,-45.8984375,-56.15234375,47.36328125,-23.4375,0.0
1676924552.6549861,-37.109375,-32.2265625,42.96875,-42.96875,0.0
1676924552.6587367,-16.11328125,-5.859375,15.625,-8.30078125,0.0
1676924552.6624873,-60.05859375,-22.94921875,35.15625,10.7421875,0.0
1676924552.6662328,-84.47265625,-36.1328125,48.33984375,-19.04296875,0.0
1676924552.6699786,-52.24609375,-27.34375,24.90234375,-30.76171875,0.0
1676924552.6737242,-49.31640625,-39.55078125,13.671875,-47.36328125,0.0
1676924552.6774697,-44.921875,-35.15625,39.55078125,-21.484375,0.0
1676924552.6812155,-38.57421875,-25.390625,55.17578125,15.625,0.0
1676924552.684961,-24.4140625,-19.53125,32.2265625,-13.671875,0.0
1676924552.6887066,-12.20703125,-10.25390625,-13.18359375,-27.34375,0.0
1676924552.6924524,-22.4609375,-27.34375,2.9296875,-22.94921875,0.0
1676924552.696198,-49.31640625,-45.41015625,58.59375,-31.25,0.0
1676924552.6999435,-68.359375,-33.69140625,30.76171875,-24.90234375,0.0
1676924552.7036893,-30.76171875,-7.8125,17.578125,-20.99609375,0.0
1676924552.707435,-15.13671875,-5.37109375,37.59765625,-28.3203125,0.0
1676924552.711289,-10.7421875,-25.390625,43.45703125,-14.6484375,0.0
1676924552.7151432,-18.5546875,-45.8984375,28.3203125,-18.5546875,0.0
1676924552.7189972,-44.921875,-54.6875,8.7890625,-26.3671875,0.0
1676924552.7228513,-32.71484375,-41.50390625,32.71484375,-17.08984375,0.0
1676924552.7267056,-34.66796875,-18.06640625,31.25,-41.9921875,0.0
1676924552.7305596,-45.41015625,-9.27734375,-6.34765625,-38.0859375,0.0
1676924552.7344136,-39.0625,-32.2265625,-12.20703125,-22.4609375,0.0
1676924552.738268,-22.94921875,-34.1796875,33.69140625,-39.0625,0.0
1676924552.742122,-51.7578125,-24.90234375,32.2265625,-34.66796875,0.0
1676924552.745976,-76.171875,-24.90234375,-3.90625,-17.578125,0.0
1676924552.7498302,-45.41015625,-15.625,-7.32421875,-32.71484375,0.0
1676924552.7536843,-37.109375,-20.99609375,10.25390625,-34.66796875,0.0
1676924552.7586167,-44.921875,-37.59765625,11.23046875,-9.27734375,0.0
1676924552.7635489,-38.0859375,-41.9921875,-4.8828125,-25.390625,0.0
1676924552.7684813,-48.33984375,-52.24609375,-12.20703125,-39.0625,0.0
1676924552.7734137,-41.50390625,-48.33984375,3.90625,-39.55078125,0.0
1676924552.778346,-44.921875,-31.73828125,1.46484375,-44.921875,0.0
1676924552.7832785,-76.171875,-35.15625,-41.50390625,-21.484375,0.0
1676924552.7882106,-46.875,-18.06640625,-4.39453125,1.46484375,0.0
1676924552.793143,-22.94921875,-13.18359375,57.12890625,-21.484375,0.0
1676924552.7980754,-29.296875,-34.1796875,12.6953125,-42.96875,0.0
1676924552.8030076,-19.04296875,-29.78515625,-22.94921875,-33.203125,0.0
1676924552.80794,-34.1796875,-13.671875,-1.953125,-43.45703125,0.0
1676924552.8128724,-39.55078125,-13.18359375,30.76171875,-51.26953125,0.0
1676924552.8166223,-29.78515625,-20.01953125,-2.9296875,-41.50390625,0.0
1676924552.8203723,-36.62109375,-28.3203125,-12.6953125,-45.8984375,0.0
1676924552.8241222,-24.4140625,-35.64453125,26.3671875,-46.38671875,0.0
1676924552.8278723,-37.109375,-37.59765625,15.13671875,-36.1328125,0.0
1676924552.8316221,-17.578125,-40.0390625,-13.18359375,-33.69140625,0.0
1676924552.835372,11.23046875,-23.4375,-9.765625,-35.64453125,0.0
1676924552.839122,-23.4375,-19.04296875,14.16015625,-28.80859375,0.0
1676924552.842872,-40.0390625,-26.85546875,42.96875,-18.06640625,0.0
1676924552.846622,-33.69140625,-32.2265625,8.30078125,-41.9921875,0.0
1676924552.8503718,-34.1796875,-37.59765625,-8.30078125,-40.0390625,0.0
1676924552.854122,-30.2734375,-31.25,47.36328125,-31.25,0.0
1676924552.8578718,-39.55078125,-22.94921875,23.92578125,-15.625,0.0
1676924552.8615618,-20.01953125,-21.97265625,-2.44140625,-18.5546875,0.0
1676924552.865252,-14.6484375,-31.73828125,4.8828125,-50.78125,0.0
1676924552.868942,-28.3203125,-50.78125,33.69140625,-49.8046875,0.0
1676924552.8726323,-28.80859375,-35.64453125,36.62109375,-35.64453125,0.0
1676924552.8763223,-43.9453125,-5.37109375,14.6484375,-32.71484375,0.0
1676924552.8800125,-24.4140625,-10.25390625,12.20703125,-33.203125,0.0
1676924552.8837025,-4.39453125,-18.06640625,30.76171875,-29.296875,0.0
1676924552.8873925,-25.87890625,-32.71484375,26.3671875,-47.36328125,0.0
1676924552.8910828,-23.92578125,-52.734375,-27.83203125,-43.45703125,0.0
1676924552.8947728,-2.44140625,-35.64453125,-12.20703125,-31.25,0.0
1676924552.898463,-9.765625,-9.27734375,18.5546875,-33.203125,0.0
1676924552.902153,-22.4609375,-5.37109375,1.953125,-20.5078125,0.0
1676924552.905898,-34.1796875,-21.484375,19.04296875,-33.203125,0.0
1676924552.9096434,-16.6015625,-45.41015625,18.5546875,-46.38671875,0.0
1676924552.9133885,-2.44140625,-28.80859375,18.5546875,-47.36328125,0.0
1676924552.9171336,-13.671875,-8.30078125,26.85546875,-48.33984375,0.0
1676924552.920879,-25.390625,-21.484375,13.671875,-38.57421875,0.0
1676924552.924624,-24.4140625,-20.99609375,-4.39453125,-9.27734375,0.0
1676924552.928369,-14.16015625,-26.85546875,9.765625,-10.7421875,0.0
1676924552.9321144,-39.0625,-38.0859375,-5.37109375,-31.25,0.0
1676924552.9358594,-53.22265625,-42.48046875,-26.3671875,-16.11328125,0.0
1676924552.9396045,-33.69140625,-47.8515625,12.20703125,-18.06640625,0.0
1676924552.9433498,-0.48828125,-26.3671875,4.39453125,-28.3203125,0.0
1676924552.947095,11.71875,-9.27734375,4.8828125,-24.4140625,0.0
1676924552.950843,-21.484375,-28.3203125,11.23046875,-42.96875,0.0
1676924552.954591,-23.92578125,-50.78125,2.44140625,-44.43359375,0.0
1676924552.9583392,-5.859375,-42.48046875,6.34765625,-41.9921875,0.0
1676924552.9620874,-14.16015625,-25.390625,2.9296875,-28.80859375,0.0
1676924552.9658353,-18.06640625,-28.3203125,9.27734375,-19.53125,0.0
1676924552.9695835,-1.953125,-30.76171875,18.5546875,-36.62109375,0.0
1676924552.9733317,0.48828125,-32.71484375,19.53125,-18.06640625,0.0
1676924552.9770796,-28.80859375,-45.8984375,-25.390625,-2.44140625,0.0
1676924552.9808278,-50.29296875,-36.1328125,-20.5078125,-18.06640625,0.0
1676924552.984576,-45.8984375,-28.3203125,11.23046875,-34.1796875,0.0
1676924552.988324,-16.11328125,-31.73828125,-4.39453125,-32.2265625,0.0
1676924552.992072,-10.25390625,-29.78515625,8.7890625,-26.85546875,0.0
