timestamps,TP9,Fp1,Fp2,TP10,stim
1676923414.391626,274.90234375,137.20703125,182.12890625,212.890625,0.0
1676923414.3953748,237.3046875,126.46484375,181.15234375,214.84375,0.0
1676923414.399124,215.8203125,125.48828125,172.8515625,215.33203125,0.0
1676923414.402873,241.69921875,123.046875,173.33984375,218.75,0.0
1676923414.406852,254.39453125,111.81640625,175.78125,227.05078125,0.0
1676923414.410831,225.09765625,111.81640625,172.8515625,217.7734375,0.0
1676923414.41481,202.63671875,107.91015625,170.41015625,213.8671875,0.0
1676923414.418789,231.4453125,98.14453125,166.50390625,217.7734375,0.0
1676923414.4227679,264.6484375,103.515625,164.0625,219.7265625,0.0
1676923414.4267468,241.69921875,103.515625,159.1796875,212.890625,0.0
1676923414.4307256,208.49609375,104.4921875,157.2265625,210.9375,0.0
1676923414.4347045,230.95703125,119.140625,166.50390625,223.14453125,0.0
1676923414.4386835,267.578125,117.1875,165.52734375,220.21484375,0.0
1676923414.4426625,263.671875,102.5390625,155.2734375,212.40234375,0.0
1676923414.4466414,228.515625,97.16796875,153.80859375,203.125,0.0
1676923414.4506204,214.35546875,101.5625,149.4140625,194.3359375,0.0
1676923414.4541588,230.46875,98.6328125,142.578125,201.171875,0.0
1676923414.4576972,233.88671875,90.33203125,138.671875,201.66015625,0.0
1676923414.4612355,204.1015625,88.8671875,123.53515625,191.40625,0.0
1676923414.464774,183.59375,89.35546875,117.1875,186.5234375,0.0
1676923414.4683123,204.1015625,86.9140625,119.62890625,190.91796875,0.0
1676923414.4718506,218.26171875,77.1484375,116.69921875,192.87109375,0.0
1676923414.475389,179.6875,66.89453125,115.234375,196.2890625,0.0
1676923414.4789274,161.1328125,74.21875,111.328125,186.5234375,0.0
1676923414.4824657,194.82421875,77.1484375,105.46875,182.6171875,0.0
1676923414.486004,227.05078125,77.63671875,106.93359375,183.59375,0.0
1676923414.4895425,217.28515625,77.1484375,108.3984375,172.8515625,0.0
1676923414.4930809,191.40625,81.0546875,104.00390625,175.78125,0.0
1676923414.498074,207.51953125,82.03125,104.98046875,181.640625,0.0
1676923414.503067,239.74609375,81.54296875,102.05078125,183.10546875,0.0
1676923414.5080602,243.65234375,85.9375,99.12109375,187.5,0.0
1676923414.5130532,214.84375,80.56640625,95.703125,179.19921875,0.0
1676923414.5180464,201.171875,71.77734375,87.40234375,168.9453125,0.0
1676923414.5230393,219.23828125,65.91796875,81.0546875,176.7578125,0.0
1676923414.5280325,232.421875,68.359375,77.1484375,180.17578125,0.0
1676923414.5330257,213.37890625,63.96484375,74.21875,170.8984375,0.0
1676923414.5380187,196.77734375,51.26953125,70.3125,165.52734375,0.0
1676923414.543012,216.30859375,47.36328125,76.66015625,185.546875,0.0
1676923414.5480049,235.83984375,56.640625,79.58984375,189.453125,0.0
1676923414.552998,213.8671875,51.7578125,67.87109375,167.48046875,0.0
1676923414.5567446,177.24609375,36.1328125,71.2890625,172.36328125,0.0
1676923414.560491,183.10546875,37.59765625,98.6328125,172.8515625,0.0
1676923414.5642376,213.37890625,41.50390625,119.140625,170.41015625,0.0
1676923414.567984,201.66015625,43.9453125,130.859375,167.48046875,0.0
1676923414.5717306,163.57421875,41.50390625,134.765625,153.80859375,0.0
1676923414.5754771,166.015625,37.109375,131.34765625,150.87890625,0.0
1676923414.5792239,202.63671875,43.45703125,130.859375,147.4609375,0.0
1676923414.5829704,204.1015625,43.45703125,134.27734375,140.13671875,0.0
1676923414.586717,160.15625,25.390625,129.8828125,145.5078125,0.0
1676923414.5904634,152.83203125,29.296875,125.48828125,149.90234375,0.0
1676923414.59421,191.40625,42.48046875,127.9296875,143.5546875,0.0
1676923414.5979564,200.68359375,31.25,124.0234375,143.06640625,0.0
1676923414.60171,166.015625,27.34375,125.48828125,144.53125,0.0
1676923414.6054635,149.90234375,35.64453125,131.34765625,143.5546875,0.0
1676923414.6092172,175.78125,36.1328125,130.859375,142.578125,0.0
1676923414.6129706,196.2890625,32.2265625,134.765625,149.4140625,0.0
1676923414.6167243,178.22265625,29.296875,136.23046875,147.4609375,0.0
1676923414.6204777,150.87890625,26.3671875,134.27734375,143.5546875,0.0
1676923414.6242313,165.52734375,27.83203125,124.51171875,144.04296875,0.0
1676923414.627985,190.4296875,22.94921875,125.48828125,148.4375,0.0
1676923414.6317384,178.7109375,14.6484375,130.37109375,149.4140625,0.0
1676923414.635492,155.2734375,18.06640625,133.30078125,138.18359375,0.0
1676923414.6392455,147.94921875,22.94921875,133.30078125,133.30078125,0.0
1676923414.6429992,167.96875,20.01953125,125.0,134.765625,0.0
1676923414.646749,181.15234375,22.4609375,123.046875,134.27734375,0.0
1676923414.6504989,159.66796875,33.203125,127.44140625,126.46484375,0.0
1676923414.6542487,146.484375,31.25,126.46484375,126.953125,0.0
1676923414.6579986,164.0625,19.53125,117.1875,141.11328125,0.0
1676923414.6617484,173.828125,20.99609375,116.69921875,145.01953125,0.0
1676923414.6654983,154.296875,24.4140625,119.140625,133.7890625,0.0
1676923414.6692483,132.32421875,27.34375,123.046875,127.9296875,0.0
1676923414.6729982,139.16015625,23.4375,116.69921875,132.8125,0.0
1676923414.676748,168.45703125,23.92578125,113.28125,141.6015625,0.0
1676923414.680498,166.9921875,31.73828125,115.234375,130.859375,0.0
1676923414.6842477,139.16015625,30.76171875,112.79296875,127.9296875,0.0
1676923414.6879976,146.484375,37.109375,115.72265625,134.27734375,0.0
1676923414.6917498,178.7109375,40.0390625,118.1640625,139.6484375,0.0
1676923414.695502,180.6640625,39.55078125,131.34765625,135.7421875,0.0
1676923414.6992543,149.4140625,44.921875,154.78515625,127.44140625,0.0
1676923414.7030065,150.87890625,54.19921875,163.0859375,137.6953125,0.0
1676923414.7067587,188.4765625,61.5234375,169.921875,150.87890625,0.0
1676923414.710511,203.125,61.5234375,162.109375,150.390625,0.0
1676923414.7142632,170.41015625,56.15234375,143.5546875,144.53125,0.0
1676923414.7180154,153.3203125,53.7109375,121.09375,143.5546875,0.0
1676923414.7217677,184.08203125,58.59375,83.0078125,146.484375,0.0
1676923414.72552,209.47265625,58.59375,66.40625,158.203125,0.0
1676923414.7292721,180.17578125,54.19921875,73.73046875,156.25,0.0
1676923414.7330244,150.390625,53.7109375,94.7265625,151.85546875,0.0
1676923414.7368011,179.19921875,69.3359375,117.1875,158.203125,0.0
1676923414.7405777,208.49609375,75.1953125,121.09375,157.71484375,0.0
1676923414.7443545,187.5,67.3828125,124.51171875,158.69140625,0.0
1676923414.7481313,148.92578125,72.265625,113.28125,159.66796875,0.0
1676923414.7519078,159.1796875,84.9609375,88.8671875,151.3671875,0.0
1676923414.7556846,187.98828125,82.03125,79.1015625,151.85546875,0.0
1676923414.7594614,177.734375,68.84765625,70.80078125,156.73828125,0.0
1676923414.763238,141.6015625,72.75390625,70.3125,150.87890625,0.0
1676923414.7670147,141.6015625,90.33203125,83.984375,138.18359375,0.0
1676923414.7707915,162.59765625,78.125,81.54296875,137.20703125,0.0
1676923414.774568,162.109375,72.265625,77.1484375,142.08984375,0.0
1676923414.7783449,139.16015625,77.63671875,72.75390625,136.23046875,0.0
1676923414.7820983,129.8828125,80.56640625,78.125,135.7421875,0.0
1676923414.7858517,158.69140625,78.125,90.33203125,146.97265625,0.0
1676923414.7896051,183.59375,73.2421875,83.0078125,144.04296875,0.0
1676923414.7933588,165.52734375,75.1953125,70.80078125,130.37109375,0.0
1676923414.7971122,140.13671875,70.80078125,64.453125,132.8125,0.0
1676923414.8008657,157.2265625,73.2421875,64.453125,140.625,0.0
1676923414.804619,181.640625,73.73046875,62.98828125,146.97265625,0.0
1676923414.8083725,166.50390625,79.58984375,66.40625,139.6484375,0.0
1676923414.8121262,139.6484375,80.56640625,70.80078125,115.72265625,0.0
1676923414.8158796,141.6015625,73.2421875,72.75390625,114.74609375,0.0
1676923414.819633,173.33984375,76.66015625,66.40625,113.28125,0.0
1676923414.8233864,171.38671875,73.2421875,68.84765625,100.09765625,0.0
1676923414.827114,142.578125,65.4296875,72.265625,102.5390625,0.0
1676923414.8308418,128.90625,54.19921875,63.4765625,108.88671875,0.0
1676923414.8345695,146.484375,52.24609375,63.4765625,108.88671875,0.0
1676923414.8382971,162.109375,60.05859375,59.5703125,113.28125,0.0
1676923414.8420248,132.8125,49.8046875,56.15234375,105.95703125,0.0
1676923414.8457522,99.12109375,31.25,67.87109375,99.12109375,0.0
1676923414.84948,106.93359375,35.15625,83.0078125,108.88671875,0.0
1676923414.8532076,132.32421875,52.24609375,86.42578125,96.6796875,0.0
1676923414.8569353,109.86328125,43.45703125,83.49609375,86.42578125,0.0
1676923414.860663,80.56640625,41.50390625,85.9375,93.26171875,0.0
1676923414.8643906,93.75,48.33984375,90.8203125,98.6328125,0.0
1676923414.8681183,123.53515625,55.17578125,89.84375,108.88671875,0.0
1676923414.873118,122.0703125,52.24609375,82.51953125,104.00390625,0.0
1676923414.8781176,100.5859375,52.734375,80.56640625,92.7734375,0.0
1676923414.8831172,112.3046875,56.15234375,78.125,99.12109375,0.0
1676923414.888117,148.92578125,54.19921875,76.66015625,100.5859375,0.0
1676923414.8931167,148.92578125,54.6875,69.82421875,100.5859375,0.0
1676923414.8981164,116.2109375,56.640625,56.640625,101.5625,0.0
1676923414.903116,115.234375,65.91796875,47.36328125,108.3984375,0.0
1676923414.9081156,152.83203125,72.75390625,44.43359375,116.2109375,0.0
1676923414.9131155,182.12890625,74.21875,56.640625,124.0234375,0.0
1676923414.9181151,148.92578125,62.5,57.6171875,126.953125,0.0
1676923414.9231148,129.39453125,68.84765625,58.59375,119.62890625,0.0
1676923414.9281144,163.57421875,79.58984375,71.2890625,114.74609375,0.0
1676923414.9318671,184.08203125,77.1484375,72.75390625,124.0234375,0.0
1676923414.9356198,157.71484375,77.1484375,76.66015625,117.1875,0.0
1676923414.9393728,135.25390625,82.03125,85.44921875,118.65234375,0.0
1676923414.9431255,154.78515625,87.40234375,87.890625,131.34765625,0.0
1676923414.9468782,179.19921875,88.8671875,95.703125,137.20703125,0.0
1676923414.9506311,173.828125,89.84375,105.95703125,143.06640625,0.0
1676923414.9543839,154.296875,99.609375,122.0703125,145.99609375,0.0
1676923414.9581366,156.73828125,101.5625,137.6953125,152.34375,0.0
1676923414.9618893,178.7109375,89.84375,129.8828125,174.31640625,0.0
1676923414.965642,184.08203125,96.19140625,115.72265625,187.01171875,0.0
1676923414.969395,172.36328125,118.1640625,116.2109375,176.7578125,0.0
1676923414.9731476,166.9921875,113.28125,122.0703125,168.45703125,0.0
1676923414.978136,194.82421875,106.93359375,132.8125,166.9921875,0.0
1676923414.9831243,222.65625,116.69921875,133.30078125,164.0625,0.0
1676923414.9881127,204.58984375,119.140625,139.6484375,158.69140625,0.0
1676923414.9931011,177.734375,116.2109375,149.4140625,149.90234375,0.0
1676923414.9980896,186.5234375,113.28125,145.99609375,149.4140625,0.0
1676923415.003078,217.7734375,114.2578125,144.53125,161.1328125,0.0
1676923415.0080662,218.75,116.69921875,139.16015625,164.0625,0.0
1676923415.0130546,197.265625,113.76953125,129.8828125,170.41015625,0.0
1676923415.018043,194.3359375,117.67578125,138.671875,182.12890625,0.0
1676923415.0230312,227.5390625,138.671875,153.80859375,182.12890625,0.0
1676923415.0280197,237.79296875,137.6953125,150.390625,180.17578125,0.0
1676923415.033008,201.171875,128.90625,147.4609375,179.6875,0.0
1676923415.0356674,184.08203125,130.37109375,142.08984375,174.8046875,0.0
1676923415.038327,220.21484375,138.671875,126.953125,182.6171875,0.0
1676923415.0409863,234.86328125,142.08984375,117.67578125,183.10546875,0.0
1676923415.0436456,188.96484375,134.27734375,116.2109375,176.26953125,0.0
1676923415.0463052,158.69140625,131.34765625,113.76953125,171.38671875,0.0
1676923415.0489645,184.08203125,131.8359375,112.79296875,164.0625,0.0
1676923415.0516238,207.51953125,134.27734375,115.72265625,172.36328125,0.0
1676923415.0542834,176.26953125,133.30078125,104.00390625,170.41015625,0.0
1676923415.0569427,136.71875,123.046875,91.796875,147.4609375,0.0
1676923415.059602,150.390625,117.67578125,102.5390625,133.30078125,0.0
1676923415.0622616,181.640625,111.328125,96.19140625,130.859375,0.0
1676923415.064921,161.1328125,102.05078125,68.84765625,143.06640625,0.0
1676923415.0685015,134.765625,117.1875,58.59375,140.625,0.0
1676923415.072082,151.3671875,129.39453125,54.19921875,116.2109375,0.0
1676923415.0756626,162.109375,113.76953125,56.15234375,112.3046875,0.0
1676923415.0792432,163.57421875,100.09765625,69.3359375,118.65234375,0.0
1676923415.0828238,149.90234375,95.21484375,75.68359375,121.09375,0.0
1676923415.0864043,137.6953125,101.07421875,77.1484375,119.62890625,0.0
1676923415.0899847,159.1796875,102.05078125,75.1953125,122.55859375,0.0
1676923415.0935652,171.875,89.84375,66.89453125,142.08984375,0.0
1676923415.0971458,142.578125,84.47265625,70.3125,143.06640625,0.0
1676923415.1007264,136.71875,86.9140625,89.84375,120.60546875,0.0
1676923415.104307,156.73828125,84.47265625,91.796875,126.953125,0.0
1676923415.1078875,178.22265625,83.49609375,92.7734375,142.578125,0.0
1676923415.111646,165.0390625,80.078125,91.30859375,136.71875,0.0
1676923415.1154044,136.23046875,66.40625,85.9375,126.46484375,0.0
1676923415.119163,146.484375,58.59375,87.40234375,132.32421875,0.0
1676923415.1229215,175.78125,62.5,79.58984375,134.27734375,0.0
1676923415.12668,180.6640625,62.01171875,72.75390625,129.8828125,0.0
1676923415.1304383,150.87890625,55.17578125,76.171875,129.39453125,0.0
1676923415.1341968,127.44140625,45.8984375,76.66015625,136.23046875,0.0
1676923415.1379552,148.92578125,42.48046875,83.49609375,143.06640625,0.0
1676923415.1417136,164.0625,51.26953125,91.796875,135.7421875,0.0
1676923415.1454723,128.41796875,43.45703125,85.44921875,129.8828125,0.0
1676923415.1492307,114.74609375,35.64453125,68.359375,131.34765625,0.0
1676923415.1529891,142.578125,42.96875,62.5,137.20703125,0.0
1676923415.15674,165.0390625,39.55078125,71.77734375,132.32421875,0.0
1676923415.1604908,132.8125,27.83203125,72.75390625,113.28125,0.0
1676923415.1642416,99.12109375,28.3203125,67.87109375,99.609375,0.0
1676923415.1679924,124.51171875,29.78515625,59.08203125,107.421875,0.0
1676923415.1717432,156.25,20.5078125,52.24609375,111.81640625,0.0
1676923415.175494,139.16015625,18.5546875,48.828125,106.93359375,0.0
1676923415.1792448,98.14453125,21.97265625,49.31640625,111.328125,0.0
1676923415.1829956,105.95703125,33.203125,57.6171875,114.2578125,0.0
1676923415.1867464,147.94921875,40.52734375,66.40625,111.328125,0.0
1676923415.1904972,154.296875,34.66796875,69.82421875,108.88671875,0.0
1676923415.194248,130.859375,34.66796875,65.91796875,98.14453125,0.0
1676923415.1979988,130.37109375,36.1328125,62.01171875,103.515625,0.0
1676923415.2018874,160.64453125,41.015625,69.3359375,114.2578125,0.0
1676923415.205776,159.66796875,35.64453125,68.359375,112.79296875,0.0
1676923415.2096643,124.51171875,29.296875,63.96484375,111.328125,0.0
1676923415.213553,112.79296875,38.57421875,71.77734375,109.86328125,0.0
1676923415.2174416,139.6484375,42.48046875,81.54296875,122.55859375,0.0
1676923415.2213302,150.87890625,30.76171875,79.58984375,135.7421875,0.0
1676923415.2252188,135.25390625,39.0625,80.078125,127.44140625,0.0
1676923415.2291074,124.0234375,54.6875,84.47265625,104.00390625,0.0
1676923415.232996,128.90625,42.48046875,68.84765625,98.14453125,0.0
1676923415.2368844,158.69140625,39.55078125,57.6171875,112.3046875,0.0
1676923415.240773,146.484375,43.45703125,65.4296875,117.67578125,0.0
1676923415.2446616,114.74609375,45.8984375,70.3125,114.2578125,0.0
1676923415.2495213,122.55859375,41.50390625,65.4296875,108.3984375,0.0
1676923415.2543807,156.25,44.921875,65.91796875,110.3515625,0.0
1676923415.2592404,159.1796875,52.24609375,73.2421875,119.62890625,0.0
1676923415.2641,125.0,49.31640625,75.68359375,122.0703125,0.0
1676923415.2689598,123.53515625,51.7578125,73.73046875,116.2109375,0.0
1676923415.2738194,148.92578125,44.43359375,67.3828125,136.23046875,0.0
1676923415.278679,164.55078125,51.7578125,62.98828125,147.94921875,0.0
1676923415.2835386,150.87890625,62.5,63.96484375,120.1171875,0.0
1676923415.2883983,133.7890625,57.12890625,67.3828125,119.62890625,0.0
1676923415.2932577,156.73828125,59.5703125,71.2890625,135.7421875,0.0
1676923415.2981174,176.26953125,63.96484375,75.1953125,133.30078125,0.0
1676923415.302977,155.76171875,64.453125,78.61328125,126.46484375,0.0
1676923415.306708,135.25390625,68.359375,83.984375,131.8359375,0.0
1676923415.3104393,151.3671875,79.1015625,96.19140625,128.90625,0.0
1676923415.3141704,180.17578125,87.40234375,100.5859375,133.30078125,0.0
1676923415.3179016,162.59765625,90.33203125,95.703125,128.41796875,0.0
1676923415.3216326,120.60546875,83.984375,94.7265625,109.86328125,0.0
1676923415.3253636,129.39453125,86.42578125,97.65625,116.2109375,0.0
1676923415.329095,167.96875,98.14453125,96.6796875,127.9296875,0.0
1676923415.332826,169.43359375,100.09765625,92.7734375,122.0703125,0.0
1676923415.3365571,122.55859375,87.40234375,87.40234375,120.60546875,0.0
1676923415.3402882,99.609375,90.8203125,86.42578125,118.1640625,0.0
1676923415.3440194,139.16015625,120.60546875,96.19140625,114.74609375,0.0
1676923415.3477504,154.78515625,118.1640625,93.26171875,120.1171875,0.0
1676923415.3514981,128.41796875,108.88671875,86.9140625,114.2578125,0.0
1676923415.3552456,125.0,119.62890625,97.16796875,122.0703125,0.0
1676923415.3589933,158.203125,122.0703125,102.5390625,137.20703125,0.0
1676923415.3627408,177.734375,111.328125,90.33203125,136.23046875,0.0
1676923415.3664885,155.76171875,105.95703125,82.51953125,130.37109375,0.0
1676923415.370236,132.8125,111.81640625,74.70703125,137.20703125,0.0
1676923415.3739836,153.80859375,140.13671875,78.125,140.625,0.0
1676923415.3777313,188.96484375,191.89453125,94.23828125,143.5546875,0.0
1676923415.3814788,179.19921875,235.3515625,86.42578125,144.04296875,0.0
1676923415.3852265,142.08984375,252.44140625,83.984375,125.9765625,0.0
1676923415.388974,137.6953125,245.60546875,85.44921875,107.91015625,0.0
1676923415.3927217,173.828125,241.69921875,87.890625,125.0,0.0
1676923415.3964949,185.546875,230.46875,96.19140625,135.7421875,0.0
1676923415.400268,153.3203125,212.40234375,90.33203125,115.72265625,0.0
1676923415.4040413,137.20703125,200.68359375,82.03125,107.91015625,0.0
1676923415.4078145,144.53125,185.05859375,73.2421875,116.2109375,0.0
1676923415.4115877,158.69140625,175.78125,58.59375,121.09375,0.0
1676923415.415361,147.4609375,179.6875,49.31640625,119.140625,0.0
1676923415.4191344,124.51171875,180.17578125,37.109375,118.1640625,0.0
1676923415.4229076,134.27734375,169.921875,17.578125,126.46484375,0.0
1676923415.4266808,163.57421875,170.8984375,4.8828125,140.13671875,0.0
1676923415.430454,161.62109375,180.6640625,7.32421875,129.8828125,0.0
1676923415.4342272,132.8125,173.33984375,23.4375,127.44140625,0.0
1676923415.4380004,138.671875,161.62109375,25.87890625,133.30078125,0.0
1676923415.441754,170.41015625,153.3203125,20.01953125,143.06640625,0.0
1676923415.445508,173.828125,153.3203125,36.1328125,147.94921875,0.0
1676923415.4492617,146.97265625,158.203125,72.265625,140.625,0.0
1676923415.4530153,154.78515625,163.57421875,96.19140625,148.4375,0.0
1676923415.456769,195.3125,167.48046875,90.33203125,159.1796875,0.0
1676923415.4605227,208.0078125,166.50390625,83.49609375,161.1328125,0.0
1676923415.4642766,180.17578125,160.15625,94.7265625,157.2265625,0.0
1676923415.4680302,165.52734375,152.34375,109.86328125,160.15625,0.0
1676923415.4717839,187.98828125,151.85546875,113.28125,157.71484375,0.0
1676923415.4755378,205.078125,148.4375,113.28125,151.3671875,0.0
1676923415.4792914,176.7578125,137.6953125,114.2578125,147.94921875,0.0
1676923415.483045,153.3203125,141.11328125,105.95703125,146.97265625,0.0
1676923415.486791,183.10546875,146.484375,104.00390625,158.203125,0.0
1676923415.4905367,209.47265625,143.06640625,104.98046875,171.875,0.0
1676923415.4942825,190.4296875,135.25390625,99.609375,167.48046875,0.0
1676923415.4980283,163.57421875,127.9296875,93.75,151.85546875,0.0
1676923415.501774,173.33984375,121.58203125,90.33203125,154.78515625,0.0
1676923415.5055199,203.61328125,117.1875,104.4921875,153.3203125,0.0
1676923415.509266,193.359375,108.88671875,118.1640625,149.90234375,0.0
1676923415.5130117,143.5546875,104.4921875,124.51171875,148.92578125,0.0
1676923415.5167575,139.6484375,112.3046875,128.41796875,131.34765625,0.0
1676923415.5205033,173.33984375,105.46875,130.859375,119.140625,0.0
1676923415.524249,174.31640625,101.07421875,134.27734375,119.140625,0.0
1676923415.5279949,142.578125,101.07421875,135.25390625,116.69921875,0.0
1676923415.5317454,130.37109375,103.02734375,129.8828125,113.28125,0.0
1676923415.5354958,156.25,103.02734375,122.55859375,119.140625,0.0
1676923415.5392463,183.10546875,100.09765625,118.1640625,125.48828125,0.0
1676923415.5429966,173.33984375,102.5390625,125.48828125,126.953125,0.0
1676923415.5467472,154.78515625,96.19140625,133.30078125,127.9296875,0.0
1676923415.5504975,156.25,78.61328125,126.953125,131.8359375,0.0
1676923415.554248,171.38671875,71.2890625,123.046875,149.90234375,0.0
1676923415.5579987,160.64453125,72.265625,122.0703125,142.578125,0.0
1676923415.561749,115.72265625,59.5703125,112.79296875,117.1875,0.0
1676923415.5654995,109.375,44.43359375,106.4453125,117.67578125,0.0
1676923415.5692499,135.7421875,40.0390625,101.5625,126.953125,0.0
1676923415.5730004,138.18359375,35.15625,92.7734375,116.2109375,0.0
1676923415.5767605,111.328125,28.3203125,88.8671875,100.09765625,0.0
1676923415.5805209,89.84375,24.4140625,81.0546875,98.14453125,0.0
1676923415.584281,116.2109375,23.4375,80.56640625,108.88671875,0.0
1676923415.588041,145.99609375,30.2734375,84.47265625,104.98046875,0.0
1676923415.5918014,111.81640625,23.4375,78.125,85.9375,0.0
1676923415.5955615,80.078125,12.6953125,76.66015625,88.37890625,0.0
1676923415.5993216,103.02734375,24.4140625,79.58984375,103.515625,0.0
1676923415.603082,134.27734375,37.59765625,79.58984375,99.609375,0.0
1676923415.606842,118.65234375,26.85546875,78.61328125,92.28515625,0.0
1676923415.6106021,85.9375,18.5546875,67.87109375,89.35546875,0.0
1676923415.6143625,93.75,23.4375,60.546875,90.8203125,0.0
1676923415.6181226,124.0234375,23.4375,67.87109375,92.7734375,0.0
1676923415.6231418,116.2109375,16.11328125,72.75390625,88.37890625,0.0
1676923415.628161,83.0078125,10.25390625,83.984375,79.1015625,0.0
1676923415.6331804,81.0546875,8.30078125,91.30859375,76.66015625,0.0
1676923415.6381996,116.69921875,13.671875,83.984375,84.47265625,0.0
1676923415.6432188,129.39453125,6.34765625,84.9609375,82.51953125,0.0
1676923415.6482382,99.609375,1.46484375,85.9375,81.54296875,0.0
1676923415.6532574,97.65625,11.71875,81.54296875,85.9375,0.0
1676923415.6582766,128.90625,6.34765625,73.2421875,82.03125,0.0
1676923415.6632957,134.765625,-0.48828125,62.98828125,78.125,0.0
1676923415.668315,98.14453125,4.8828125,61.03515625,84.9609375,0.0
1676923415.6733344,80.078125,10.7421875,54.6875,82.03125,0.0
1676923415.6783535,101.5625,5.859375,48.33984375,77.1484375,0.0
1676923415.6820743,120.60546875,-4.8828125,49.8046875,89.84375,0.0
1676923415.685795,105.46875,-1.46484375,54.6875,95.21484375,0.0
1676923415.6895158,88.37890625,4.8828125,59.5703125,83.0078125,0.0
1676923415.6932366,101.5625,-9.765625,57.6171875,80.078125,0.0
1676923415.6969573,123.53515625,-8.7890625,57.6171875,90.8203125,0.0
1676923415.7006779,124.51171875,-5.37109375,58.59375,98.14453125,0.0
1676923415.7043986,106.4453125,-1.953125,53.7109375,88.37890625,0.0
1676923415.7081194,105.95703125,20.99609375,49.8046875,87.890625,0.0
1676923415.7118402,122.55859375,9.27734375,45.8984375,113.76953125,0.0
1676923415.715561,137.6953125,6.34765625,40.0390625,126.953125,0.0
1676923415.7192817,130.859375,23.4375,50.78125,112.3046875,0.0
1676923415.7230024,112.3046875,5.859375,57.6171875,115.234375,0.0
1676923415.7267544,135.7421875,-8.7890625,61.5234375,122.0703125,0.0
1676923415.7305064,155.2734375,-15.625,66.40625,114.2578125,0.0
1676923415.7342582,127.44140625,-8.7890625,62.01171875,101.07421875,0.0
1676923415.7380102,101.5625,-25.390625,63.96484375,87.890625,0.0
1676923415.7417622,110.3515625,-44.921875,72.265625,83.0078125,0.0
1676923415.745514,125.9765625,-24.4140625,70.3125,75.1953125,0.0
1676923415.749266,110.3515625,-13.18359375,66.40625,67.3828125,0.0
1676923415.753018,82.51953125,0.0,69.3359375,65.4296875,0.0
1676923415.75677,80.56640625,10.25390625,71.77734375,85.9375,0.0
1676923415.760522,114.74609375,18.5546875,76.171875,99.609375,0.0
1676923415.7642736,124.51171875,18.06640625,77.63671875,85.9375,0.0
1676923415.7680256,96.6796875,6.34765625,75.68359375,87.40234375,0.0
1676923415.7717762,99.609375,10.25390625,84.47265625,94.23828125,0.0
1676923415.7755268,131.8359375,15.625,91.796875,97.16796875,0.0
1676923415.7792773,147.94921875,10.25390625,87.40234375,101.5625,0.0
1676923415.783028,122.0703125,5.37109375,85.9375,101.07421875,0.0
1676923415.7867785,105.46875,7.32421875,91.796875,100.09765625,0.0
1676923415.7905288,126.953125,8.7890625,94.23828125,110.83984375,0.0
1676923415.7942793,153.3203125,11.23046875,84.47265625,116.2109375,0.0
1676923415.79803,132.32421875,0.9765625,75.68359375,114.2578125,0.0
1676923415.8017805,104.4921875,4.8828125,78.125,119.62890625,0.0
1676923415.805531,134.27734375,13.671875,82.03125,119.140625,0.0
1676923415.8092816,162.109375,10.25390625,78.61328125,124.0234375,0.0
1676923415.8130322,145.99609375,22.4609375,76.66015625,123.046875,0.0
1676923415.8168082,122.0703125,32.71484375,76.171875,106.93359375,0.0
1676923415.8205843,122.55859375,28.80859375,72.265625,96.19140625,0.0
1676923415.8243601,143.06640625,20.99609375,77.63671875,99.12109375,0.0
1676923415.8281362,144.53125,18.5546875,85.9375,94.7265625,0.0
1676923415.8319123,123.046875,22.4609375,94.23828125,86.9140625,0.0
1676923415.835688,117.1875,24.90234375,101.5625,85.44921875,0.0
1676923415.8394642,139.6484375,24.90234375,97.16796875,85.44921875,0.0
1676923415.8432403,152.34375,27.34375,86.42578125,95.21484375,0.0
1676923415.8470163,136.23046875,30.76171875,81.0546875,92.7734375,0.0
1676923415.8507924,121.58203125,33.69140625,76.171875,80.56640625,0.0
1676923415.8545682,135.7421875,32.2265625,74.21875,93.26171875,0.0
1676923415.8583443,156.73828125,24.4140625,77.63671875,104.4921875,0.0
1676923415.862062,139.6484375,22.4609375,85.44921875,99.609375,0.0
1676923415.8657796,108.88671875,12.20703125,91.796875,91.30859375,0.0
1676923415.8694973,117.1875,4.39453125,95.21484375,104.00390625,0.0
1676923415.873215,147.4609375,13.18359375,100.09765625,120.60546875,0.0
1676923415.8769326,142.08984375,19.04296875,101.07421875,112.79296875,0.0
1676923415.8806503,106.4453125,7.8125,99.12109375,104.4921875,0.0
1676923415.884368,106.93359375,6.8359375,95.703125,114.74609375,0.0
1676923415.8880856,137.20703125,20.5078125,93.26171875,122.0703125,0.0
1676923415.8918033,159.66796875,27.83203125,97.16796875,110.3515625,0.0
1676923415.895521,132.32421875,20.5078125,94.7265625,99.609375,0.0
1676923415.8992386,111.81640625,7.8125,85.9375,93.75,0.0
1676923415.9029562,138.18359375,5.37109375,83.984375,99.12109375,0.0
1676923415.9067109,160.15625,8.30078125,83.984375,100.5859375,0.0
1676923415.9104655,136.23046875,1.953125,75.68359375,95.21484375,0.0
1676923415.9142203,107.421875,-2.9296875,72.75390625,95.21484375,0.0
1676923415.917975,124.51171875,-5.37109375,71.2890625,96.6796875,0.0
1676923415.9217296,139.6484375,-6.34765625,62.5,98.6328125,0.0
1676923415.9254842,121.58203125,-18.06640625,59.5703125,92.7734375,0.0
1676923415.9292388,96.19140625,-31.25,61.03515625,89.84375,0.0
1676923415.9329934,105.46875,-25.87890625,60.05859375,91.796875,0.0
1676923415.936748,140.625,-16.6015625,59.5703125,101.5625,0.0
1676923415.940503,149.90234375,-7.32421875,62.98828125,118.1640625,0.0
1676923415.9442575,119.140625,-4.39453125,61.03515625,127.9296875,0.0
1676923415.948012,117.1875,5.37109375,62.5,125.48828125,0.0
1676923415.9517665,149.4140625,-6.8359375,59.5703125,115.72265625,0.0
1676923415.955521,155.2734375,-18.06640625,60.05859375,113.76953125,0.0
1676923415.9592755,130.859375,-6.34765625,66.89453125,107.91015625,0.0
1676923415.9630299,112.3046875,0.0,64.94140625,100.09765625,0.0
1676923415.9667842,130.859375,0.0,60.05859375,96.19140625,0.0
1676923415.9705386,134.27734375,-7.8125,55.17578125,106.93359375,0.0
1676923415.9742932,105.46875,-8.7890625,51.7578125,103.515625,0.0
1676923415.9780476,94.23828125,1.46484375,55.17578125,84.47265625,0.0
1676923415.981802,109.375,2.9296875,56.15234375,93.26171875,0.0
1676923415.9855566,133.30078125,1.953125,58.10546875,104.00390625,0.0
1676923415.989311,125.9765625,9.27734375,67.3828125,104.98046875,0.0
1676923415.9930654,107.91015625,15.625,73.2421875,98.6328125,0.0
1676923415.9980602,114.2578125,7.8125,77.1484375,103.02734375,0.0
1676923416.0030549,138.671875,7.32421875,76.66015625,111.328125,0.0
1676923416.0080495,145.5078125,5.859375,77.63671875,106.4453125,0.0
1676923416.0130444,114.74609375,-7.8125,77.1484375,99.609375,0.0
1676923416.0180392,106.93359375,-24.4140625,77.1484375,102.05078125,0.0
1676923416.0230339,137.20703125,-37.109375,81.54296875,113.76953125,0.0
1676923416.0280285,152.34375,-35.64453125,82.51953125,114.74609375,0.0
1676923416.0330234,132.8125,-23.92578125,82.03125,111.81640625,0.0
1676923416.0380182,120.60546875,-14.6484375,85.9375,114.74609375,0.0
1676923416.0430129,137.20703125,-23.4375,86.42578125,126.953125,0.0
1676923416.0480075,162.109375,-22.94921875,84.47265625,123.046875,0.0
1676923416.0530024,155.2734375,-27.34375,85.44921875,95.703125,0.0
1676923416.0581017,115.72265625,-42.48046875,85.44921875,91.796875,0.0
1676923416.063201,112.3046875,-44.921875,82.03125,96.19140625,0.0
1676923416.0683002,134.27734375,-43.45703125,75.1953125,88.8671875,0.0
1676923416.0733995,116.69921875,-45.8984375,73.73046875,81.54296875,0.0
1676923416.0784988,70.3125,-60.546875,68.359375,74.70703125,0.0
1676923416.0835981,59.08203125,-71.2890625,55.17578125,67.87109375,0.0
1676923416.0886974,84.47265625,-57.12890625,46.875,61.5234375,0.0
1676923416.0937967,90.33203125,-55.17578125,51.26953125,66.89453125,0.0
1676923416.098896,51.7578125,-70.3125,49.8046875,69.82421875,0.0
1676923416.1039953,39.0625,-68.359375,44.43359375,70.3125,0.0
1676923416.1090946,84.47265625,-68.359375,45.8984375,61.5234375,0.0
1676923416.114194,103.515625,-79.58984375,50.29296875,65.91796875,0.0
1676923416.116591,82.03125,-79.1015625,57.6171875,66.40625,0.0
1676923416.118988,67.3828125,-78.125,53.7109375,62.5,0.0
1676923416.121385,82.51953125,-75.68359375,45.41015625,64.94140625,0.0
1676923416.1237822,104.4921875,-72.265625,47.36328125,70.3125,0.0
1676923416.1261792,96.6796875,-70.80078125,49.31640625,71.77734375,0.0
1676923416.1285763,65.4296875,-67.87109375,46.875,65.91796875,0.0
1676923416.130973,66.89453125,-76.171875,36.1328125,60.05859375,0.0
1676923416.1333702,103.515625,-79.58984375,31.73828125,62.98828125,0.0
1676923416.1357672,113.28125,-72.75390625,44.43359375,68.84765625,0.0
1676923416.1381643,85.44921875,-81.0546875,44.921875,56.640625,0.0
1676923416.1405613,77.1484375,-84.47265625,43.45703125,56.640625,0.0
1676923416.1429584,93.26171875,-90.8203125,47.8515625,63.96484375,0.0
1676923416.1467118,83.984375,-95.21484375,47.36328125,78.125,0.0
1676923416.1504653,66.89453125,-81.54296875,54.19921875,72.265625,0.0
1676923416.1542187,73.2421875,-70.3125,61.5234375,58.59375,0.0
1676923416.157972,95.703125,-65.91796875,57.6171875,68.359375,0.0
1676923416.1617255,111.328125,-68.84765625,58.10546875,71.2890625,0.0
1676923416.1654787,89.35546875,-69.3359375,53.7109375,65.91796875,0.0
1676923416.1692321,67.3828125,-65.4296875,43.45703125,64.94140625,0.0
1676923416.1729856,79.1015625,-69.82421875,49.8046875,75.68359375,0.0
1676923416.176739,102.05078125,-64.453125,47.8515625,79.58984375,0.0
1676923416.1804924,90.33203125,-52.24609375,48.33984375,54.6875,0.0
1676923416.1842458,56.640625,-57.12890625,55.17578125,41.50390625,0.0
1676923416.1879992,69.3359375,-47.8515625,52.734375,62.01171875,0.0
1676923416.1917474,107.91015625,-41.015625,51.7578125,66.89453125,0.0
1676923416.1954958,109.86328125,-53.22265625,51.7578125,61.03515625,0.0
1676923416.199244,74.70703125,-59.08203125,42.96875,58.10546875,0.0
1676923416.2029922,68.359375,-53.22265625,40.0390625,54.19921875,0.0
1676923416.2067406,96.19140625,-52.24609375,42.48046875,57.6171875,0.0
1676923416.2104888,104.98046875,-54.6875,41.9921875,60.05859375,0.0
1676923416.214237,80.56640625,-51.7578125,41.9921875,60.546875,0.0
1676923416.2179854,64.453125,-49.8046875,49.8046875,81.0546875,0.0
1676923416.2217336,100.09765625,-38.0859375,54.6875,96.19140625,0.0
1676923416.2254817,134.27734375,-29.296875,59.5703125,90.33203125,0.0
1676923416.2292302,116.2109375,-44.43359375,61.5234375,91.796875,0.0
1676923416.2329783,96.6796875,-61.03515625,53.22265625,96.6796875,0.0
1676923416.2368677,107.421875,-62.98828125,49.8046875,105.46875,0.0
1676923416.240757,139.16015625,-59.08203125,48.828125,110.3515625,0.0
1676923416.2446465,126.46484375,-73.73046875,47.36328125,105.95703125,0.0
1676923416.2485359,88.37890625,-78.125,49.31640625,100.09765625,0.0
1676923416.2524252,94.7265625,-73.2421875,44.43359375,96.6796875,0.0
1676923416.2563145,121.58203125,-82.51953125,37.109375,92.7734375,0.0
1676923416.2602038,123.046875,-94.7265625,35.64453125,87.890625,0.0
1676923416.2640932,97.16796875,-92.7734375,46.38671875,91.30859375,0.0
1676923416.2679825,98.14453125,-81.0546875,54.6875,94.23828125,0.0
1676923416.271872,120.1171875,-94.23828125,46.38671875,92.28515625,0.0
1676923416.2757614,120.1171875,-101.07421875,44.43359375,83.984375,0.0
1676923416.2796507,101.07421875,-94.7265625,47.8515625,84.9609375,0.0
1676923416.2832599,98.14453125,-92.7734375,52.24609375,85.44921875,0.0
1676923416.286869,122.55859375,-99.609375,53.22265625,90.8203125,0.0
1676923416.290478,152.34375,-98.6328125,59.08203125,93.26171875,0.0
1676923416.2940872,140.625,-89.84375,69.3359375,90.8203125,0.0
1676923416.2976964,114.2578125,-92.28515625,70.80078125,89.35546875,0.0
1676923416.3013053,121.58203125,-90.33203125,66.40625,82.03125,0.0
1676923416.3049145,140.13671875,-88.8671875,62.5,101.5625,0.0
1676923416.3085237,139.16015625,-81.54296875,75.68359375,111.81640625,0.0
1676923416.3121328,123.53515625,-74.70703125,84.9609375,94.23828125,0.0
1676923416.315742,116.69921875,-81.0546875,79.58984375,96.6796875,0.0
1676923416.319351,141.6015625,-88.8671875,78.61328125,105.46875,0.0
1676923416.3229601,153.80859375,-89.84375,81.0546875,110.3515625,0.0
1676923416.3267205,124.0234375,-87.890625,81.0546875,103.02734375,0.0
1676923416.3304806,110.3515625,-93.75,79.1015625,96.6796875,0.0
1676923416.334241,127.44140625,-95.21484375,71.77734375,97.16796875,0.0
1676923416.3380013,141.6015625,-91.30859375,69.3359375,96.19140625,0.0
1676923416.3417616,128.90625,-89.35546875,71.2890625,95.703125,0.0
1676923416.345522,102.05078125,-93.26171875,68.84765625,96.6796875,0.0
1676923416.349282,117.67578125,-87.40234375,72.265625,97.16796875,0.0
1676923416.3530424,148.4375,-80.56640625,77.1484375,96.19140625,0.0
1676923416.3568027,132.8125,-79.1015625,72.265625,90.33203125,0.0
1676923416.3605628,98.14453125,-85.9375,63.96484375,88.37890625,0.0
1676923416.3643231,108.3984375,-84.47265625,65.91796875,100.5859375,0.0
1676923416.3680835,140.625,-80.078125,65.91796875,99.609375,0.0
1676923416.3730767,138.18359375,-84.47265625,65.4296875,90.8203125,0.0
1676923416.3780699,108.88671875,-79.58984375,68.84765625,82.51953125,0.0
1676923416.3830633,96.19140625,-82.51953125,64.453125,79.58984375,0.0
1676923416.3880565,126.953125,-80.078125,63.4765625,84.47265625,0.0
1676923416.3930497,139.6484375,-78.61328125,64.453125,86.9140625,0.0
1676923416.398043,100.09765625,-84.47265625,58.59375,85.9375,0.0
1676923416.403036,86.42578125,-76.171875,58.10546875,87.40234375,0.0
1676923416.4080293,120.1171875,-64.94140625,59.5703125,93.75,0.0
1676923416.4130225,126.953125,-71.77734375,58.59375,101.07421875,0.0
1676923416.418016,96.6796875,-77.1484375,58.10546875,97.65625,0.0
1676923416.4230092,75.1953125,-69.3359375,56.15234375,93.26171875,0.0
1676923416.4280024,85.44921875,-69.3359375,59.5703125,89.84375,0.0
1676923416.431743,109.86328125,-70.80078125,59.5703125,87.890625,0.0
1676923416.4354835,99.12109375,-69.82421875,59.08203125,87.40234375,0.0
1676923416.439224,82.03125,-63.96484375,61.5234375,75.1953125,0.0
1676923416.4429646,95.21484375,-62.98828125,65.91796875,75.1953125,0.0
1676923416.446705,118.65234375,-73.73046875,68.359375,89.35546875,0.0
1676923416.4504457,121.09375,-76.171875,63.96484375,90.33203125,0.0
1676923416.4541864,105.95703125,-65.91796875,62.5,81.54296875,0.0
1676923416.457927,109.375,-57.6171875,65.4296875,88.37890625,0.0
1676923416.4616675,117.1875,-71.77734375,59.5703125,96.6796875,0.0
1676923416.465408,126.46484375,-74.70703125,51.26953125,97.65625,0.0
1676923416.4691486,115.234375,-61.03515625,58.10546875,87.890625,0.0
1676923416.4728892,90.33203125,-68.84765625,62.98828125,80.078125,0.0
1676923416.476653,113.28125,-68.84765625,59.5703125,82.51953125,0.0
1676923416.4804173,131.8359375,-65.91796875,57.12890625,85.44921875,0.0
1676923416.4841812,119.140625,-67.3828125,55.6640625,84.9609375,0.0
1676923416.487945,100.5859375,-62.5,57.12890625,83.49609375,0.0
1676923416.4917092,106.4453125,-59.5703125,52.24609375,85.9375,0.0
1676923416.4954731,136.23046875,-54.6875,54.6875,94.23828125,0.0
1676923416.499237,129.39453125,-50.78125,63.96484375,96.19140625,0.0
1676923416.5030012,96.19140625,-58.10546875,61.5234375,90.33203125,0.0
1676923416.5067651,86.9140625,-68.84765625,63.96484375,92.7734375,0.0
1676923416.510529,118.1640625,-61.5234375,67.87109375,96.6796875,0.0
1676923416.5142932,127.44140625,-54.19921875,63.96484375,84.47265625,0.0
1676923416.518057,90.33203125,-53.7109375,71.77734375,74.70703125,0.0
1676923416.5218027,81.54296875,-53.22265625,93.26171875,75.1953125,0.0
1676923416.5255485,116.69921875,-54.6875,97.65625,84.47265625,0.0
1676923416.529294,143.06640625,-53.7109375,85.9375,92.28515625,0.0
1676923416.5330396,118.65234375,-50.78125,81.54296875,90.8203125,0.0
1676923416.5367851,106.93359375,-48.33984375,81.0546875,93.26171875,0.0
1676923416.5405307,135.7421875,-46.875,79.58984375,104.00390625,0.0
1676923416.5442765,152.83203125,-45.41015625,74.21875,103.515625,0.0
1676923416.548022,133.7890625,-46.875,71.2890625,100.5859375,0.0
1676923416.5517676,115.72265625,-36.62109375,81.54296875,101.5625,0.0
1676923416.5555134,127.44140625,-34.66796875,87.40234375,102.05078125,0.0
1676923416.559259,134.27734375,-47.36328125,77.63671875,99.12109375,0.0
1676923416.5630045,105.46875,-59.08203125,66.89453125,94.23828125,0.0
1676923416.5667596,72.75390625,-53.7109375,71.2890625,98.6328125,0.0
1676923416.5705147,86.42578125,-43.45703125,70.80078125,92.28515625,0.0
1676923416.5742698,117.67578125,-45.8984375,64.94140625,93.26171875,0.0
1676923416.578025,116.2109375,-47.8515625,59.08203125,92.7734375,0.0
1676923416.5817802,95.21484375,-45.41015625,59.5703125,84.9609375,0.0
1676923416.5855353,87.890625,-47.36328125,59.08203125,76.66015625,0.0
1676923416.5892904,113.76953125,-47.36328125,55.6640625,78.61328125,0.0
1676923416.5930455,126.953125,-45.41015625,54.6875,89.35546875,0.0
1676923416.5968008,101.07421875,-44.43359375,48.828125,78.125,0.0
1676923416.600556,92.28515625,-43.9453125,53.7109375,65.4296875,0.0
1676923416.604311,112.3046875,-42.96875,63.96484375,78.125,0.0
1676923416.608066,133.30078125,-41.015625,62.01171875,92.7734375,0.0
1676923416.6118116,117.67578125,-36.1328125,55.6640625,90.33203125,0.0
1676923416.6155572,91.30859375,-34.1796875,53.22265625,82.03125,0.0
1676923416.6193027,97.65625,-40.52734375,50.78125,80.56640625,0.0
1676923416.623048,125.0,-36.1328125,53.7109375,85.9375,0.0
1676923416.6267936,124.51171875,-34.1796875,58.59375,87.40234375,0.0
1676923416.6305392,89.35546875,-41.50390625,49.8046875,77.1484375,0.0
1676923416.6342847,82.03125,-48.33984375,44.921875,80.078125,0.0
1676923416.6380303,111.81640625,-48.828125,43.9453125,94.7265625,0.0
1676923416.6417756,134.27734375,-40.0390625,41.9921875,91.30859375,0.0
1676923416.6455212,108.3984375,-42.48046875,41.9921875,80.56640625,0.0
1676923416.6492667,85.9375,-49.31640625,43.45703125,79.58984375,0.0
1676923416.6530123,107.421875,-48.828125,44.921875,84.47265625,0.0
1676923416.6568625,131.34765625,-49.31640625,46.38671875,85.44921875,0.0
1676923416.6607127,105.46875,-53.22265625,44.43359375,75.68359375,0.0
1676923416.664563,77.1484375,-46.38671875,46.875,74.70703125,0.0
1676923416.6684132,90.33203125,-40.52734375,45.8984375,70.80078125,0.0
1676923416.6722634,111.328125,-44.43359375,42.96875,65.4296875,0.0
1676923416.6761136,92.28515625,-50.78125,46.38671875,65.4296875,0.0
1676923416.6799636,55.6640625,-56.640625,45.8984375,68.359375,0.0
1676923416.6838138,70.80078125,-49.31640625,53.22265625,71.77734375,0.0
1676923416.687664,109.86328125,-43.9453125,60.546875,75.1953125,0.0
1676923416.6915143,110.83984375,-44.43359375,58.59375,79.1015625,0.0
1676923416.6953645,77.63671875,-41.015625,55.17578125,72.265625,0.0
1676923416.6992147,76.66015625,-27.83203125,56.640625,70.3125,0.0
1676923416.7028651,106.93359375,-25.87890625,56.640625,78.125,0.0
1676923416.7065158,112.79296875,-34.66796875,51.7578125,76.171875,0.0
1676923416.7101662,90.33203125,-36.62109375,51.7578125,66.40625,0.0
1676923416.7138166,75.68359375,-36.62109375,53.7109375,61.03515625,0.0
1676923416.7174673,95.703125,-37.59765625,50.78125,61.5234375,0.0
1676923416.7211177,116.2109375,-33.203125,50.78125,81.0546875,0.0
1676923416.7247682,88.8671875,-32.71484375,52.24609375,81.54296875,0.0
1676923416.7284188,69.82421875,-29.296875,54.19921875,60.546875,0.0
1676923416.7320693,95.703125,-26.85546875,58.10546875,67.3828125,0.0
1676923416.7357197,118.1640625,-26.85546875,58.10546875,83.984375,0.0
1676923416.7393703,103.02734375,-28.3203125,56.640625,85.9375,0.0
1676923416.7430208,75.68359375,-30.76171875,58.10546875,73.73046875,0.0
1676923416.7480032,94.23828125,-31.25,64.453125,79.1015625,0.0
1676923416.7529857,120.60546875,-35.15625,63.4765625,83.0078125,0.0
1676923416.7579682,113.76953125,-39.0625,60.546875,73.73046875,0.0
1676923416.7629507,86.9140625,-42.48046875,57.12890625,62.01171875,0.0
1676923416.7679331,78.125,-39.0625,55.17578125,65.4296875,0.0
1676923416.7729156,108.88671875,-30.2734375,54.19921875,82.51953125,0.0
1676923416.777898,123.53515625,-18.06640625,54.19921875,86.9140625,0.0
1676923416.7828805,96.19140625,-11.23046875,59.08203125,74.70703125,0.0
1676923416.787863,70.80078125,-15.625,56.640625,68.84765625,0.0
1676923416.7928455,82.51953125,-27.83203125,50.29296875,79.58984375,0.0
1676923416.797828,115.234375,-20.5078125,55.17578125,87.40234375,0.0
1676923416.8028104,106.93359375,-23.92578125,66.89453125,83.49609375,0.0
1676923416.806576,78.61328125,-41.015625,76.171875,81.54296875,0.0
1676923416.8103416,99.609375,-39.55078125,74.21875,87.40234375,0.0
1676923416.8141072,139.6484375,-35.64453125,69.3359375,101.5625,0.0
1676923416.8178728,131.34765625,-34.66796875,70.3125,100.09765625,0.0
1676923416.8216383,93.26171875,-34.1796875,79.58984375,86.9140625,0.0
1676923416.8254037,88.8671875,-39.55078125,83.0078125,88.37890625,0.0
1676923416.8291693,124.0234375,-29.78515625,86.42578125,102.5390625,0.0
1676923416.8329349,135.25390625,-25.390625,85.9375,103.515625,0.0
1676923416.8367004,90.8203125,-44.921875,72.75390625,91.796875,0.0
1676923416.840466,77.63671875,-33.69140625,69.82421875,90.8203125,0.0
1676923416.8442316,116.69921875,-12.20703125,74.70703125,86.42578125,0.0
1676923416.8479972,134.27734375,-10.25390625,72.75390625,83.984375,0.0
1676923416.8517632,103.515625,-8.7890625,64.94140625,86.42578125,0.0
1676923416.855529,78.61328125,-5.859375,56.640625,84.9609375,0.0
1676923416.8592951,106.4453125,-1.953125,55.6640625,88.37890625,0.0
1676923416.8630612,135.25390625,-10.25390625,55.17578125,92.28515625,0.0
1676923416.866827,123.046875,-14.16015625,50.78125,89.35546875,0.0
1676923416.870593,102.05078125,-5.859375,54.6875,88.8671875,0.0
1676923416.8743591,118.1640625,-0.9765625,62.5,89.35546875,0.0
1676923416.878125,146.97265625,-5.37109375,57.12890625,83.49609375,0.0
1676923416.881891,133.30078125,-13.671875,50.29296875,95.21484375,0.0
1676923416.885657,109.86328125,-7.32421875,55.6640625,91.796875,0.0
1676923416.889423,115.72265625,0.48828125,58.10546875,83.984375,0.0
1676923416.893189,139.16015625,-6.34765625,55.6640625,97.16796875,0.0
1676923416.8969238,137.20703125,-9.765625,53.22265625,99.609375,0.0
1676923416.9006586,94.23828125,-3.90625,54.19921875,91.796875,0.0
1676923416.9043934,77.63671875,-0.9765625,57.6171875,90.8203125,0.0
1676923416.9081283,95.703125,-0.48828125,58.59375,92.28515625,0.0
1676923416.911863,109.86328125,1.953125,55.17578125,88.37890625,0.0
1676923416.915598,93.75,5.859375,54.19921875,78.61328125,0.0
1676923416.919333,80.56640625,8.30078125,52.734375,68.84765625,0.0
1676923416.9230678,92.7734375,5.859375,48.33984375,78.61328125,0.0
1676923416.9268026,114.2578125,12.6953125,52.24609375,95.703125,0.0
1676923416.9305375,120.1171875,28.3203125,57.6171875,85.44921875,0.0
1676923416.9342723,90.33203125,34.1796875,51.26953125,75.68359375,0.0
1676923416.938007,86.42578125,54.19921875,44.921875,77.1484375,0.0
1676923416.9417417,116.69921875,67.3828125,42.48046875,79.58984375,0.0
1676923416.9454763,119.62890625,62.98828125,37.109375,72.265625,0.0
1676923416.949211,87.890625,55.17578125,34.1796875,60.05859375,0.0
1676923416.9529455,80.56640625,44.921875,35.64453125,60.546875,0.0
1676923416.95668,104.4921875,42.48046875,31.25,68.84765625,0.0
1676923416.9604144,107.91015625,33.69140625,27.34375,65.91796875,0.0
1676923416.964149,76.171875,20.99609375,23.4375,56.640625,0.0
1676923416.9678836,55.17578125,14.6484375,22.4609375,72.75390625,0.0
1676923416.9716182,89.35546875,22.4609375,28.80859375,82.03125,0.0
1676923416.9753528,126.46484375,10.25390625,30.76171875,68.84765625,0.0
1676923416.9790874,97.16796875,-7.8125,25.390625,69.3359375,0.0
1676923416.982822,67.87109375,-8.30078125,23.92578125,76.171875,0.0
1676923416.9865873,85.44921875,-9.765625,31.73828125,83.984375,0.0
1676923416.9903526,111.328125,1.46484375,30.76171875,90.33203125,0.0
1676923416.994118,104.4921875,6.8359375,42.48046875,94.7265625,0.0
1676923416.9978833,79.1015625,5.37109375,64.453125,88.37890625,0.0
1676923417.0016487,87.890625,0.0,57.12890625,82.51953125,0.0
1676923417.005414,118.65234375,-8.7890625,44.43359375,87.40234375,0.0
1676923417.0091796,126.46484375,-6.34765625,43.45703125,93.75,0.0
1676923417.012945,99.12109375,1.953125,40.52734375,95.703125,0.0
1676923417.0167103,88.8671875,9.27734375,37.109375,86.42578125,0.0
1676923417.0204756,109.375,3.41796875,38.0859375,85.44921875,0.0
1676923417.024241,120.60546875,1.46484375,39.0625,83.49609375,0.0
1676923417.0280063,101.07421875,9.765625,49.8046875,78.61328125,0.0
1676923417.0318542,83.984375,15.13671875,59.08203125,72.75390625,0.0
1676923417.0357022,103.02734375,9.27734375,52.734375,82.03125,0.0
1676923417.03955,117.1875,4.39453125,47.8515625,94.23828125,0.0
1676923417.043398,103.515625,7.32421875,50.78125,88.8671875,0.0
1676923417.047246,89.35546875,3.41796875,47.36328125,80.56640625,0.0
1676923417.0510938,96.6796875,3.41796875,42.96875,83.984375,0.0
1676923417.0549417,108.3984375,6.8359375,33.203125,94.23828125,0.0
1676923417.0587897,99.609375,15.13671875,27.34375,86.42578125,0.0
1676923417.0626376,82.51953125,21.484375,28.3203125,73.73046875,0.0
1676923417.0664854,85.9375,21.484375,29.296875,83.0078125,0.0
1676923417.0703335,117.67578125,14.6484375,31.73828125,89.35546875,0.0
1676923417.0741813,125.9765625,13.671875,30.2734375,88.37890625,0.0
1676923417.0778413,96.6796875,17.578125,41.50390625,85.9375,0.0
1676923417.0815015,92.7734375,14.6484375,50.78125,90.8203125,0.0
1676923417.0851614,121.58203125,9.27734375,53.7109375,99.12109375,0.0
1676923417.0888216,140.13671875,7.32421875,60.05859375,98.6328125,0.0
1676923417.0924816,113.28125,1.953125,57.12890625,86.42578125,0.0
1676923417.0961418,80.078125,-8.7890625,51.26953125,90.8203125,0.0
1676923417.0998018,93.75,-14.6484375,41.9921875,109.375,0.0
1676923417.1034617,135.25390625,-3.90625,34.1796875,101.5625,0.0
1676923417.107122,125.0,-7.32421875,31.25,87.890625,0.0
1676923417.110782,85.44921875,-9.765625,26.3671875,88.8671875,0.0
1676923417.114442,100.5859375,-7.8125,22.4609375,83.0078125,0.0
1676923417.118102,134.27734375,-23.92578125,19.53125,77.63671875,0.0
1676923417.1230903,127.44140625,-29.78515625,26.85546875,72.265625,0.0
1676923417.1280782,95.21484375,-25.87890625,38.0859375,69.3359375,0.0
1676923417.1330664,85.9375,-27.34375,43.45703125,68.84765625,0.0
1676923417.1380546,117.67578125,-27.34375,51.7578125,82.51953125,0.0
1676923417.1430426,126.953125,-26.85546875,47.36328125,87.890625,0.0
1676923417.1480308,94.7265625,-28.3203125,47.8515625,79.1015625,0.0
1676923417.153019,81.0546875,-29.78515625,54.6875,80.56640625,0.0
1676923417.158007,103.515625,-33.69140625,47.8515625,78.61328125,0.0
1676923417.162995,125.9765625,-33.203125,46.875,75.68359375,0.0
1676923417.1679833,96.19140625,-39.55078125,51.26953125,84.47265625,0.0
1676923417.1729712,81.0546875,-28.80859375,61.5234375,82.51953125,0.0
1676923417.1779594,110.83984375,-15.625,70.80078125,82.03125,0.0
1676923417.181706,125.48828125,-27.34375,59.5703125,85.44921875,0.0
1676923417.1854525,107.91015625,-31.73828125,51.26953125,70.80078125,0.0
1676923417.189199,84.47265625,-24.4140625,56.15234375,70.80078125,0.0
1676923417.1929455,89.84375,-26.85546875,59.08203125,76.66015625,0.0
1676923417.196692,111.328125,-28.3203125,58.10546875,81.0546875,0.0
1676923417.2004385,102.5390625,-32.2265625,55.6640625,80.56640625,0.0
1676923417.2041852,79.58984375,-27.34375,52.734375,71.2890625,0.0
1676923417.2079318,79.58984375,-23.92578125,69.82421875,67.87109375,0.0
1676923417.2116783,94.7265625,-33.69140625,88.37890625,77.63671875,0.0
1676923417.2154248,99.12109375,-35.15625,88.37890625,82.03125,0.0
1676923417.2191713,89.35546875,-20.99609375,85.9375,72.75390625,0.0
1676923417.2229178,86.42578125,-20.5078125,78.61328125,78.125,0.0
1676923417.2266757,98.6328125,-27.83203125,61.03515625,79.1015625,0.0
1676923417.2304337,114.74609375,-27.34375,55.17578125,79.1015625,0.0
1676923417.2341917,94.7265625,-32.2265625,55.17578125,70.80078125,0.0
1676923417.2379496,63.96484375,-40.0390625,46.875,61.5234375,0.0
1676923417.2417076,75.68359375,-34.66796875,49.31640625,63.4765625,0.0
1676923417.2454655,94.23828125,-28.3203125,46.875,70.3125,0.0
1676923417.2492235,84.9609375,-31.25,36.62109375,67.87109375,0.0
1676923417.2529814,63.96484375,-39.0625,31.73828125,58.59375,0.0
1676923417.2567394,68.359375,-40.52734375,29.296875,67.3828125,0.0
1676923417.2604973,114.2578125,-22.94921875,28.80859375,73.73046875,0.0
1676923417.2642553,130.37109375,-20.01953125,25.390625,73.73046875,0.0
1676923417.2680132,91.30859375,-26.3671875,25.390625,75.1953125,0.0
1676923417.2718623,76.66015625,-26.3671875,23.92578125,73.2421875,0.0
1676923417.2757115,102.5390625,-25.390625,10.7421875,74.70703125,0.0
1676923417.2795606,119.140625,-27.83203125,1.46484375,63.4765625,0.0
1676923417.2834096,90.8203125,-32.71484375,15.625,66.89453125,0.0
1676923417.2872586,62.5,-33.203125,20.01953125,71.2890625,0.0
1676923417.2911077,81.0546875,-25.87890625,19.04296875,64.453125,0.0
1676923417.294957,104.4921875,-24.90234375,20.99609375,64.94140625,0.0
1676923417.298806,82.51953125,-37.59765625,22.4609375,72.75390625,0.0
1676923417.302655,65.91796875,-28.80859375,29.78515625,79.58984375,0.0
1676923417.3065042,94.7265625,-20.99609375,25.87890625,71.2890625,0.0
1676923417.3103533,108.3984375,-41.50390625,4.39453125,66.89453125,0.0
1676923417.3142023,97.65625,-37.109375,-4.8828125,70.80078125,0.0
1676923417.317853,64.94140625,-30.2734375,0.48828125,63.96484375,0.0
1676923417.3215039,62.98828125,-30.2734375,12.20703125,62.5,0.0
1676923417.3251545,94.7265625,-29.78515625,21.97265625,75.68359375,0.0
1676923417.3288052,99.609375,-26.85546875,23.4375,73.73046875,0.0
1676923417.332456,69.3359375,-19.53125,20.5078125,62.98828125,0.0
1676923417.3361068,54.6875,-20.5078125,21.97265625,59.5703125,0.0
1676923417.3397574,82.51953125,-14.16015625,22.94921875,62.98828125,0.0
1676923417.3434083,99.12109375,-14.16015625,22.4609375,86.9140625,0.0
1676923417.347059,81.0546875,-12.20703125,24.4140625,86.9140625,0.0
1676923417.3507097,68.359375,-5.37109375,25.390625,65.91796875,0.0
1676923417.3543606,82.03125,-4.39453125,21.97265625,73.73046875,0.0
1676923417.3580112,109.375,0.9765625,25.87890625,80.078125,0.0
1676923417.361761,98.6328125,-5.37109375,21.484375,72.75390625,0.0
1676923417.3655112,70.3125,-11.71875,11.71875,66.89453125,0.0
1676923417.369261,83.984375,-8.7890625,17.08984375,73.73046875,0.0
1676923417.373011,112.3046875,-10.25390625,15.625,82.51953125,0.0
1676923417.376761,106.93359375,-11.71875,16.11328125,78.125,0.0
1676923417.3805108,80.56640625,-14.16015625,16.6015625,67.87109375,0.0
1676923417.384261,69.3359375,-18.5546875,11.71875,73.73046875,0.0
1676923417.3880107,88.37890625,-9.765625,15.13671875,88.8671875,0.0
1676923417.3917608,110.83984375,4.39453125,28.80859375,79.1015625,0.0
1676923417.3955107,95.703125,3.90625,34.66796875,71.77734375,0.0
1676923417.3992608,75.1953125,-3.90625,24.4140625,74.70703125,0.0
1676923417.4030106,96.19140625,-5.37109375,21.97265625,77.1484375,0.0
1676923417.4067597,122.55859375,-9.765625,23.92578125,81.54296875,0.0
1676923417.410509,99.609375,-10.25390625,32.71484375,84.47265625,0.0
1676923417.4142582,63.96484375,-8.7890625,41.015625,84.47265625,0.0
1676923417.4180074,78.125,-9.27734375,37.109375,75.68359375,0.0
1676923417.4217567,109.86328125,-3.90625,31.73828125,68.84765625,0.0
1676923417.4255059,86.9140625,-7.8125,23.92578125,59.08203125,0.0
1676923417.429255,49.31640625,-8.30078125,7.8125,65.4296875,0.0
1676923417.4330044,64.94140625,-10.25390625,1.46484375,71.77734375,0.0
1676923417.4367535,105.46875,31.73828125,9.27734375,62.5,0.0
1676923417.4405026,114.2578125,124.0234375,12.20703125,64.94140625,0.0
1676923417.444252,82.03125,153.3203125,10.25390625,60.05859375,0.0
1676923417.4480011,70.80078125,140.13671875,4.39453125,54.6875,0.0
1676923417.451849,106.93359375,130.37109375,3.41796875,64.453125,0.0
1676923417.4556968,116.2109375,114.74609375,7.32421875,73.2421875,0.0
1676923417.4595447,85.44921875,107.91015625,11.71875,74.21875,0.0
1676923417.4633927,76.171875,106.4453125,18.5546875,66.40625,0.0
1676923417.4672406,93.26171875,83.984375,19.04296875,64.94140625,0.0
1676923417.4710884,105.95703125,73.2421875,26.85546875,80.56640625,0.0
1676923417.4749362,85.44921875,72.265625,32.2265625,78.61328125,0.0
1676923417.478784,70.80078125,67.3828125,28.80859375,58.59375,0.0
1676923417.4826322,87.890625,52.24609375,29.78515625,62.5,0.0
1676923417.48648,111.328125,39.0625,36.1328125,80.56640625,0.0
1676923417.4903278,104.98046875,39.55078125,38.57421875,88.8671875,0.0
1676923417.4941757,79.58984375,37.109375,37.109375,79.1015625,0.0
1676923417.4990754,78.125,27.34375,34.1796875,72.265625,0.0
1676923417.503975,101.07421875,27.34375,31.73828125,75.68359375,0.0
1676923417.5088747,105.95703125,26.3671875,36.1328125,71.77734375,0.0
1676923417.5137744,74.70703125,15.13671875,37.59765625,65.4296875,0.0
1676923417.5186741,66.89453125,12.6953125,35.15625,66.40625,0.0
1676923417.5235739,85.9375,4.39453125,31.25,83.49609375,0.0
1676923417.5284734,109.86328125,7.32421875,35.15625,86.42578125,0.0
1676923417.533373,102.5390625,8.7890625,41.015625,69.82421875,0.0
1676923417.5382729,75.68359375,-3.41796875,28.3203125,70.80078125,0.0
1676923417.5431724,91.796875,3.90625,20.01953125,84.47265625,0.0
1676923417.548072,120.1171875,18.5546875,26.85546875,92.7734375,0.0
1676923417.5529718,112.3046875,24.90234375,30.2734375,87.890625,0.0
1676923417.5567055,78.125,22.94921875,27.34375,81.0546875,0.0
1676923417.560439,77.63671875,16.6015625,29.78515625,82.51953125,0.0
1676923417.5641727,111.328125,12.20703125,35.15625,88.37890625,0.0
1676923417.5679064,105.46875,6.8359375,33.69140625,94.7265625,0.0
1676923417.57164,71.2890625,1.953125,33.69140625,90.33203125,0.0
1676923417.5753736,68.84765625,-2.44140625,20.99609375,83.49609375,0.0
1676923417.579107,97.16796875,-7.8125,7.8125,84.47265625,0.0
1676923417.5828407,105.95703125,-9.27734375,8.30078125,83.49609375,0.0
1676923417.5865743,73.2421875,-15.625,5.37109375,78.125,0.0
1676923417.590308,61.03515625,-13.18359375,3.90625,91.796875,0.0
1676923417.5940416,107.91015625,8.30078125,9.765625,95.21484375,0.0
1676923417.5977752,133.7890625,3.90625,15.625,90.8203125,0.0
1676923417.6015935,105.46875,-3.90625,21.97265625,88.37890625,0.0
1676923417.6054118,88.8671875,-0.48828125,30.2734375,89.84375,0.0
1676923417.60923,112.3046875,0.9765625,38.0859375,93.26171875,0.0
1676923417.6130483,125.9765625,-0.9765625,41.015625,97.16796875,0.0
1676923417.6168666,100.09765625,-1.953125,42.48046875,88.8671875,0.0
1676923417.620685,82.51953125,-1.46484375,42.48046875,82.03125,0.0
1676923417.6245034,94.7265625,0.0,46.875,85.9375,0.0
1676923417.6283216,115.72265625,-1.46484375,55.17578125,87.890625,0.0
1676923417.63214,104.00390625,-3.90625,55.17578125,96.19140625,0.0
1676923417.6359582,79.58984375,2.9296875,61.5234375,87.890625,0.0
1676923417.6397765,83.984375,0.0,70.80078125,71.2890625,0.0
1676923417.6435947,110.83984375,-1.953125,65.91796875,74.70703125,0.0
1676923417.6472657,123.046875,-0.9765625,59.08203125,81.54296875,0.0
1676923417.6509366,104.00390625,4.8828125,54.6875,75.68359375,0.0
1676923417.6546078,91.30859375,8.7890625,49.8046875,73.2421875,0.0
1676923417.6582787,101.07421875,5.859375,42.48046875,66.89453125,0.0
1676923417.6619496,124.0234375,5.859375,39.55078125,69.82421875,0.0
1676923417.6656206,116.2109375,0.0,37.59765625,78.125,0.0
1676923417.6692915,95.703125,-4.39453125,32.71484375,69.82421875,0.0
1676923417.6729624,109.375,-13.671875,28.3203125,76.66015625,0.0
1676923417.6766334,134.765625,-20.5078125,26.3671875,84.9609375,0.0
1676923417.6803045,127.44140625,-15.625,28.80859375,70.80078125,0.0
1676923417.6839755,95.21484375,-18.5546875,33.69140625,67.87109375,0.0
1676923417.6876464,84.9609375,-19.04296875,38.57421875,75.68359375,0.0
1676923417.6914902,103.02734375,-15.13671875,37.109375,80.56640625,0.0
1676923417.6953342,103.515625,-19.53125,34.1796875,76.171875,0.0
1676923417.6991782,78.125,-22.4609375,37.59765625,74.21875,0.0
1676923417.703022,77.63671875,-14.6484375,36.1328125,75.1953125,0.0
1676923417.7068658,101.07421875,-11.23046875,30.76171875,74.21875,0.0
1676923417.7107098,110.3515625,-11.23046875,34.66796875,76.171875,0.0
1676923417.7145538,76.66015625,-16.6015625,24.90234375,66.89453125,0.0
1676923417.7183976,43.9453125,-31.73828125,6.8359375,69.3359375,0.0
1676923417.7222414,64.453125,-31.73828125,17.578125,70.80078125,0.0
1676923417.7260854,98.6328125,-25.87890625,34.1796875,59.5703125,0.0
1676923417.7299294,81.0546875,-30.76171875,29.296875,53.7109375,0.0
1676923417.7337732,55.17578125,-32.71484375,30.76171875,53.22265625,0.0
1676923417.7374563,70.3125,-26.85546875,33.69140625,63.4765625,0.0
1676923417.7411394,104.98046875,-25.390625,28.80859375,77.63671875,0.0
1676923417.7448225,104.00390625,-24.90234375,39.0625,79.58984375,0.0
1676923417.7485058,80.56640625,-14.6484375,49.8046875,70.80078125,0.0
1676923417.752189,82.03125,-13.671875,42.48046875,70.3125,0.0
1676923417.755872,105.46875,-19.04296875,32.2265625,67.3828125,0.0
1676923417.759555,104.00390625,-30.2734375,31.73828125,59.5703125,0.0
1676923417.7632382,62.98828125,-31.73828125,35.64453125,62.5,0.0
1676923417.7669215,60.546875,-14.6484375,33.69140625,61.03515625,0.0
1676923417.7706046,92.7734375,-21.484375,25.390625,63.96484375,0.0
1676923417.7742877,103.02734375,-33.69140625,22.4609375,61.03515625,0.0
1676923417.7779708,78.125,-27.34375,27.83203125,62.98828125,0.0
1676923417.7817125,61.03515625,-28.3203125,29.296875,66.89453125,0.0
1676923417.7854545,75.1953125,-39.0625,23.4375,60.05859375,0.0
1676923417.7891965,91.796875,-37.109375,23.4375,55.6640625,0.0
1676923417.7929382,76.66015625,-23.4375,27.34375,50.78125,0.0
1676923417.79668,52.734375,-20.5078125,22.94921875,46.38671875,0.0
1676923417.800422,52.734375,-20.01953125,18.06640625,43.9453125,0.0
1676923417.804164,72.75390625,-17.08984375,11.71875,47.8515625,0.0
1676923417.8079057,83.0078125,-13.671875,9.765625,42.96875,0.0
1676923417.8116474,62.5,-19.53125,20.5078125,38.0859375,0.0
1676923417.8153894,58.10546875,-27.83203125,36.62109375,41.9921875,0.0
1676923417.8191314,85.44921875,-21.484375,53.7109375,55.17578125,0.0
1676923417.822873,100.5859375,-21.484375,64.453125,56.15234375,0.0
1676923417.8266997,86.9140625,-26.3671875,75.68359375,45.41015625,0.0
1676923417.8305266,65.91796875,-32.2265625,83.49609375,52.734375,0.0
1676923417.8343534,87.40234375,-28.80859375,84.9609375,65.4296875,0.0
1676923417.83818,114.74609375,-22.4609375,80.56640625,62.01171875,0.0
1676923417.8420067,91.30859375,-27.83203125,73.73046875,54.19921875,0.0
1676923417.8458335,57.12890625,-26.3671875,70.80078125,60.05859375,0.0
1676923417.8496604,64.94140625,-13.18359375,77.1484375,76.66015625,0.0
1676923417.853487,101.5625,-2.44140625,86.9140625,77.1484375,0.0
1676923417.8573136,97.65625,-0.9765625,81.0546875,69.82421875,0.0
1676923417.8611405,60.05859375,-2.44140625,68.84765625,64.453125,0.0
1676923417.8649673,65.4296875,-2.9296875,62.01171875,71.2890625,0.0
1676923417.868794,99.609375,3.90625,60.05859375,79.58984375,0.0
1676923417.875008,107.421875,-3.90625,60.05859375,76.171875,0.0
1676923417.8812222,85.9375,-9.765625,60.05859375,67.87109375,0.0
1676923417.8874364,87.40234375,-5.37109375,59.08203125,69.82421875,0.0
1676923417.8936505,120.1171875,-6.34765625,54.6875,80.078125,0.0
1676923417.8998647,133.7890625,-8.30078125,55.17578125,84.47265625,0.0
1676923417.9060788,101.07421875,-9.27734375,52.24609375,89.35546875,0.0
1676923417.9122927,78.125,0.0,54.6875,82.51953125,0.0
1676923417.9185069,113.28125,6.8359375,67.3828125,76.171875,0.0
1676923417.924721,143.5546875,-0.9765625,72.75390625,86.42578125,0.0
1676923417.9309351,115.234375,-2.44140625,66.40625,90.8203125,0.0
1676923417.9371493,92.28515625,8.7890625,52.734375,83.49609375,0.0
1676923417.9433634,99.12109375,0.48828125,43.45703125,71.77734375,0.0
1676923417.9458346,113.28125,-12.20703125,37.59765625,65.4296875,0.0
1676923417.9483056,101.07421875,-16.11328125,29.296875,68.84765625,0.0
1676923417.9507766,68.359375,-20.99609375,20.99609375,70.80078125,0.0
1676923417.9532478,67.3828125,-20.99609375,15.625,72.75390625,0.0
1676923417.955719,87.890625,-24.90234375,15.13671875,83.984375,0.0
1676923417.95819,86.9140625,-28.3203125,22.4609375,81.0546875,0.0
1676923417.960661,58.59375,-22.94921875,29.296875,67.87109375,0.0
1676923417.9631321,52.24609375,-16.11328125,34.66796875,64.453125,0.0
1676923417.9656034,73.2421875,-22.94921875,35.15625,62.98828125,0.0
1676923417.9680743,88.37890625,-18.5546875,34.1796875,66.89453125,0.0
1676923417.9705453,70.80078125,-11.71875,38.57421875,61.5234375,0.0
1676923417.9730165,48.828125,-19.04296875,35.15625,54.19921875,0.0
1676923417.9767604,66.89453125,-26.85546875,29.78515625,70.3125,0.0
1676923417.9805043,91.796875,-23.4375,30.76171875,79.58984375,0.0
1676923417.9842482,86.42578125,-14.6484375,34.1796875,57.12890625,0.0
1676923417.987992,62.01171875,-17.08984375,35.64453125,43.9453125,0.0
1676923417.991736,65.4296875,-23.92578125,33.203125,49.8046875,0.0
1676923417.9954798,97.65625,-20.99609375,32.2265625,61.5234375,0.0
1676923417.9992237,96.6796875,-13.671875,35.15625,54.19921875,0.0
1676923418.0029676,64.453125,-13.671875,35.64453125,47.36328125,0.0
1676923418.0067115,61.03515625,-24.4140625,32.71484375,66.89453125,0.0
1676923418.0104554,93.26171875,-12.20703125,37.59765625,85.44921875,0.0
1676923418.0141993,108.88671875,-3.90625,44.43359375,81.54296875,0.0
1676923418.0179431,84.47265625,-4.8828125,50.29296875,77.1484375,0.0
1676923418.021696,74.21875,0.9765625,53.22265625,73.73046875,0.0
1676923418.0254488,98.14453125,8.30078125,52.24609375,79.58984375,0.0
1676923418.0292017,120.1171875,15.13671875,56.15234375,91.30859375,0.0
1676923418.0329545,98.6328125,12.20703125,62.01171875,87.890625,0.0
1676923418.0367074,83.984375,14.16015625,66.40625,89.84375,0.0
1676923418.04046,103.515625,18.06640625,65.4296875,95.703125,0.0
1676923418.044213,115.72265625,18.5546875,60.05859375,87.890625,0.0
1676923418.047966,89.84375,7.8125,55.17578125,82.03125,0.0
1676923418.0517187,63.96484375,13.671875,53.22265625,88.37890625,0.0
1676923418.0554717,92.28515625,28.80859375,54.6875,82.03125,0.0
1676923418.0592244,125.0,27.34375,61.03515625,84.47265625,0.0
1676923418.0629773,123.046875,29.78515625,65.4296875,91.796875,0.0
1676923418.066875,108.88671875,37.109375,67.3828125,84.47265625,0.0
1676923418.070773,116.2109375,38.57421875,67.87109375,84.47265625,0.0
1676923418.0746706,136.71875,31.25,64.94140625,90.33203125,0.0
1676923418.0785685,140.13671875,29.78515625,66.89453125,93.75,0.0
1676923418.0824661,116.2109375,34.66796875,66.40625,87.890625,0.0
1676923418.0863638,98.14453125,31.73828125,63.96484375,88.8671875,0.0
1676923418.0902617,112.3046875,27.34375,61.03515625,103.02734375,0.0
1676923418.0941594,110.83984375,19.04296875,54.6875,97.65625,0.0
1676923418.0980573,81.54296875,20.5078125,52.24609375,79.1015625,0.0
1676923418.101955,63.4765625,24.4140625,45.41015625,63.96484375,0.0
1676923418.1058528,70.3125,12.6953125,38.57421875,65.91796875,0.0
1676923418.1097505,99.609375,12.6953125,50.78125,83.984375,0.0
1676923418.113353,94.23828125,6.34765625,58.10546875,77.1484375,0.0
1676923418.1169555,59.5703125,-14.6484375,51.26953125,58.10546875,0.0
1676923418.120558,67.87109375,-6.8359375,55.6640625,65.91796875,0.0
1676923418.1241605,101.5625,14.6484375,55.17578125,78.61328125,0.0
1676923418.127763,104.98046875,21.484375,50.29296875,76.171875,0.0
1676923418.1313658,71.2890625,25.87890625,52.24609375,77.63671875,0.0
1676923418.1349683,77.1484375,28.3203125,49.31640625,77.1484375,0.0
1676923418.1385708,113.76953125,41.9921875,57.12890625,98.14453125,0.0
1676923418.1421733,120.60546875,62.5,68.84765625,91.796875,0.0
1676923418.1457758,102.05078125,68.359375,74.21875,70.3125,0.0
1676923418.1493783,92.7734375,85.44921875,78.61328125,68.84765625,0.0
1676923418.1529808,120.60546875,94.7265625,78.61328125,83.984375,0.0
1676923418.156728,144.04296875,97.65625,83.49609375,102.05078125,0.0
1676923418.1604755,119.140625,103.02734375,87.40234375,91.796875,0.0
1676923418.1642227,92.7734375,102.05078125,79.1015625,80.078125,0.0
1676923418.16797,111.328125,105.95703125,78.61328125,83.984375,0.0
1676923418.1717174,133.30078125,101.07421875,81.54296875,89.35546875,0.0
1676923418.1754646,112.3046875,101.07421875,76.171875,85.9375,0.0
1676923418.1792119,73.2421875,110.3515625,82.03125,99.12109375,0.0
1676923418.1829593,87.890625,117.1875,82.03125,109.86328125,0.0
1676923418.1867065,131.8359375,126.46484375,73.2421875,102.5390625,0.0
1676923418.1904538,130.859375,130.37109375,69.3359375,111.81640625,0.0
1676923418.1942012,103.515625,136.71875,69.3359375,116.69921875,0.0
1676923418.1979485,103.515625,135.7421875,71.2890625,115.234375,0.0
1676923418.2017171,127.9296875,126.46484375,68.359375,99.609375,0.0
1676923418.2054856,137.20703125,130.859375,66.89453125,97.16796875,0.0
1676923418.2092543,107.421875,139.6484375,62.01171875,94.7265625,0.0
1676923418.213023,88.8671875,130.37109375,52.24609375,87.890625,0.0
1676923418.2167914,108.88671875,109.375,42.48046875,86.9140625,0.0
1676923418.22056,124.0234375,104.4921875,39.55078125,92.7734375,0.0
1676923418.2243288,101.07421875,111.328125,41.015625,87.40234375,0.0
1676923418.2280972,82.51953125,106.4453125,42.48046875,65.91796875,0.0
1676923418.231866,94.7265625,86.9140625,41.50390625,60.05859375,0.0
1676923418.2356346,111.81640625,83.49609375,41.9921875,66.40625,0.0
1676923418.239403,89.35546875,84.47265625,33.203125,60.05859375,0.0
1676923418.2431717,63.96484375,85.9375,33.69140625,48.828125,0.0
1676923418.2481518,75.68359375,83.49609375,37.109375,62.01171875,0.0
1676923418.2531316,101.07421875,76.171875,37.109375,83.984375,0.0
1676923418.2581115,106.4453125,79.1015625,41.9921875,87.40234375,0.0
1676923418.2630916,85.44921875,78.125,39.0625,67.87109375,0.0
1676923418.2680717,78.125,66.89453125,36.62109375,60.05859375,0.0
1676923418.2730515,100.09765625,63.4765625,40.52734375,71.2890625,0.0
1676923418.2780313,116.69921875,72.75390625,45.41015625,68.359375,0.0
1676923418.2830114,101.07421875,73.2421875,46.875,62.01171875,0.0
1676923418.2879915,71.2890625,63.96484375,44.43359375,64.453125,0.0
1676923418.2929714,85.44921875,62.5,45.41015625,70.80078125,0.0
1676923418.2979512,116.69921875,68.84765625,44.921875,74.21875,0.0
1676923418.3029313,99.609375,68.359375,43.9453125,69.82421875,0.0
1676923418.3066835,62.98828125,47.8515625,42.48046875,68.359375,0.0
1676923418.3104358,64.94140625,25.87890625,41.015625,81.0546875,0.0
1676923418.314188,106.4453125,-4.8828125,46.38671875,88.8671875,0.0
1676923418.3179402,116.2109375,-64.94140625,45.8984375,82.51953125,0.0
1676923418.3216925,81.0546875,-148.4375,34.66796875,79.58984375,0.0
1676923418.3254447,79.1015625,-216.796875,38.0859375,90.33203125,0.0
1676923418.329197,112.3046875,-270.99609375,46.38671875,91.796875,0.0
1676923418.3329492,121.58203125,-321.77734375,44.43359375,84.47265625,0.0
1676923418.3367014,88.8671875,-365.234375,49.31640625,81.54296875,0.0
1676923418.3404536,65.4296875,-395.99609375,56.15234375,84.47265625,0.0
1676923418.3442059,97.16796875,-412.109375,55.17578125,80.078125,0.0
1676923418.347958,115.234375,-437.01171875,49.8046875,79.58984375,0.0
1676923418.3529568,86.42578125,-449.70703125,50.29296875,79.58984375,0.0
1676923418.3579557,68.359375,-448.73046875,60.546875,80.078125,0.0
1676923418.3629546,89.35546875,-456.54296875,71.2890625,76.66015625,0.0
1676923418.3679533,110.83984375,-470.703125,76.171875,74.70703125,0.0
1676923418.372952,99.609375,-479.4921875,81.0546875,74.70703125,0.0
1676923418.377951,76.171875,-484.86328125,76.66015625,67.3828125,0.0
1676923418.3829498,82.03125,-479.98046875,72.75390625,71.2890625,0.0
1676923418.3879485,108.3984375,-465.8203125,62.98828125,79.58984375,0.0
1676923418.3929472,105.95703125,-466.796875,59.08203125,90.33203125,0.0
1676923418.3979461,86.9140625,-473.14453125,65.4296875,87.40234375,0.0
1676923418.402945,97.16796875,-481.4453125,62.98828125,69.3359375,0.0
1676923418.4079437,127.44140625,-504.39453125,59.5703125,79.1015625,0.0
1676923418.4104471,131.34765625,-520.5078125,57.12890625,84.47265625,0.0
1676923418.4129508,98.14453125,-550.78125,50.78125,66.89453125,0.0
1676923418.4154541,85.44921875,-604.4921875,59.08203125,68.359375,0.0
1676923418.4179578,102.05078125,-635.7421875,59.5703125,83.0078125,0.0
1676923418.4204612,113.28125,-655.2734375,52.734375,84.9609375,0.0
1676923418.4229646,92.7734375,-669.921875,56.15234375,80.56640625,0.0
1676923418.4254682,74.70703125,-670.8984375,55.17578125,78.61328125,0.0
1676923418.4279716,81.0546875,-676.26953125,49.8046875,82.03125,0.0
1676923418.4304752,94.7265625,-682.6171875,47.36328125,73.73046875,0.0
1676923418.4329786,88.8671875,-687.98828125,53.7109375,63.4765625,0.0
1676923418.4354823,67.3828125,-685.546875,50.78125,61.5234375,0.0
1676923418.4379857,64.94140625,-682.6171875,43.9453125,82.03125,0.0
1676923418.4429846,95.703125,-676.26953125,44.921875,103.515625,0.0
1676923418.4479837,108.3984375,-658.69140625,44.921875,96.19140625,0.0
1676923418.4529827,87.890625,-649.90234375,44.43359375,86.42578125,0.0
1676923418.4579816,81.0546875,-648.4375,38.0859375,91.30859375,0.0
1676923418.4629807,111.328125,-636.23046875,33.69140625,89.84375,0.0
1676923418.4679797,139.6484375,-619.62890625,35.64453125,81.0546875,0.0
1676923418.4729786,114.74609375,-603.02734375,35.15625,83.0078125,0.0
1676923418.4779778,94.7265625,-593.26171875,35.64453125,93.26171875,0.0
1676923418.4829767,117.67578125,-582.51953125,41.9921875,99.12109375,0.0
1676923418.4879756,137.20703125,-561.03515625,41.015625,93.26171875,0.0
1676923418.4929748,110.83984375,-543.45703125,30.76171875,81.54296875,0.0
1676923418.4979737,83.49609375,-526.85546875,36.62109375,75.1953125,0.0
1676923418.500576,88.8671875,-509.765625,45.41015625,72.75390625,0.0
1676923418.5031784,107.421875,-497.0703125,46.875,71.2890625,0.0
1676923418.5057807,103.515625,-495.1171875,52.734375,72.75390625,0.0
1676923418.508383,75.68359375,-483.88671875,57.12890625,73.2421875,0.0
1676923418.5109854,79.1015625,-461.9140625,57.6171875,74.70703125,0.0
1676923418.5135877,104.4921875,-453.61328125,55.6640625,83.0078125,0.0
1676923418.51619,105.95703125,-444.82421875,55.17578125,88.37890625,0.0
1676923418.5187924,76.171875,-421.875,54.19921875,76.66015625,0.0
1676923418.5213947,67.87109375,-409.1796875,57.12890625,72.75390625,0.0
1676923418.523997,94.7265625,-405.76171875,56.640625,76.171875,0.0
1676923418.5265994,93.26171875,-408.203125,47.36328125,83.984375,0.0
1676923418.5292017,61.5234375,-396.484375,43.9453125,74.70703125,0.0
1676923418.532845,50.29296875,-375.0,36.62109375,56.15234375,0.0
1676923418.5364885,53.22265625,-371.09375,37.59765625,59.08203125,0.0
1676923418.5401318,68.84765625,-359.86328125,47.8515625,58.59375,0.0
1676923418.5437753,65.4296875,-347.65625,51.26953125,54.6875,0.0
1676923418.5474186,37.59765625,-344.23828125,48.33984375,32.71484375,0.0
1676923418.551062,50.29296875,-339.35546875,50.78125,26.3671875,0.0
1676923418.5547054,73.2421875,-334.9609375,44.43359375,62.98828125,0.0
1676923418.5583487,76.66015625,-310.546875,33.69140625,71.77734375,0.0
1676923418.5619922,65.4296875,-285.15625,29.78515625,44.43359375,0.0
1676923418.5656354,59.5703125,-278.80859375,34.1796875,41.015625,0.0
1676923418.569279,95.21484375,-267.578125,41.015625,55.17578125,0.0
1676923418.5729222,115.234375,-263.18359375,39.0625,62.98828125,0.0
1676923418.5766845,84.47265625,-260.25390625,43.9453125,53.22265625,0.0
1676923418.5804467,63.96484375,-252.9296875,55.6640625,52.734375,0.0
1676923418.584209,87.40234375,-245.1171875,57.6171875,57.6171875,0.0
1676923418.5879714,112.3046875,-229.98046875,59.5703125,59.08203125,0.0
1676923418.5917337,83.49609375,-223.6328125,57.6171875,55.17578125,0.0
1676923418.595496,47.36328125,-229.00390625,49.31640625,61.03515625,0.0
1676923418.5992582,71.77734375,-217.28515625,51.7578125,71.77734375,0.0
1676923418.6030204,101.5625,-211.42578125,53.7109375,76.66015625,0.0
1676923418.606783,92.7734375,-216.796875,52.734375,74.70703125,0.0
1676923418.6105452,63.96484375,-211.9140625,56.15234375,69.82421875,0.0
1676923418.6143074,60.05859375,-197.75390625,67.87109375,78.61328125,0.0
1676923418.6180696,93.75,-186.5234375,75.68359375,71.2890625,0.0
1676923418.6255605,89.84375,-187.98828125,77.1484375,58.10546875,0.0
1676923418.6330514,55.17578125,-179.6875,75.1953125,49.8046875,0.0
1676923418.6405425,57.6171875,-175.29296875,69.82421875,50.78125,0.0
1676923418.6480334,87.40234375,-177.24609375,60.05859375,58.10546875,0.0
1676923418.6555243,92.7734375,-181.640625,54.6875,57.12890625,0.0
1676923418.6630154,54.6875,-184.5703125,47.8515625,56.15234375,0.0
1676923418.6705062,38.57421875,-172.8515625,38.0859375,51.26953125,0.0
1676923418.677997,71.77734375,-162.59765625,35.64453125,48.828125,0.0
1676923418.685488,103.02734375,-158.203125,36.1328125,57.12890625,0.0
1676923418.6929789,87.40234375,-144.04296875,41.50390625,68.359375,0.0
1676923418.70047,70.80078125,-142.578125,44.43359375,62.5,0.0
1676923418.7079608,87.890625,-155.76171875,39.55078125,61.5234375,0.0
1676923418.7083151,108.3984375,-154.296875,33.203125,68.84765625,0.0
1676923418.7086694,103.515625,-147.4609375,27.83203125,74.21875,0.0
1676923418.7090237,81.0546875,-142.08984375,25.390625,71.77734375,0.0
1676923418.709378,83.0078125,-142.08984375,26.3671875,71.2890625,0.0
1676923418.7097323,108.3984375,-139.16015625,26.3671875,86.9140625,0.0
1676923418.7100863,109.86328125,-130.859375,28.80859375,89.35546875,0.0
1676923418.7104406,79.58984375,-126.953125,17.08984375,69.82421875,0.0
1676923418.710795,68.84765625,-125.9765625,8.7890625,56.15234375,0.0
1676923418.7111492,80.078125,-128.41796875,15.13671875,64.94140625,0.0
1676923418.7115035,94.23828125,-125.0,16.11328125,70.3125,0.0
1676923418.7118578,79.1015625,-117.1875,9.765625,47.36328125,0.0
1676923418.712212,54.6875,-126.953125,5.859375,44.43359375,0.0
1676923418.716857,65.91796875,-126.46484375,4.8828125,51.7578125,0.0
1676923418.7215016,90.33203125,-119.140625,0.9765625,41.9921875,0.0
1676923418.7261462,78.61328125,-119.140625,2.44140625,38.0859375,0.0
1676923418.730791,52.734375,-117.67578125,4.8828125,31.25,0.0
1676923418.735436,58.10546875,-125.48828125,4.39453125,45.41015625,0.0
1676923418.7400806,82.03125,-121.58203125,4.8828125,67.87109375,0.0
1676923418.7447252,88.8671875,-104.98046875,14.16015625,58.59375,0.0
1676923418.74937,61.5234375,-114.2578125,14.6484375,45.8984375,0.0
1676923418.754015,52.734375,-115.72265625,7.8125,55.17578125,0.0
1676923418.7586596,93.75,-106.4453125,13.18359375,64.94140625,0.0
1676923418.7633042,112.79296875,-113.28125,17.578125,58.59375,0.0
1676923418.767949,84.9609375,-118.65234375,14.6484375,57.6171875,0.0
1676923418.7729406,76.171875,-108.3984375,19.53125,61.5234375,0.0
1676923418.777932,93.75,-105.46875,20.01953125,50.29296875,0.0
1676923418.7829235,101.5625,-103.515625,11.23046875,49.31640625,0.0
1676923418.7879148,86.9140625,-99.12109375,11.23046875,60.05859375,0.0
1676923418.7929063,70.3125,-104.98046875,8.7890625,53.22265625,0.0
1676923418.7978978,74.70703125,-112.79296875,9.765625,45.41015625,0.0
1676923418.802889,98.6328125,-111.81640625,19.53125,54.6875,0.0
1676923418.8078806,95.21484375,-108.88671875,26.3671875,62.5,0.0
1676923418.812872,64.453125,-109.375,27.83203125,64.453125,0.0
1676923418.8178635,79.58984375,-103.02734375,34.1796875,64.453125,0.0
1676923418.8228548,110.83984375,-108.88671875,32.71484375,61.5234375,0.0
1676923418.8278463,103.515625,-109.375,25.87890625,60.546875,0.0
1676923418.8303573,80.078125,-109.375,27.34375,60.05859375,0.0
1676923418.8328686,84.9609375,-112.79296875,31.25,64.94140625,0.0
1676923418.8353796,107.91015625,-109.86328125,30.2734375,64.94140625,0.0
1676923418.8378906,112.3046875,-102.05078125,31.73828125,67.3828125,0.0
1676923418.8404016,80.078125,-95.703125,38.57421875,62.5,0.0
1676923418.8429127,58.10546875,-91.30859375,36.1328125,63.4765625,0.0
1676923418.845424,80.56640625,-75.68359375,28.3203125,68.84765625,0.0
1676923418.847935,105.95703125,-62.01171875,27.83203125,64.94140625,0.0
1676923418.850446,87.890625,-49.8046875,35.64453125,61.03515625,0.0
1676923418.8529572,63.4765625,-45.8984375,36.1328125,56.640625,0.0
1676923418.8554683,83.49609375,-49.31640625,37.109375,64.94140625,0.0
1676923418.8579793,97.65625,-52.734375,38.57421875,78.125,0.0
1676923418.8618312,91.30859375,-38.57421875,33.69140625,74.21875,0.0
1676923418.865683,77.1484375,-37.109375,34.1796875,61.03515625,0.0
1676923418.869535,81.54296875,-55.17578125,33.69140625,68.84765625,0.0
1676923418.8733866,107.421875,-52.24609375,36.1328125,81.54296875,0.0
1676923418.8772385,104.98046875,-44.921875,45.8984375,81.0546875,0.0
1676923418.8810904,78.61328125,-41.9921875,55.17578125,73.2421875,0.0
1676923418.8849423,72.265625,-39.55078125,57.6171875,84.47265625,0.0
1676923418.8887942,98.14453125,-35.64453125,44.921875,102.05078125,0.0
1676923418.8926458,120.1171875,-29.296875,38.0859375,89.35546875,0.0
1676923418.8964977,85.9375,-34.66796875,31.25,78.125,0.0
1676923418.9003496,68.84765625,-34.66796875,26.85546875,86.9140625,0.0
1676923418.9042015,100.5859375,-30.2734375,36.1328125,86.9140625,0.0
1676923418.9078498,110.83984375,-35.15625,42.96875,74.70703125,0.0
1676923418.911498,81.0546875,-40.0390625,41.015625,69.3359375,0.0
1676923418.9151464,55.6640625,-39.0625,41.9921875,65.4296875,0.0
1676923418.9187946,79.1015625,-37.59765625,44.43359375,70.3125,0.0
1676923418.922443,109.375,-42.96875,46.875,78.125,0.0
1676923418.9260912,88.8671875,-51.26953125,43.9453125,74.70703125,0.0
1676923418.9297395,52.734375,-53.7109375,41.015625,86.9140625,0.0
1676923418.9333878,62.5,-45.8984375,44.43359375,89.35546875,0.0
1676923418.937036,103.02734375,-43.45703125,45.8984375,79.58984375,0.0
1676923418.9406843,97.16796875,-58.10546875,40.0390625,83.0078125,0.0
1676923418.9443326,66.40625,-54.19921875,38.0859375,74.70703125,0.0
1676923418.9479809,62.5,-52.734375,42.48046875,79.1015625,0.0
1676923418.9517405,83.0078125,-62.01171875,42.96875,75.68359375,0.0
1676923418.9555001,98.6328125,-63.96484375,42.48046875,72.265625,0.0
1676923418.9592597,74.70703125,-63.96484375,44.43359375,63.96484375,0.0
1676923418.9630194,59.5703125,-55.6640625,44.43359375,55.6640625,0.0
1676923418.966779,77.1484375,-60.05859375,43.9453125,64.94140625,0.0
1676923418.9705386,82.51953125,-69.3359375,41.9921875,67.3828125,0.0
1676923418.974298,62.01171875,-66.40625,42.96875,63.96484375,0.0
1676923418.9780576,58.10546875,-58.10546875,47.8515625,57.6171875,0.0
1676923418.9818172,80.078125,-59.08203125,39.55078125,49.8046875,0.0
1676923418.9855769,95.703125,-68.359375,31.73828125,70.3125,0.0
1676923418.9893365,89.35546875,-63.4765625,33.69140625,80.56640625,0.0
1676923418.993096,76.66015625,-53.7109375,36.62109375,48.828125,0.0
1676923418.9980867,83.984375,-59.08203125,38.0859375,52.24609375,0.0
1676923419.0030775,113.76953125,-56.640625,42.96875,75.1953125,0.0
1676923419.008068,117.67578125,-54.6875,41.9921875,75.68359375,0.0
1676923419.0130587,81.0546875,-56.640625,41.50390625,60.05859375,0.0
1676923419.0180495,63.96484375,-60.546875,43.45703125,54.6875,0.0
1676923419.02304,89.35546875,-61.5234375,39.55078125,62.01171875,0.0
1676923419.0280306,107.91015625,-56.15234375,34.66796875,57.6171875,0.0
1676923419.0330215,86.9140625,-61.03515625,38.0859375,51.26953125,0.0
1676923419.038012,63.96484375,-64.94140625,43.9453125,59.5703125,0.0
1676923419.0430026,72.265625,-62.01171875,44.43359375,77.63671875,0.0
1676923419.0479934,102.5390625,-53.7109375,47.36328125,81.0546875,0.0
1676923419.052984,100.5859375,-48.828125,52.24609375,71.77734375,0.0
1676923419.0567331,63.4765625,-60.05859375,45.41015625,67.87109375,0.0
1676923419.0604823,72.265625,-64.453125,43.45703125,63.96484375,0.0
1676923419.0642314,104.4921875,-59.5703125,46.38671875,65.91796875,0.0
1676923419.0679805,94.23828125,-64.453125,39.55078125,68.359375,0.0
1676923419.0717297,71.2890625,-66.89453125,34.66796875,67.3828125,0.0
1676923419.0754788,65.4296875,-62.98828125,28.80859375,64.453125,0.0
1676923419.079228,81.0546875,-60.05859375,21.484375,64.453125,0.0
1676923419.082977,103.02734375,-52.734375,26.3671875,66.89453125,0.0
1676923419.0867262,77.63671875,-63.96484375,23.4375,62.01171875,0.0
1676923419.0904753,67.87109375,-60.546875,20.01953125,61.5234375,0.0
1676923419.0942245,104.00390625,-41.015625,21.97265625,62.98828125,0.0
1676923419.0979736,109.86328125,-47.8515625,23.92578125,67.87109375,0.0
1676923419.1018066,80.078125,-51.26953125,24.90234375,63.4765625,0.0
1676923419.1056395,61.03515625,-45.41015625,23.4375,64.453125,0.0
1676923419.1094725,78.125,-51.26953125,26.85546875,64.94140625,0.0
1676923419.1133056,102.5390625,-55.6640625,28.3203125,62.98828125,0.0
1676923419.1171384,89.35546875,-50.78125,26.85546875,64.94140625,0.0
1676923419.1209714,66.40625,-39.0625,27.34375,60.546875,0.0
1676923419.1248045,82.03125,-42.96875,27.34375,55.6640625,0.0
1676923419.1286373,105.95703125,-20.01953125,26.3671875,55.6640625,0.0
1676923419.1324704,93.26171875,41.50390625,26.85546875,67.3828125,0.0
1676923419.1363034,71.2890625,60.546875,28.3203125,64.453125,0.0
1676923419.1401362,69.3359375,46.875,25.390625,56.15234375,0.0
1676923419.1439693,88.8671875,31.73828125,29.296875,66.40625,0.0
1676923419.1476364,98.14453125,28.3203125,37.109375,69.3359375,0.0
1676923419.1513038,75.1953125,26.85546875,37.59765625,62.5,0.0
1676923419.154971,57.6171875,18.06640625,32.71484375,57.12890625,0.0
1676923419.1586382,63.96484375,6.8359375,28.80859375,58.59375,0.0
1676923419.1623054,83.49609375,2.9296875,30.76171875,60.05859375,0.0
1676923419.1659727,72.265625,0.9765625,33.69140625,55.6640625,0.0
1676923419.1696398,52.734375,-2.9296875,31.25,47.8515625,0.0
1676923419.173307,67.3828125,-10.7421875,28.80859375,53.7109375,0.0
1676923419.1769743,89.84375,-12.6953125,21.97265625,72.75390625,0.0
1676923419.1806414,94.23828125,-2.9296875,29.78515625,75.1953125,0.0
1676923419.1843088,69.3359375,-10.7421875,43.45703125,59.5703125,0.0
1676923419.187976,71.77734375,-19.53125,43.45703125,54.6875,0.0
1676923419.1917822,109.86328125,-16.6015625,42.96875,67.87109375,0.0
1676923419.1955886,110.3515625,-24.90234375,40.0390625,78.125,0.0
1676923419.1993952,81.54296875,-34.1796875,35.64453125,78.61328125,0.0
1676923419.2032015,83.49609375,-18.06640625,36.1328125,84.9609375,0.0
1676923419.207008,114.2578125,-23.4375,36.62109375,94.7265625,0.0
1676923419.2108145,119.62890625,-13.671875,26.3671875,97.65625,0.0
1676923419.2146208,92.28515625,346.19140625,21.484375,83.0078125,0.0
1676923419.2184272,69.82421875,698.2421875,22.4609375,92.28515625,0.0
1676923419.2222335,93.75,748.53515625,21.484375,100.09765625,0.0
1676923419.22604,122.0703125,752.44140625,18.06640625,78.61328125,0.0
1676923419.2298465,100.5859375,717.28515625,13.18359375,72.75390625,0.0
1676923419.2336528,77.63671875,672.36328125,12.6953125,69.3359375,0.0
1676923419.2373295,95.703125,634.765625,11.71875,71.2890625,0.0
1676923419.2410061,123.046875,586.9140625,6.34765625,73.2421875,0.0
1676923419.2446828,118.1640625,539.55078125,7.32421875,77.1484375,0.0
1676923419.2483594,85.44921875,501.46484375,10.7421875,73.2421875,0.0
1676923419.252036,75.68359375,463.37890625,10.7421875,64.94140625,0.0
1676923419.255713,104.4921875,427.24609375,12.20703125,68.84765625,0.0
1676923419.2593896,99.609375,391.11328125,7.8125,70.3125,0.0
1676923419.2630663,69.3359375,362.79296875,9.765625,68.359375,0.0
1676923419.266743,77.63671875,340.33203125,17.08984375,59.08203125,0.0
1676923419.2704196,103.02734375,303.22265625,20.01953125,54.6875,0.0
1676923419.2740963,113.76953125,270.99609375,28.80859375,66.40625,0.0
1676923419.277773,95.21484375,251.46484375,35.64453125,72.75390625,0.0
1676923419.281627,75.1953125,228.02734375,36.62109375,65.91796875,0.0
1676923419.285481,86.9140625,198.73046875,35.15625,68.359375,0.0
1676923419.2893353,104.00390625,172.8515625,31.73828125,81.54296875,0.0
1676923419.2931893,98.14453125,158.69140625,34.66796875,81.0546875,0.0
1676923419.2970433,72.75390625,146.97265625,36.62109375,73.2421875,0.0
1676923419.3008976,78.61328125,131.34765625,39.0625,78.125,0.0
1676923419.3047516,101.5625,115.72265625,41.9921875,95.21484375,0.0
1676923419.3086057,101.07421875,108.3984375,45.41015625,94.23828125,0.0
1676923419.3124597,87.40234375,94.7265625,44.921875,74.70703125,0.0
1676923419.3163137,77.1484375,69.3359375,37.109375,66.40625,0.0
1676923419.320168,94.7265625,57.12890625,33.203125,65.91796875,0.0
1676923419.324022,104.98046875,58.10546875,36.62109375,69.3359375,0.0
1676923419.327691,81.54296875,50.78125,43.9453125,68.359375,0.0
1676923419.3313599,70.3125,43.45703125,53.22265625,73.73046875,0.0
1676923419.335029,94.7265625,41.015625,62.98828125,79.1015625,0.0
1676923419.3386977,117.1875,37.109375,68.84765625,76.66015625,0.0
1676923419.3423667,92.28515625,22.94921875,67.87109375,64.94140625,0.0
1676923419.3460355,68.359375,7.32421875,64.453125,72.265625,0.0
1676923419.3497045,82.03125,13.18359375,62.5,94.7265625,0.0
1676923419.3533735,117.1875,20.01953125,64.453125,94.23828125,0.0
1676923419.3570423,113.28125,10.7421875,69.3359375,81.0546875,0.0
1676923419.3607113,83.49609375,2.44140625,71.2890625,77.1484375,0.0
1676923419.3643801,93.75,-1.46484375,64.453125,81.0546875,0.0
1676923419.3680491,117.67578125,-2.44140625,63.4765625,83.49609375,0.0
1676923419.3730266,114.74609375,-8.7890625,67.3828125,85.9375,0.0
1676923419.3780043,83.0078125,-10.7421875,69.82421875,77.63671875,0.0
1676923419.3829818,76.66015625,-11.23046875,69.3359375,73.73046875,0.0
1676923419.3879595,108.3984375,-17.578125,72.265625,86.42578125,0.0
1676923419.392937,124.0234375,-21.97265625,77.1484375,97.16796875,0.0
1676923419.3979144,88.37890625,-23.92578125,75.68359375,92.7734375,0.0
1676923419.402892,59.08203125,-24.4140625,65.4296875,81.54296875,0.0
1676923419.4078696,88.37890625,-21.484375,66.40625,84.9609375,0.0
1676923419.4128473,114.74609375,-25.87890625,73.73046875,96.6796875,0.0
1676923419.4178247,85.9375,-39.55078125,65.4296875,93.75,0.0
1676923419.4228024,70.80078125,-26.3671875,62.01171875,88.8671875,0.0
1676923419.42778,99.609375,-13.671875,65.4296875,93.75,0.0
1676923419.4315467,123.53515625,-21.484375,66.40625,102.05078125,0.0
1676923419.4353137,121.09375,-14.6484375,66.40625,102.05078125,0.0
1676923419.4390805,99.12109375,-6.34765625,68.84765625,106.4453125,0.0
1676923419.4428473,106.93359375,-16.11328125,67.3828125,106.4453125,0.0
1676923419.446614,133.7890625,-18.5546875,62.01171875,99.12109375,0.0
1676923419.4503808,129.39453125,-19.04296875,62.01171875,95.703125,0.0
1676923419.4541478,101.5625,-17.578125,62.98828125,90.8203125,0.0
1676923419.4579146,101.07421875,-11.71875,69.82421875,90.8203125,0.0
1676923419.4616814,127.44140625,-17.08984375,70.3125,105.46875,0.0
1676923419.4654484,134.765625,-15.625,73.2421875,118.1640625,0.0
1676923419.4692152,110.3515625,-10.7421875,74.21875,104.98046875,0.0
1676923419.472982,88.8671875,-18.5546875,64.94140625,90.33203125,0.0
1676923419.476889,100.09765625,-26.85546875,63.4765625,102.5390625,0.0
1676923419.4807959,119.62890625,-29.296875,62.5,101.07421875,0.0
1676923419.4847026,100.5859375,-35.64453125,57.6171875,78.61328125,0.0
1676923419.4886096,70.3125,-49.31640625,55.6640625,68.84765625,0.0
1676923419.4925165,76.171875,-62.5,51.26953125,64.94140625,0.0
1676923419.4964232,102.5390625,-60.546875,55.17578125,70.80078125,0.0
1676923419.5003302,100.5859375,-53.22265625,65.4296875,66.89453125,0.0
1676923419.5042372,68.359375,-56.640625,61.03515625,58.10546875,0.0
1676923419.5081441,56.640625,-58.59375,58.10546875,70.3125,0.0
1676923419.512051,82.03125,-44.921875,62.01171875,70.80078125,0.0
1676923419.5159578,94.23828125,-43.45703125,52.24609375,55.6640625,0.0
1676923419.5198648,63.4765625,-48.33984375,41.50390625,45.8984375,0.0
1676923419.5234518,54.19921875,-44.43359375,41.015625,44.43359375,0.0
1676923419.5270386,85.9375,-45.41015625,42.96875,54.19921875,0.0
1676923419.5306256,107.421875,-49.8046875,43.9453125,58.10546875,0.0
1676923419.5342126,79.1015625,-57.12890625,44.43359375,58.10546875,0.0
1676923419.5377994,48.33984375,-56.640625,42.96875,55.17578125,0.0
1676923419.5413864,62.98828125,-54.6875,41.50390625,50.78125,0.0
1676923419.5449734,94.23828125,-45.8984375,45.8984375,55.6640625,0.0
1676923419.5485601,81.0546875,-51.7578125,43.9453125,55.6640625,0.0
1676923419.5521472,43.9453125,-59.08203125,39.55078125,64.453125,0.0
1676923419.5557342,60.05859375,-46.875,39.55078125,57.12890625,0.0
1676923419.559321,101.5625,-52.24609375,36.1328125,45.41015625,0.0
1676923419.562908,95.703125,-56.640625,26.3671875,47.8515625,0.0
1676923419.5666642,59.08203125,-50.78125,22.4609375,41.9921875,0.0
1676923419.5704205,62.5,-41.9921875,16.6015625,50.78125,0.0
1676923419.5741768,92.28515625,-43.45703125,9.765625,57.12890625,0.0
1676923419.5779328,87.890625,-45.8984375,9.27734375,57.6171875,0.0
1676923419.5816891,62.01171875,-41.015625,8.30078125,52.734375,0.0
1676923419.5854454,46.38671875,-44.921875,6.8359375,49.8046875,0.0
1676923419.5892017,64.453125,-55.17578125,7.32421875,53.22265625,0.0
1676923419.592958,70.3125,-65.91796875,3.41796875,58.59375,0.0
1676923419.596714,53.7109375,-54.19921875,6.8359375,52.734375,0.0
1676923419.6004703,48.828125,-41.9921875,13.18359375,34.1796875,0.0
1676923419.6042266,58.59375,-49.31640625,19.53125,36.62109375,0.0
1676923419.6079829,83.984375,-53.7109375,26.85546875,39.55078125,0.0
1676923419.6117332,75.1953125,-53.22265625,30.2734375,33.69140625,0.0
1676923419.6154835,54.6875,-45.8984375,37.59765625,41.50390625,0.0
1676923419.6192336,61.03515625,-46.875,40.52734375,59.08203125,0.0
1676923419.622984,91.30859375,-45.8984375,43.45703125,65.4296875,0.0
1676923419.6267343,99.12109375,-47.36328125,49.8046875,66.40625,0.0
1676923419.6304846,64.94140625,-49.8046875,49.31640625,55.6640625,0.0
1676923419.634235,57.12890625,-49.8046875,50.29296875,58.59375,0.0
1676923419.6379852,80.56640625,-59.08203125,52.734375,73.73046875,0.0
1676923419.6417356,93.75,-56.15234375,51.7578125,66.89453125,0.0
1676923419.6454856,70.3125,-51.7578125,53.22265625,53.22265625,0.0
1676923419.649236,51.7578125,-48.33984375,57.12890625,53.7109375,0.0
1676923419.6529863,73.73046875,-49.8046875,53.7109375,62.01171875,0.0
1676923419.6567333,98.6328125,-54.19921875,47.8515625,59.08203125,0.0
1676923419.6604803,80.56640625,-51.7578125,56.640625,53.7109375,0.0
1676923419.664227,59.08203125,-46.875,65.91796875,50.29296875,0.0
1676923419.667974,71.77734375,-42.48046875,72.265625,55.17578125,0.0
1676923419.671721,92.7734375,-48.33984375,62.98828125,57.12890625,0.0
1676923419.675468,80.078125,-55.6640625,53.22265625,55.17578125,0.0
1676923419.679215,45.41015625,-50.78125,47.8515625,60.546875,0.0
1676923419.682962,50.29296875,-43.45703125,37.59765625,55.6640625,0.0
1676923419.686709,82.03125,-47.8515625,33.69140625,51.7578125,0.0
1676923419.6904557,82.03125,-55.17578125,34.1796875,48.33984375,0.0
1676923419.6942027,51.7578125,-51.26953125,36.62109375,42.96875,0.0
1676923419.6979496,40.52734375,-49.8046875,38.57421875,46.38671875,0.0
1676923419.7018104,63.4765625,-53.22265625,38.57421875,50.29296875,0.0
1676923419.7056713,80.56640625,-51.7578125,36.1328125,50.78125,0.0
1676923419.7095323,57.12890625,-44.921875,36.62109375,51.7578125,0.0
1676923419.713393,45.8984375,-36.1328125,40.0390625,51.26953125,0.0
1676923419.7172537,60.546875,-37.109375,40.52734375,52.734375,0.0
1676923419.7211146,71.2890625,-45.8984375,30.76171875,58.10546875,0.0
1676923419.7249756,67.87109375,-38.57421875,35.64453125,66.89453125,0.0
1676923419.7288363,62.98828125,-19.53125,45.8984375,62.5,0.0
1676923419.732697,78.61328125,-24.4140625,47.8515625,66.40625,0.0
1676923419.736558,94.7265625,-37.59765625,48.828125,76.66015625,0.0
1676923419.740419,86.9140625,-35.15625,48.33984375,68.84765625,0.0
1676923419.7442796,64.453125,-31.25,50.29296875,51.7578125,0.0
1676923419.7491684,64.453125,-38.0859375,48.828125,48.33984375,0.0
1676923419.7540572,91.30859375,-35.15625,50.29296875,57.6171875,0.0
1676923419.758946,97.16796875,-30.76171875,52.734375,59.5703125,0.0
1676923419.7638347,68.84765625,-36.62109375,49.8046875,53.22265625,0.0
1676923419.7687235,55.6640625,-38.57421875,47.8515625,52.734375,0.0
1676923419.7736125,73.2421875,-36.62109375,54.6875,64.94140625,0.0
1676923419.7785013,86.9140625,-26.3671875,57.6171875,68.84765625,0.0
1676923419.78339,70.3125,-22.94921875,55.17578125,53.7109375,0.0
1676923419.7882788,52.734375,-25.87890625,58.10546875,51.7578125,0.0
1676923419.7931676,69.82421875,-24.90234375,53.7109375,62.01171875,0.0
1676923419.7980564,104.00390625,-26.3671875,51.7578125,73.2421875,0.0
1676923419.8029451,104.4921875,-30.2734375,59.08203125,77.1484375,0.0
1676923419.8066988,81.54296875,-29.78515625,62.01171875,78.125,0.0
1676923419.8104525,86.42578125,-25.390625,59.5703125,83.0078125,0.0
1676923419.8142061,112.79296875,-19.04296875,61.5234375,92.28515625,0.0
1676923419.81796,115.234375,-20.01953125,70.80078125,84.47265625,0.0
1676923419.8217137,82.51953125,-26.85546875,69.82421875,72.75390625,0.0
1676923419.8254673,78.125,-27.83203125,65.4296875,77.63671875,0.0
1676923419.829221,111.328125,-32.71484375,63.96484375,79.1015625,0.0
1676923419.8329747,112.79296875,-32.2265625,59.5703125,77.63671875,0.0
1676923419.8367286,79.58984375,-29.78515625,60.546875,67.87109375,0.0
1676923419.8404822,59.08203125,-30.2734375,57.6171875,74.21875,0.0
1676923419.844236,87.890625,-23.92578125,57.12890625,82.51953125,0.0
1676923419.8479896,125.0,-31.73828125,57.6171875,78.125,0.0
1676923419.8517375,104.00390625,-33.69140625,55.6640625,76.171875,0.0
1676923419.8554854,67.87109375,-35.15625,54.6875,67.87109375,0.0
1676923419.8592331,78.61328125,-45.8984375,49.8046875,70.80078125,0.0
1676923419.862981,112.79296875,-41.50390625,49.8046875,82.03125,0.0
1676923419.866729,105.46875,-42.48046875,52.24609375,82.03125,0.0
1676923419.8704767,73.73046875,-47.36328125,56.640625,76.171875,0.0
1676923419.8742247,80.56640625,-48.828125,59.08203125,69.82421875,0.0
1676923419.8779726,114.74609375,-54.19921875,60.546875,67.3828125,0.0
1676923419.8817205,108.88671875,-64.94140625,56.15234375,73.2421875,0.0
1676923419.8854685,81.0546875,-53.7109375,58.59375,66.89453125,0.0
1676923419.8892162,72.265625,-50.29296875,65.4296875,59.08203125,0.0
1676923419.8929641,86.42578125,-61.5234375,58.59375,62.98828125,0.0
1676923419.8967156,101.07421875,-56.15234375,50.29296875,65.4296875,0.0
1676923419.9004674,82.03125,-49.8046875,47.8515625,54.6875,0.0
1676923419.904219,63.4765625,-57.12890625,49.8046875,45.8984375,0.0
1676923419.9079707,77.63671875,-66.89453125,48.33984375,55.17578125,0.0
1676923419.9117222,91.30859375,-65.91796875,45.41015625,63.96484375,0.0
1676923419.915474,67.87109375,-66.89453125,40.52734375,61.03515625,0.0
1676923419.9192255,46.875,-68.359375,41.50390625,53.7109375,0.0
1676923419.922977,57.12890625,-71.2890625,41.015625,56.15234375,0.0
1676923419.9267287,72.265625,-73.2421875,41.9921875,65.91796875,0.0
1676923419.9304802,75.1953125,-64.94140625,53.7109375,48.828125,0.0
1676923419.934232,52.734375,-66.40625,60.05859375,41.50390625,0.0
1676923419.9379835,48.828125,-60.546875,57.12890625,48.828125,0.0
1676923419.9429832,77.1484375,-52.734375,54.6875,44.43359375,0.0
1676923419.947983,83.0078125,-50.78125,53.7109375,41.015625,0.0
1676923419.9529827,46.38671875,-63.96484375,47.36328125,33.203125,0.0
1676923419.9579825,37.109375,-63.96484375,45.8984375,33.69140625,0.0
1676923419.9629822,65.91796875,-51.7578125,43.9453125,38.57421875,0.0
1676923419.9679818,72.75390625,-55.6640625,37.59765625,38.57421875,0.0
1676923419.9729817,50.29296875,-60.05859375,35.64453125,31.25,0.0
1676923419.9779813,31.25,-65.91796875,33.69140625,39.0625,0.0
1676923419.9829812,56.15234375,-57.12890625,36.62109375,45.41015625,0.0
1676923419.9879808,91.30859375,-50.29296875,41.9921875,51.26953125,0.0
1676923419.9929807,76.66015625,-53.7109375,46.875,58.10546875,0.0
1676923419.9979804,58.10546875,-48.33984375,44.921875,53.7109375,0.0
1676923420.0005007,71.2890625,-41.9921875,41.9921875,60.05859375,0.0
1676923420.0030208,96.19140625,-51.26953125,42.48046875,62.01171875,0.0
1676923420.005541,86.42578125,-63.96484375,45.8984375,60.05859375,0.0
1676923420.0080614,62.5,-59.08203125,49.8046875,68.359375,0.0
1676923420.0105817,68.359375,-54.6875,44.921875,62.01171875,0.0
1676923420.013102,93.26171875,-49.31640625,40.0390625,58.59375,0.0
1676923420.0156221,104.4921875,-40.52734375,40.52734375,68.84765625,0.0
1676923420.0181425,78.61328125,-41.015625,41.50390625,60.05859375,0.0
1676923420.0206628,75.68359375,-38.57421875,39.55078125,50.78125,0.0
1676923420.0231829,96.6796875,-39.55078125,37.109375,57.6171875,0.0
1676923420.0257032,104.00390625,-47.8515625,42.96875,70.3125,0.0
1676923420.0282235,70.80078125,-45.41015625,36.62109375,75.1953125,0.0
1676923420.0344536,46.38671875,-40.0390625,32.2265625,53.22265625,0.0
1676923420.0406837,67.3828125,-44.921875,40.52734375,52.734375,0.0
1676923420.0469139,88.8671875,-48.33984375,41.9921875,70.3125,0.0
1676923420.053144,75.1953125,-51.7578125,37.109375,66.40625,0.0
1676923420.059374,49.31640625,-55.17578125,31.25,51.26953125,0.0
1676923420.0656042,47.8515625,-60.05859375,27.83203125,44.921875,0.0
1676923420.071834,68.84765625,-62.5,28.80859375,60.05859375,0.0
1676923420.0780642,76.171875,-55.17578125,38.57421875,62.5,0.0
1676923420.0842943,55.6640625,-60.05859375,43.9453125,42.96875,0.0
1676923420.0905244,50.78125,-74.21875,44.43359375,45.41015625,0.0
1676923420.0967546,81.54296875,-70.80078125,46.38671875,56.640625,0.0
1676923420.1029847,96.19140625,-67.87109375,42.96875,54.6875,0.0
1676923420.105487,66.40625,-69.82421875,37.59765625,41.50390625,0.0
1676923420.1079895,42.48046875,-76.171875,35.64453125,37.59765625,0.0
1676923420.1104922,61.5234375,-71.77734375,32.71484375,42.48046875,0.0
1676923420.1129947,93.26171875,-61.5234375,30.2734375,51.26953125,0.0
1676923420.115497,80.078125,-56.640625,32.2265625,43.45703125,0.0
1676923420.1179996,52.734375,-55.17578125,28.80859375,41.50390625,0.0
1676923420.120502,63.4765625,-54.6875,19.04296875,46.875,0.0
1676923420.1230044,97.65625,-52.24609375,20.01953125,44.43359375,0.0
1676923420.1255069,93.26171875,-57.12890625,20.99609375,49.8046875,0.0
1676923420.1280096,59.5703125,-62.98828125,20.99609375,50.29296875,0.0
1676923420.130512,57.12890625,-67.87109375,23.92578125,36.62109375,0.0
1676923420.1330144,75.1953125,-73.2421875,25.390625,38.0859375,0.0
1676923420.1368077,68.84765625,-72.265625,29.296875,41.50390625,0.0
1676923420.1406012,35.64453125,-74.70703125,28.3203125,44.921875,0.0
1676923420.1443944,26.85546875,-64.453125,20.99609375,47.8515625,0.0
1676923420.1481879,59.08203125,-49.31640625,16.6015625,33.69140625,0.0
1676923420.151981,75.1953125,-51.26953125,15.625,36.1328125,0.0
1676923420.1557746,48.828125,-50.29296875,10.25390625,35.64453125,0.0
1676923420.1595678,34.66796875,-44.921875,2.44140625,34.66796875,0.0
1676923420.163361,63.4765625,-46.38671875,9.765625,40.0390625,0.0
1676923420.1671546,86.9140625,-55.6640625,20.01953125,36.1328125,0.0
1676923420.1709478,61.5234375,-63.96484375,17.08984375,47.8515625,0.0
1676923420.1747413,35.64453125,-56.640625,14.6484375,40.0390625,0.0
1676923420.1785345,57.12890625,-63.96484375,14.6484375,26.3671875,0.0
1676923420.182239,89.35546875,-69.82421875,14.16015625,47.8515625,0.0
1676923420.1859434,82.51953125,-62.01171875,12.20703125,45.8984375,0.0
1676923420.189648,61.03515625,-58.59375,17.578125,35.15625,0.0
1676923420.1933522,78.125,-51.7578125,24.90234375,24.90234375,0.0
1676923420.1970568,103.515625,-50.78125,17.578125,28.3203125,0.0
1676923420.2007613,96.19140625,-55.17578125,12.20703125,37.109375,0.0
1676923420.2044656,64.94140625,-56.15234375,17.578125,25.390625,0.0
1676923420.2081702,53.22265625,-54.6875,22.4609375,22.94921875,0.0
1676923420.2118745,63.96484375,-64.94140625,24.4140625,38.0859375,0.0
1676923420.215579,65.4296875,-70.3125,26.3671875,43.9453125,0.0
1676923420.2192833,49.31640625,-53.7109375,35.15625,37.109375,0.0
1676923420.222988,30.76171875,-52.734375,30.2734375,35.15625,0.0
1676923420.2267382,50.29296875,-49.31640625,17.578125,37.59765625,0.0
1676923420.2304885,76.66015625,-29.296875,14.6484375,49.8046875,0.0
1676923420.2342386,69.3359375,-25.87890625,10.25390625,45.8984375,0.0
1676923420.237989,55.6640625,-30.2734375,8.30078125,44.43359375,0.0
1676923420.2417393,64.453125,-23.4375,18.06640625,60.546875,0.0
1676923420.2454896,85.9375,-23.92578125,24.90234375,62.98828125,0.0
1676923420.24924,81.0546875,-25.87890625,31.25,55.6640625,0.0
1676923420.2529902,52.24609375,-24.4140625,37.59765625,48.33984375,0.0
1676923420.2567406,41.9921875,-36.1328125,35.64453125,57.6171875,0.0
1676923420.2604907,64.453125,-29.78515625,34.66796875,64.94140625,0.0
1676923420.264241,87.890625,-12.6953125,33.69140625,45.8984375,0.0
1676923420.2679913,62.01171875,-8.7890625,29.78515625,37.109375,0.0
1676923420.2717307,50.78125,-7.32421875,34.1796875,48.33984375,0.0
1676923420.2754703,86.42578125,-9.765625,34.66796875,64.94140625,0.0
1676923420.2792096,106.4453125,-11.71875,34.66796875,68.84765625,0.0
1676923420.282949,83.49609375,-14.6484375,47.36328125,68.359375,0.0
1676923420.2866886,62.01171875,-14.16015625,58.10546875,72.75390625,0.0
1676923420.290428,75.1953125,-8.7890625,60.546875,69.82421875,0.0
1676923420.2941673,98.6328125,-4.8828125,63.4765625,65.4296875,0.0
1676923420.2979069,86.9140625,-15.13671875,60.05859375,66.89453125,0.0
1676923420.3016462,59.08203125,-18.06640625,56.640625,63.4765625,0.0
1676923420.3053856,62.01171875,-3.90625,52.734375,49.8046875,0.0
1676923420.3091252,82.03125,-9.765625,40.0390625,47.36328125,0.0
1676923420.3128645,81.0546875,-11.71875,31.25,51.26953125,0.0
1676923420.3167157,56.640625,0.48828125,27.83203125,53.22265625,0.0
1676923420.3205671,64.453125,12.20703125,33.69140625,58.10546875,0.0
1676923420.3244183,95.21484375,14.16015625,44.43359375,67.87109375,0.0
1676923420.3282695,100.5859375,15.625,54.6875,78.125,0.0
1676923420.3321207,81.0546875,17.08984375,61.5234375,76.171875,0.0
1676923420.3359718,71.2890625,13.671875,65.4296875,74.21875,0.0
1676923420.3398232,89.35546875,16.11328125,62.5,68.359375,0.0
1676923420.3436744,106.4453125,23.4375,58.59375,65.91796875,0.0
1676923420.3475256,89.35546875,32.2265625,57.12890625,65.91796875,0.0
1676923420.351377,67.3828125,27.34375,57.6171875,58.59375,0.0
1676923420.3552282,80.078125,23.4375,55.6640625,60.05859375,0.0
1676923420.3590794,98.14453125,22.94921875,48.33984375,64.94140625,0.0
1676923420.3627431,88.37890625,23.4375,45.8984375,49.8046875,0.0
1676923420.366407,69.82421875,24.90234375,50.78125,43.45703125,0.0
1676923420.3700707,74.70703125,23.92578125,52.24609375,53.22265625,0.0
1676923420.3737345,92.7734375,26.85546875,47.8515625,56.15234375,0.0
1676923420.3773983,93.26171875,30.76171875,50.78125,57.6171875,0.0
1676923420.381062,65.4296875,28.3203125,49.8046875,53.22265625,0.0
1676923420.3847258,52.734375,18.5546875,43.45703125,55.17578125,0.0
1676923420.3883896,67.3828125,16.6015625,47.36328125,74.70703125,0.0
1676923420.3920534,84.47265625,25.87890625,50.29296875,72.75390625,0.0
1676923420.3957171,70.3125,17.08984375,46.875,59.08203125,0.0
1676923420.399381,52.24609375,6.34765625,42.48046875,61.03515625,0.0
1676923420.4030447,73.2421875,9.765625,39.55078125,70.80078125,0.0
1676923420.4067862,94.7265625,14.16015625,39.55078125,70.80078125,0.0
1676923420.410528,72.75390625,9.27734375,36.1328125,56.640625,0.0
1676923420.4142694,46.875,7.32421875,34.66796875,51.7578125,0.0
1676923420.4180112,64.453125,11.71875,33.69140625,59.5703125,0.0
1676923420.4217527,89.84375,8.30078125,34.66796875,68.359375,0.0
1676923420.4254942,75.68359375,-2.9296875,39.55078125,58.59375,0.0
1676923420.429236,47.8515625,-3.41796875,41.50390625,64.453125,0.0
1676923420.4329774,63.4765625,10.25390625,48.828125,78.61328125,0.0
1676923420.4367192,100.5859375,21.484375,48.828125,71.77734375,0.0
1676923420.4404607,98.6328125,13.18359375,33.203125,70.80078125,0.0
1676923420.4442024,62.5,3.90625,16.6015625,65.4296875,0.0
1676923420.447944,57.12890625,6.34765625,11.71875,49.8046875,0.0
1676923420.4517088,83.49609375,11.71875,13.671875,45.8984375,0.0
1676923420.455474,91.30859375,2.9296875,9.27734375,49.31640625,0.0
1676923420.4592388,68.359375,1.953125,10.7421875,51.26953125,0.0
1676923420.4630036,54.19921875,8.30078125,19.53125,54.19921875,0.0
1676923420.4667685,66.40625,-2.9296875,24.4140625,52.734375,0.0
1676923420.4705334,77.1484375,-17.578125,24.4140625,53.22265625,0.0
1676923420.4742985,57.12890625,-18.06640625,25.390625,53.7109375,0.0
1676923420.4780633,34.66796875,-12.20703125,27.83203125,45.8984375,0.0
1676923420.4818282,47.36328125,-8.7890625,18.06640625,44.43359375,0.0
1676923420.4855933,76.66015625,-4.39453125,-4.8828125,50.78125,0.0
1676923420.4893582,77.63671875,-2.9296875,-10.7421875,58.59375,0.0
1676923420.493123,56.15234375,-0.9765625,-6.8359375,56.640625,0.0
1676923420.498112,54.6875,2.44140625,-7.8125,53.7109375,0.0
1676923420.5031006,66.40625,-6.8359375,2.44140625,62.98828125,0.0
1676923420.5080895,65.4296875,-13.18359375,13.671875,57.6171875,0.0
1676923420.5130782,46.38671875,-9.765625,17.578125,39.0625,0.0
1676923420.5180671,36.62109375,-17.08984375,17.08984375,36.62109375,0.0
1676923420.523056,57.6171875,-23.4375,16.6015625,46.875,0.0
1676923420.5280447,75.68359375,-20.99609375,9.765625,49.31640625,0.0
1676923420.5330336,63.96484375,-17.578125,7.8125,45.41015625,0.0
1676923420.5380223,46.38671875,-16.11328125,9.27734375,61.5234375,0.0
1676923420.5430112,53.22265625,-19.53125,0.0,73.2421875,0.0
1676923420.5479999,78.125,-13.18359375,-2.44140625,62.98828125,0.0
1676923420.5529888,74.70703125,-18.5546875,-0.9765625,51.26953125,0.0
1676923420.5567346,45.41015625,-25.87890625,-7.8125,42.96875,0.0
1676923420.5604806,45.8984375,-21.97265625,-12.20703125,35.64453125,0.0
1676923420.5642264,78.61328125,-22.94921875,-12.20703125,32.2265625,0.0
1676923420.5679724,77.1484375,-20.99609375,-23.92578125,17.578125,0.0
1676923420.5717182,38.0859375,-20.5078125,-38.0859375,13.18359375,0.0
1676923420.5754642,32.2265625,-19.04296875,-27.34375,22.94921875,0.0
1676923420.57921,66.40625,-16.11328125,-9.765625,33.203125,0.0
1676923420.5829558,87.890625,-15.13671875,-0.48828125,46.38671875,0.0
1676923420.5867019,64.94140625,-18.06640625,3.90625,60.05859375,0.0
1676923420.5904477,49.31640625,-13.671875,5.37109375,68.84765625,0.0
1676923420.5941937,79.1015625,-9.27734375,-11.71875,59.5703125,0.0
1676923420.5979395,93.75,-19.04296875,-42.48046875,58.59375,0.0
1676923420.6016943,65.91796875,-22.94921875,-70.3125,58.10546875,0.0
1676923420.6054492,38.0859375,-25.87890625,-94.7265625,44.43359375,0.0
1676923420.609204,61.5234375,-18.06640625,-100.5859375,43.9453125,0.0
1676923420.612959,88.37890625,-11.23046875,-100.5859375,46.38671875,0.0
1676923420.6167138,64.94140625,-16.11328125,-105.95703125,37.109375,0.0
1676923420.6204686,38.0859375,-20.01953125,-105.95703125,31.25,0.0
1676923420.6242237,49.8046875,-17.08984375,-98.6328125,32.2265625,0.0
1676923420.6279786,81.0546875,-13.18359375,-83.984375,39.55078125,0.0
1676923420.6317334,83.49609375,-17.578125,-64.453125,55.6640625,0.0
1676923420.6354883,51.26953125,-3.90625,-46.875,56.15234375,0.0
1676923420.6392431,58.10546875,10.25390625,-24.90234375,54.19921875,0.0
1676923420.642998,89.84375,0.0,0.48828125,65.91796875,0.0
1676923420.6467454,93.26171875,0.0,17.578125,63.96484375,0.0
1676923420.650493,66.40625,3.41796875,30.2734375,54.19921875,0.0
1676923420.6542404,51.26953125,-5.859375,39.0625,49.8046875,0.0
1676923420.6579878,64.94140625,-16.6015625,42.48046875,53.7109375,0.0
1676923420.6617353,82.51953125,-15.13671875,50.78125,53.7109375,0.0
1676923420.6654825,68.84765625,-8.7890625,53.7109375,53.22265625,0.0
1676923420.66923,45.41015625,-5.37109375,51.7578125,50.78125,0.0
1676923420.6729774,50.29296875,-14.16015625,54.6875,57.12890625,0.0
1676923420.676725,67.87109375,-18.5546875,55.6640625,62.5,0.0
1676923420.6804724,69.82421875,-8.7890625,60.05859375,47.8515625,0.0
1676923420.6842198,46.38671875,-7.32421875,59.08203125,41.50390625,0.0
1676923420.6879673,35.15625,-14.6484375,49.8046875,51.26953125,0.0
1676923420.6917174,57.6171875,-20.01953125,45.8984375,54.19921875,0.0
1676923420.6954675,69.82421875,-15.13671875,49.31640625,44.43359375,0.0
1676923420.6992173,41.50390625,-19.53125,45.8984375,35.15625,0.0
1676923420.7029674,29.296875,-22.4609375,36.1328125,38.57421875,0.0
1676923420.7067175,56.15234375,-20.5078125,38.0859375,47.36328125,0.0
1676923420.7104673,75.68359375,-21.484375,41.015625,48.33984375,0.0
1676923420.7142174,50.29296875,-23.4375,37.59765625,41.015625,0.0
1676923420.7179675,31.25,-22.94921875,34.1796875,47.36328125,0.0
1676923420.7217176,60.546875,-11.23046875,37.109375,54.19921875,0.0
1676923420.7254677,87.890625,-12.6953125,44.921875,47.8515625,0.0
1676923420.7292175,65.4296875,-21.484375,51.7578125,43.9453125,0.0
1676923420.7329676,37.59765625,-21.484375,56.15234375,41.015625,0.0
1676923420.736803,52.734375,-19.04296875,58.59375,39.0625,0.0
1676923420.7406385,84.47265625,-12.20703125,60.546875,39.0625,0.0
1676923420.744474,78.61328125,-7.32421875,58.59375,40.52734375,0.0
1676923420.7483094,47.8515625,-11.23046875,51.7578125,39.55078125,0.0
1676923420.7521448,52.24609375,-12.20703125,49.31640625,44.921875,0.0
1676923420.7559803,81.54296875,-13.18359375,49.8046875,52.734375,0.0
1676923420.7598157,86.9140625,-9.27734375,39.55078125,57.6171875,0.0
1676923420.7636511,64.453125,-8.30078125,35.15625,58.10546875,0.0
1676923420.7674866,59.5703125,-8.30078125,39.0625,48.33984375,0.0
1676923420.771322,79.58984375,-14.16015625,32.71484375,49.8046875,0.0
1676923420.7751575,88.37890625,-14.16015625,30.2734375,52.734375,0.0
1676923420.778993,57.12890625,-12.6953125,27.34375,43.45703125,0.0
1676923420.78266,39.0625,-15.625,25.390625,40.52734375,0.0
1676923420.7863274,53.7109375,-14.6484375,31.73828125,54.19921875,0.0
1676923420.7899947,71.2890625,-17.08984375,40.0390625,62.01171875,0.0
1676923420.7936618,64.453125,-19.53125,40.0390625,53.22265625,0.0
1676923420.797329,48.33984375,-17.578125,40.0390625,50.29296875,0.0
1676923420.8009963,57.6171875,-14.16015625,42.48046875,53.22265625,0.0
1676923420.8046637,72.75390625,-17.08984375,36.1328125,64.94140625,0.0
1676923420.8083308,78.61328125,-8.7890625,33.203125,73.2421875,0.0
1676923420.811998,61.5234375,-5.859375,30.76171875,46.875,0.0
1676923420.8156652,47.8515625,-17.08984375,24.4140625,35.15625,0.0
1676923420.8193326,82.03125,-12.6953125,25.87890625,48.33984375,0.0
1676923420.8229997,94.7265625,-10.25390625,23.4375,47.36328125,0.0
1676923420.8267539,61.03515625,-12.6953125,19.04296875,40.52734375,0.0
1676923420.830508,48.828125,-18.5546875,18.06640625,48.828125,0.0
1676923420.834262,75.68359375,-21.484375,16.6015625,58.59375,0.0
1676923420.838016,100.5859375,-14.6484375,17.08984375,69.3359375,0.0
1676923420.8417702,80.078125,-14.6484375,15.13671875,66.40625,0.0
1676923420.8455243,49.8046875,-26.85546875,14.6484375,61.03515625,0.0
1676923420.8492785,63.4765625,-25.87890625,18.5546875,64.453125,0.0
1676923420.8530326,105.46875,-16.11328125,26.85546875,62.98828125,0.0
1676923420.8567867,104.4921875,-16.11328125,36.62109375,66.89453125,0.0
1676923420.8605406,70.3125,-20.01953125,32.71484375,60.05859375,0.0
1676923420.8642948,68.84765625,-25.390625,26.3671875,53.7109375,0.0
1676923420.868049,93.26171875,-19.04296875,27.83203125,50.29296875,0.0
1676923420.8730445,91.796875,-14.16015625,25.390625,51.26953125,0.0
1676923420.8780398,65.4296875,-12.20703125,31.25,64.453125,0.0
1676923420.8830354,62.5,-7.8125,38.0859375,79.58984375,0.0
1676923420.8880308,89.35546875,-6.34765625,46.875,80.56640625,0.0
1676923420.8930264,97.16796875,-13.18359375,51.7578125,76.171875,0.0
1676923420.8980217,69.82421875,-15.13671875,47.36328125,77.63671875,0.0
1676923420.9030173,58.59375,-7.32421875,49.8046875,69.82421875,0.0
1676923420.9080129,81.54296875,-3.90625,50.78125,66.40625,0.0
1676923420.9130082,106.4453125,-6.8359375,47.36328125,73.2421875,0.0
1676923420.9180038,92.28515625,-4.39453125,53.22265625,84.9609375,0.0
1676923420.9229991,85.44921875,7.8125,62.5,90.8203125,0.0
1676923420.9279947,112.3046875,10.25390625,67.3828125,95.703125,0.0
1676923420.9317443,136.23046875,10.25390625,74.70703125,108.88671875,0.0
1676923420.9354937,127.9296875,17.578125,74.21875,107.421875,0.0
1676923420.9392433,105.95703125,26.3671875,71.77734375,98.14453125,0.0
1676923420.942993,114.2578125,25.390625,77.1484375,98.6328125,0.0
1676923420.9467423,135.7421875,13.671875,73.73046875,105.95703125,0.0
1676923420.950492,133.7890625,6.8359375,65.4296875,109.375,0.0
1676923420.9542415,109.375,2.9296875,60.546875,100.09765625,0.0
1676923420.957991,90.33203125,-7.8125,51.26953125,83.49609375,0.0
1676923420.9617405,91.796875,-26.3671875,39.0625,82.51953125,0.0
1676923420.96549,93.75,-33.69140625,38.0859375,82.51953125,0.0
1676923420.9692395,64.453125,-35.64453125,37.59765625,50.78125,0.0
1676923420.972989,40.52734375,-40.0390625,31.25,41.9921875,0.0
1676923420.976739,53.22265625,-35.64453125,22.4609375,51.26953125,0.0
1676923420.980489,67.3828125,-41.50390625,16.11328125,42.96875,0.0
1676923420.9842389,55.17578125,-46.875,17.08984375,35.64453125,0.0
1676923420.9879887,29.78515625,-42.48046875,17.578125,32.2265625,0.0
1676923420.9917388,31.73828125,-47.8515625,12.6953125,29.296875,0.0
1676923420.9954886,59.5703125,-41.9921875,10.7421875,28.3203125,0.0
1676923420.9992385,62.01171875,-15.625,18.06640625,25.87890625,0.0
1676923421.0029886,33.69140625,-9.765625,21.97265625,24.4140625,0.0
1676923421.0067384,29.78515625,-18.5546875,21.484375,38.57421875,0.0
1676923421.0104883,60.05859375,-32.71484375,16.6015625,45.41015625,0.0
1676923421.0142384,69.82421875,-49.31640625,19.04296875,35.64453125,0.0
1676923421.0179882,43.45703125,-56.15234375,20.01953125,30.76171875,0.0
1676923421.021719,39.55078125,-52.24609375,17.08984375,30.76171875,0.0
1676923421.0254498,59.08203125,-51.7578125,16.6015625,35.15625,0.0
1676923421.0291805,79.1015625,-50.29296875,23.4375,38.57421875,0.0
1676923421.0329115,60.546875,-47.36328125,24.4140625,35.64453125,0.0
1676923421.0366423,39.0625,-51.7578125,20.99609375,42.48046875,0.0
1676923421.040373,55.6640625,-54.6875,15.13671875,49.31640625,0.0
1676923421.0441039,76.66015625,-58.10546875,7.8125,43.45703125,0.0
1676923421.0478346,61.5234375,-64.94140625,14.16015625,47.36328125,0.0
1676923421.0515656,29.78515625,-59.08203125,10.7421875,62.01171875,0.0
1676923421.0552964,48.33984375,-48.828125,2.9296875,56.640625,0.0
1676923421.0590272,76.66015625,-44.43359375,3.90625,46.875,0.0
1676923421.062758,71.2890625,-36.62109375,-1.46484375,45.8984375,0.0
1676923421.0665257,51.26953125,-34.1796875,-0.48828125,47.36328125,0.0
1676923421.0702932,50.29296875,-39.0625,-0.48828125,42.48046875,0.0
1676923421.074061,70.80078125,-48.828125,-5.859375,37.109375,0.0
1676923421.0778284,80.078125,-41.50390625,-1.46484375,44.921875,0.0
1676923421.0815961,60.546875,-38.57421875,2.44140625,43.45703125,0.0
1676923421.0853639,51.7578125,-45.8984375,5.859375,40.52734375,0.0
1676923421.0891314,71.77734375,-43.45703125,8.7890625,42.96875,0.0
1676923421.092899,82.51953125,-37.59765625,10.7421875,57.12890625,0.0
1676923421.0966666,62.98828125,-37.109375,6.34765625,53.22265625,0.0
1676923421.1004343,51.26953125,-38.0859375,-2.44140625,34.1796875,0.0
1676923421.1042018,55.17578125,-39.0625,-6.34765625,38.57421875,0.0
1676923421.1079695,68.359375,-44.43359375,-9.27734375,40.0390625,0.0
1676923421.111752,61.5234375,-44.43359375,-6.34765625,30.2734375,0.0
1676923421.1155345,34.66796875,-44.921875,-4.8828125,33.69140625,0.0
1676923421.119317,40.52734375,-49.8046875,-6.8359375,41.015625,0.0
1676923421.1230996,75.68359375,-44.43359375,-2.44140625,51.7578125,0.0
1676923421.126882,78.125,-41.9921875,1.46484375,53.22265625,0.0
1676923421.1306646,51.26953125,-46.38671875,-3.90625,37.109375,0.0
1676923421.134447,42.48046875,-41.9921875,-10.7421875,39.55078125,0.0
1676923421.1382296,63.96484375,-31.25,-12.6953125,48.828125,0.0
1676923421.1420121,75.68359375,-24.4140625,-15.13671875,42.48046875,0.0
1676923421.1457946,56.640625,-32.71484375,-19.53125,32.71484375,0.0
1676923421.1495771,38.57421875,-37.59765625,-27.83203125,27.83203125,0.0
1676923421.1533597,54.6875,-36.1328125,-30.2734375,29.296875,0.0
1676923421.1570718,85.44921875,-32.71484375,-21.97265625,38.57421875,0.0
1676923421.160784,77.63671875,-34.66796875,-12.20703125,38.57421875,0.0
1676923421.1644962,61.03515625,-35.15625,-1.953125,37.59765625,0.0
1676923421.1682084,67.3828125,-35.15625,-6.8359375,43.9453125,0.0
1676923421.1719205,85.44921875,-36.1328125,-13.671875,43.45703125,0.0
1676923421.1756327,74.21875,-24.90234375,-3.41796875,42.96875,0.0
1676923421.179345,39.55078125,-20.01953125,3.41796875,51.26953125,0.0
1676923421.183057,46.875,-20.5078125,8.7890625,51.7578125,0.0
1676923421.1867692,80.078125,-19.53125,16.11328125,48.828125,0.0
1676923421.1904814,80.56640625,-29.296875,19.53125,55.6640625,0.0
1676923421.1941936,52.24609375,-31.73828125,20.99609375,50.78125,0.0
1676923421.1979058,50.29296875,-24.4140625,25.390625,49.31640625,0.0
1676923421.201668,78.125,-22.4609375,32.2265625,50.29296875,0.0
1676923421.2054305,86.9140625,-23.92578125,36.62109375,49.31640625,0.0
1676923421.2091928,57.6171875,-20.5078125,41.015625,51.26953125,0.0
1676923421.212955,47.36328125,-15.625,41.015625,51.26953125,0.0
1676923421.2167175,68.84765625,-22.94921875,37.59765625,54.19921875,0.0
1676923421.2204797,84.9609375,-13.671875,32.2265625,61.03515625,0.0
1676923421.224242,67.87109375,10.25390625,41.015625,55.6640625,0.0
1676923421.2280045,43.9453125,26.3671875,54.6875,41.015625,0.0
1676923421.2317667,60.05859375,31.73828125,60.05859375,44.43359375,0.0
1676923421.235529,78.61328125,25.390625,55.17578125,62.5,0.0
1676923421.2392914,59.08203125,16.6015625,37.59765625,50.78125,0.0
1676923421.2430537,33.69140625,11.23046875,27.83203125,27.34375,0.0
1676923421.2480483,37.109375,10.7421875,29.296875,37.59765625,0.0
1676923421.2530432,74.21875,22.4609375,28.80859375,55.17578125,0.0
1676923421.2580378,88.8671875,28.3203125,23.92578125,61.03515625,0.0
1676923421.2630327,61.03515625,24.90234375,22.4609375,56.15234375,0.0
1676923421.2680273,52.734375,17.08984375,28.80859375,48.828125,0.0
