timestamps,TP9,Fp1,Fp2,TP10,stim
1676922068.2415981,68.84765625,-548.828125,-21.484375,85.9375,0.0
1676922068.246591,105.46875,-697.75390625,-30.76171875,81.54296875,0.0
1676922068.2515843,162.109375,-971.6796875,-22.4609375,122.55859375,0.0
1676922068.2565775,118.1640625,-834.9609375,-17.578125,111.328125,0.0
1676922068.2591841,110.3515625,-561.03515625,-22.94921875,98.6328125,0.0
1676922068.2617908,138.671875,-684.5703125,-17.08984375,117.1875,0.0
1676922068.2643974,102.05078125,-784.1796875,-13.671875,103.515625,0.0
1676922068.267004,103.02734375,-608.3984375,-16.11328125,101.07421875,0.0
1676922068.2696106,122.55859375,-577.63671875,-11.71875,111.81640625,0.0
1676922068.2722173,105.95703125,-859.375,-10.25390625,106.4453125,0.0
1676922068.2748241,104.4921875,-1000.0,-9.765625,96.6796875,0.0
1676922068.2774308,99.12109375,-748.53515625,-12.20703125,93.26171875,0.0
1676922068.2800374,80.56640625,-568.84765625,-16.6015625,81.0546875,0.0
1676922068.282644,114.2578125,-840.8203125,-15.13671875,95.703125,0.0
1676922068.2852507,109.86328125,-949.21875,-13.671875,97.16796875,0.0
1676922068.2878573,95.21484375,-604.4921875,-14.16015625,84.9609375,0.0
1676922068.2928026,100.5859375,-588.37890625,-11.71875,101.5625,0.0
1676922068.297748,111.81640625,-903.80859375,-10.25390625,119.140625,0.0
1676922068.3026934,123.53515625,-765.625,-9.27734375,118.1640625,0.0
1676922068.3076386,100.09765625,-531.73828125,-6.8359375,102.5390625,0.0
1676922068.3125842,87.890625,-604.00390625,-12.20703125,97.65625,0.0
1676922068.3175294,92.28515625,-936.03515625,-9.765625,113.76953125,0.0
1676922068.3224747,109.86328125,-921.38671875,-9.27734375,88.8671875,0.0
1676922068.3274202,129.39453125,-545.8984375,-11.71875,80.56640625,0.0
1676922068.3323655,120.60546875,-570.80078125,-12.20703125,108.88671875,0.0
1676922068.3373108,102.05078125,-823.73046875,-11.71875,100.5859375,0.0
1676922068.3422563,103.515625,-659.1796875,-10.25390625,75.1953125,0.0
1676922068.3472016,94.7265625,-510.7421875,-9.765625,72.265625,0.0
1676922068.3509016,78.125,-673.828125,-9.765625,80.078125,0.0
1676922068.3546014,92.7734375,-759.765625,-12.6953125,85.44921875,0.0
1676922068.3583012,104.98046875,-583.984375,-15.625,83.49609375,0.0
1676922068.3620012,91.796875,-520.5078125,-19.53125,79.58984375,0.0
1676922068.3657012,97.16796875,-772.4609375,-15.625,96.6796875,0.0
1676922068.369401,105.46875,-998.046875,-8.7890625,113.28125,0.0
1676922068.3731008,85.44921875,-876.46484375,-12.6953125,90.33203125,0.0
1676922068.3768008,99.609375,-610.83984375,-20.5078125,74.21875,0.0
1676922068.3805008,100.5859375,-810.546875,-21.484375,87.890625,0.0
1676922068.3842006,61.5234375,-989.74609375,-13.18359375,98.6328125,0.0
1676922068.3879004,64.453125,-611.81640625,-8.7890625,62.98828125,0.0
1676922068.3916004,79.1015625,-522.94921875,-11.71875,52.24609375,0.0
1676922068.3953488,66.40625,-774.4140625,-12.6953125,83.0078125,0.0
1676922068.3990974,63.96484375,-701.66015625,-14.16015625,80.078125,0.0
1676922068.4028459,57.6171875,-555.6640625,-17.08984375,62.98828125,0.0
1676922068.4065943,50.29296875,-647.94921875,-22.94921875,76.66015625,0.0
1676922068.4103427,65.4296875,-869.62890625,-23.92578125,61.03515625,0.0
1676922068.414091,41.015625,-955.56640625,-24.4140625,46.38671875,0.0
1676922068.4178398,34.66796875,-937.01171875,-20.5078125,59.5703125,0.0
1676922068.4215882,43.45703125,-938.4765625,-11.71875,61.03515625,0.0
1676922068.4253366,29.296875,-1000.0,-12.20703125,40.0390625,0.0
1676922068.4290853,27.83203125,-869.140625,-11.23046875,25.390625,0.0
1676922068.4328337,21.97265625,-582.51953125,-13.671875,31.25,0.0
1676922068.436582,0.0,-732.421875,-19.53125,28.3203125,0.0
1676922068.4403315,5.37109375,-864.2578125,-17.08984375,11.23046875,0.0
1676922068.444081,-13.18359375,-604.4921875,-7.32421875,11.71875,0.0
1676922068.4478304,-15.625,-523.92578125,-3.41796875,14.16015625,0.0
1676922068.45158,17.578125,-762.6953125,-8.30078125,11.23046875,0.0
1676922068.4553294,17.578125,-832.51953125,-6.34765625,-1.46484375,0.0
1676922068.4590788,19.04296875,-826.171875,-5.37109375,0.48828125,0.0
1676922068.4628284,11.71875,-920.41015625,-4.39453125,35.64453125,0.0
1676922068.4665778,12.6953125,-968.75,-0.48828125,47.8515625,0.0
1676922068.4703274,31.25,-925.78125,-0.9765625,33.69140625,0.0
1676922068.4740767,42.48046875,-623.53515625,-0.9765625,23.92578125,0.0
1676922068.4778264,51.26953125,-659.66796875,0.48828125,54.19921875,0.0
1676922068.4815757,58.10546875,-937.98828125,0.9765625,98.6328125,0.0
1676922068.485432,61.5234375,-770.99609375,-3.41796875,77.63671875,0.0
1676922068.489288,88.8671875,-536.1328125,-11.71875,74.21875,0.0
1676922068.4931443,100.09765625,-631.34765625,-13.18359375,97.65625,0.0
1676922068.4970005,76.171875,-839.35546875,-7.32421875,97.16796875,0.0
1676922068.5008566,90.33203125,-667.48046875,-10.7421875,105.95703125,0.0
1676922068.5047128,109.375,-756.8359375,-6.8359375,114.74609375,0.0
1676922068.508569,113.28125,-940.4296875,-0.9765625,121.58203125,0.0
1676922068.5124252,126.953125,-971.19140625,-3.90625,148.92578125,0.0
1676922068.5162814,120.1171875,-755.37109375,-7.32421875,130.859375,0.0
1676922068.5201375,115.72265625,-490.234375,-6.8359375,118.65234375,0.0
1676922068.5239937,125.0,-650.390625,-6.8359375,125.0,0.0
1676922068.52785,123.53515625,-769.53125,-7.8125,134.27734375,0.0
1676922068.5327406,148.92578125,-634.27734375,-11.23046875,126.46484375,0.0
1676922068.5376315,140.13671875,-751.953125,-11.71875,111.328125,0.0
1676922068.5425224,117.67578125,-925.29296875,-6.34765625,129.8828125,0.0
1676922068.547413,125.9765625,-826.66015625,-5.37109375,134.27734375,0.0
1676922068.5523038,122.0703125,-602.5390625,-5.37109375,126.46484375,0.0
1676922068.5571947,132.8125,-770.99609375,-10.25390625,122.0703125,0.0
1676922068.5620856,141.11328125,-987.3046875,-20.01953125,131.34765625,0.0
1676922068.5669763,137.20703125,-983.3984375,-20.01953125,152.83203125,0.0
1676922068.571867,127.9296875,-656.73828125,-12.6953125,152.83203125,0.0
1676922068.576758,120.60546875,-498.046875,-18.5546875,138.18359375,0.0
1676922068.5816488,131.34765625,-776.85546875,-21.97265625,133.7890625,0.0
1676922068.5865395,141.6015625,-686.03515625,-17.578125,134.765625,0.0
1676922068.5890436,129.39453125,-443.359375,-17.578125,140.13671875,0.0
1676922068.5915477,139.6484375,-510.7421875,-15.13671875,141.6015625,0.0
1676922068.5940518,148.4375,-849.609375,-16.11328125,148.92578125,0.0
1676922068.5965557,125.48828125,-717.7734375,-14.16015625,140.625,0.0
1676922068.5990598,139.16015625,-680.6640625,-7.8125,153.80859375,0.0
1676922068.601564,145.99609375,-980.46875,-0.48828125,166.50390625,0.0
1676922068.604068,123.046875,-981.93359375,5.859375,168.45703125,0.0
1676922068.6065722,108.3984375,-713.37890625,-3.90625,128.90625,0.0
1676922068.609076,114.2578125,-505.859375,-11.71875,116.69921875,0.0
1676922068.6115801,133.7890625,-639.6484375,-9.765625,142.08984375,0.0
1676922068.6140842,124.0234375,-937.01171875,-0.9765625,149.90234375,0.0
1676922068.6165884,106.4453125,-768.5546875,0.9765625,112.79296875,0.0
1676922068.6203437,86.9140625,-494.140625,-7.32421875,96.19140625,0.0
1676922068.6240993,57.6171875,-670.8984375,0.0,92.7734375,0.0
1676922068.6278546,40.0390625,-773.4375,6.8359375,72.75390625,0.0
1676922068.63161,41.9921875,-562.5,-10.25390625,52.24609375,0.0
1676922068.6353655,30.2734375,-531.25,-15.13671875,48.828125,0.0
1676922068.6391208,17.08984375,-833.49609375,1.46484375,48.33984375,0.0
1676922068.6428761,14.6484375,-959.9609375,8.30078125,20.5078125,0.0
1676922068.6466317,10.7421875,-843.75,5.37109375,-16.11328125,0.0
1676922068.650387,-18.5546875,-713.37890625,6.8359375,-28.80859375,0.0
1676922068.6541424,-25.87890625,-828.61328125,10.7421875,-8.30078125,0.0
1676922068.657898,-20.99609375,-854.98046875,7.32421875,-5.37109375,0.0
1676922068.6616533,-22.94921875,-572.265625,2.44140625,-21.97265625,0.0
1676922068.6666474,-21.484375,-582.03125,1.953125,-25.390625,0.0
1676922068.6716416,-5.859375,-800.29296875,5.37109375,9.765625,0.0
1676922068.6766357,18.06640625,-671.875,11.23046875,48.828125,0.0
1676922068.68163,28.3203125,-519.04296875,6.34765625,17.08984375,0.0
1676922068.686624,37.59765625,-628.41796875,0.9765625,11.71875,0.0
1676922068.6916182,54.19921875,-937.01171875,-0.48828125,48.828125,0.0
1676922068.6966124,65.4296875,-996.09375,-3.90625,49.31640625,0.0
1676922068.7016065,65.91796875,-685.05859375,-8.30078125,32.2265625,0.0
1676922068.7066007,83.984375,-655.2734375,-1.46484375,64.94140625,0.0
1676922068.7115948,87.40234375,-927.24609375,4.8828125,113.28125,0.0
1676922068.716589,83.0078125,-866.69921875,-3.90625,96.19140625,0.0
1676922068.7215831,115.234375,-636.71875,-9.27734375,88.37890625,0.0
1676922068.7253299,116.2109375,-716.30859375,-4.39453125,110.83984375,0.0
1676922068.7290769,91.30859375,-865.72265625,-7.8125,120.1171875,0.0
1676922068.7328236,110.83984375,-625.0,-14.16015625,129.39453125,0.0
1676922068.7365706,130.37109375,-544.43359375,-13.18359375,130.859375,0.0
1676922068.7403173,128.90625,-748.046875,-12.20703125,130.37109375,0.0
1676922068.7440643,132.8125,-994.140625,-9.27734375,138.18359375,0.0
1676922068.747811,133.7890625,-906.25,-8.7890625,150.390625,0.0
1676922068.7515578,129.39453125,-643.06640625,-11.71875,150.87890625,0.0
1676922068.7553048,154.78515625,-855.95703125,-11.71875,168.45703125,0.0
1676922068.7590516,159.66796875,-946.77734375,-12.6953125,172.36328125,0.0
1676922068.7627985,116.69921875,-612.79296875,-15.625,143.06640625,0.0
1676922068.7665453,124.0234375,-568.84765625,-18.06640625,128.90625,0.0
1676922068.7704048,145.99609375,-841.30859375,-14.6484375,148.4375,0.0
1676922068.7742646,141.6015625,-939.453125,-10.7421875,161.62109375,0.0
1676922068.778124,140.13671875,-741.2109375,-6.34765625,156.73828125,0.0
1676922068.7819839,151.3671875,-624.0234375,-7.32421875,162.59765625,0.0
1676922068.7858434,172.8515625,-892.578125,-12.6953125,176.26953125,0.0
1676922068.789703,138.18359375,-1000.0,-11.23046875,173.828125,0.0
1676922068.7935627,110.83984375,-905.76171875,-5.37109375,155.76171875,0.0
1676922068.7974222,133.30078125,-712.40234375,-9.765625,150.390625,0.0
1676922068.801282,143.5546875,-925.29296875,-13.18359375,167.48046875,0.0
1676922068.8051414,125.9765625,-777.83203125,-16.11328125,138.671875,0.0
1676922068.8090012,114.74609375,-555.17578125,-12.6953125,132.8125,0.0
1676922068.8128607,142.578125,-743.65234375,-9.27734375,149.4140625,0.0
1676922068.8164997,134.765625,-802.24609375,-9.765625,134.765625,0.0
1676922068.8201387,113.76953125,-678.22265625,-11.23046875,128.90625,0.0
1676922068.8237777,130.37109375,-668.45703125,-17.08984375,127.44140625,0.0
1676922068.8274167,128.90625,-822.75390625,-17.578125,138.18359375,0.0
1676922068.8310556,140.13671875,-971.6796875,-17.08984375,148.4375,0.0
1676922068.8346949,159.1796875,-1000.0,-22.4609375,147.4609375,0.0
1676922068.8383338,155.2734375,-983.3984375,-20.5078125,116.2109375,0.0
1676922068.8419728,131.34765625,-953.125,-13.18359375,109.375,0.0
1676922068.8456118,128.41796875,-1000.0,-12.20703125,137.20703125,0.0
1676922068.8492508,114.2578125,-747.55859375,-16.11328125,121.58203125,0.0
1676922068.8528898,113.28125,-520.99609375,-20.99609375,108.88671875,0.0
1676922068.8565288,130.37109375,-819.3359375,-22.4609375,98.14453125,0.0
1676922068.8602762,135.25390625,-757.8125,-17.08984375,90.8203125,0.0
1676922068.8640234,124.0234375,-515.13671875,-12.6953125,94.7265625,0.0
1676922068.867771,119.140625,-612.79296875,-14.16015625,100.5859375,0.0
1676922068.8715181,98.14453125,-877.44140625,-12.20703125,113.28125,0.0
1676922068.8752656,86.9140625,-745.60546875,-10.25390625,104.00390625,0.0
1676922068.879013,97.16796875,-712.890625,-8.7890625,115.72265625,0.0
1676922068.8827603,97.16796875,-924.31640625,-4.39453125,132.32421875,0.0
1676922068.8865077,93.75,-970.21484375,-5.859375,104.98046875,0.0
1676922068.890255,108.88671875,-683.59375,-7.32421875,87.40234375,0.0
1676922068.8940024,111.81640625,-404.296875,-14.6484375,95.21484375,0.0
1676922068.8977497,109.375,-584.9609375,-14.6484375,105.95703125,0.0
1676922068.9014971,134.27734375,-806.15234375,-11.71875,111.81640625,0.0
1676922068.9053032,114.74609375,-608.88671875,-18.06640625,115.234375,0.0
1676922068.9091096,113.76953125,-439.453125,-14.6484375,113.28125,0.0
1676922068.9129157,146.484375,-670.41015625,-7.32421875,122.55859375,0.0
1676922068.916722,139.16015625,-934.5703125,-13.18359375,142.578125,0.0
1676922068.9205282,107.421875,-688.4765625,-15.625,130.859375,0.0
1676922068.9243345,114.2578125,-661.1328125,-9.27734375,122.0703125,0.0
1676922068.9281406,130.859375,-908.203125,-7.8125,140.13671875,0.0
1676922068.9319468,125.0,-919.43359375,-5.859375,139.6484375,0.0
1676922068.935753,110.3515625,-559.5703125,-9.27734375,118.1640625,0.0
1676922068.9395592,104.4921875,-475.09765625,-19.53125,119.62890625,0.0
1676922068.9433656,113.28125,-813.96484375,-13.671875,136.71875,0.0
1676922068.9471717,127.9296875,-736.81640625,-3.90625,127.44140625,0.0
1676922068.9509768,125.9765625,-419.43359375,-8.30078125,98.14453125,0.0
1676922068.954782,128.41796875,-472.65625,-13.671875,105.46875,0.0
1676922068.9585872,143.06640625,-854.4921875,-12.20703125,130.37109375,0.0
1676922068.9623926,123.53515625,-750.9765625,-11.71875,129.39453125,0.0
1676922068.9661977,100.09765625,-517.08984375,-11.71875,120.1171875,0.0
1676922068.970003,105.46875,-785.15625,-11.23046875,123.53515625,0.0
1676922068.973808,116.69921875,-994.62890625,-11.71875,140.13671875,0.0
1676922068.9776132,117.67578125,-832.03125,-8.30078125,109.86328125,0.0
1676922068.9814186,104.4921875,-557.6171875,-6.8359375,91.796875,0.0
1676922068.9852238,82.03125,-571.77734375,-4.8828125,115.234375,0.0
1676922068.989029,91.30859375,-711.42578125,-1.46484375,126.953125,0.0
1676922068.992834,109.86328125,-558.10546875,-8.30078125,100.09765625,0.0
1676922068.9978337,118.65234375,-489.2578125,-14.6484375,101.5625,0.0
1676922069.0028334,115.234375,-740.72265625,-10.7421875,117.1875,0.0
1676922069.007833,94.23828125,-810.546875,-9.765625,94.7265625,0.0
1676922069.0128326,87.40234375,-582.51953125,-6.8359375,104.4921875,0.0
1676922069.0178323,104.00390625,-565.4296875,-10.25390625,126.953125,0.0
1676922069.022832,100.09765625,-855.95703125,-11.71875,118.65234375,0.0
1676922069.0278316,97.16796875,-1000.0,-9.765625,125.48828125,0.0
1676922069.0328312,99.609375,-699.21875,-12.6953125,122.0703125,0.0
1676922069.0378308,112.79296875,-528.3203125,-7.8125,110.3515625,0.0
1676922069.0428305,126.46484375,-790.0390625,-1.46484375,109.86328125,0.0
1676922069.04783,83.984375,-778.3203125,-7.32421875,109.375,0.0
1676922069.0528297,80.078125,-569.3359375,-16.11328125,114.2578125,0.0
1676922069.0564756,114.2578125,-615.72265625,-18.06640625,113.76953125,0.0
1676922069.0601215,108.3984375,-877.44140625,-16.11328125,109.86328125,0.0
1676922069.0637674,108.88671875,-735.83984375,-17.08984375,102.5390625,0.0
1676922069.0674133,138.671875,-548.33984375,-13.18359375,104.98046875,0.0
1676922069.0710592,116.2109375,-741.2109375,-6.8359375,115.72265625,0.0
1676922069.0747051,99.609375,-978.515625,-2.9296875,107.421875,0.0
1676922069.078351,104.00390625,-992.1875,-1.46484375,97.65625,0.0
1676922069.081997,112.3046875,-689.94140625,0.48828125,107.421875,0.0
1676922069.0856428,126.46484375,-610.3515625,-2.44140625,113.28125,0.0
1676922069.0892887,127.44140625,-964.84375,-6.34765625,114.74609375,0.0
1676922069.0929346,107.421875,-856.4453125,-10.25390625,86.42578125,0.0
1676922069.0965805,105.46875,-542.48046875,-11.23046875,69.82421875,0.0
1676922069.1003358,109.375,-673.828125,-5.37109375,102.05078125,0.0
1676922069.1040912,117.1875,-752.44140625,-3.41796875,109.86328125,0.0
1676922069.1078463,129.39453125,-578.125,-6.34765625,95.703125,0.0
1676922069.1116016,103.515625,-540.0390625,-9.27734375,106.4453125,0.0
1676922069.115357,103.515625,-715.33203125,-11.23046875,109.86328125,0.0
1676922069.1191123,128.90625,-945.3125,-4.8828125,106.4453125,0.0
1676922069.1228676,116.69921875,-897.94921875,-3.41796875,104.98046875,0.0
1676922069.126623,112.79296875,-749.0234375,-8.30078125,107.421875,0.0
1676922069.1303782,115.234375,-862.3046875,-6.8359375,121.58203125,0.0
1676922069.1341333,108.88671875,-1000.0,-3.41796875,109.375,0.0
1676922069.1378887,88.8671875,-665.52734375,-2.9296875,89.35546875,0.0
1676922069.141644,85.9375,-500.0,-4.39453125,95.21484375,0.0
1676922069.145394,76.66015625,-764.6484375,-6.8359375,99.609375,0.0
1676922069.1491444,89.35546875,-610.83984375,-9.27734375,101.07421875,0.0
1676922069.1528945,108.3984375,-428.22265625,-13.671875,112.79296875,0.0
1676922069.1566446,98.14453125,-566.40625,-15.625,102.5390625,0.0
1676922069.160395,101.07421875,-826.171875,-9.27734375,99.609375,0.0
1676922069.164145,100.5859375,-923.828125,-5.37109375,106.4453125,0.0
1676922069.167895,87.890625,-794.921875,-10.25390625,106.93359375,0.0
1676922069.1716454,92.7734375,-696.2890625,-10.25390625,108.88671875,0.0
1676922069.1753955,94.23828125,-923.828125,-9.27734375,118.65234375,0.0
1676922069.1791456,90.33203125,-722.65625,-16.6015625,100.09765625,0.0
1676922069.182896,101.5625,-601.07421875,-22.94921875,97.65625,0.0
1676922069.186646,108.88671875,-862.3046875,-21.97265625,105.46875,0.0
1676922069.1903856,111.81640625,-860.3515625,-20.01953125,99.12109375,0.0
1676922069.1941254,75.1953125,-552.24609375,-21.484375,104.4921875,0.0
1676922069.197865,90.8203125,-478.02734375,-20.5078125,124.51171875,0.0
1676922069.2016046,121.58203125,-698.73046875,-18.06640625,121.58203125,0.0
1676922069.2053444,114.2578125,-715.33203125,-13.18359375,115.234375,0.0
1676922069.209084,105.46875,-773.4375,-8.7890625,125.9765625,0.0
1676922069.2128236,109.86328125,-887.6953125,-10.7421875,110.3515625,0.0
1676922069.2165635,112.3046875,-925.78125,-12.20703125,105.46875,0.0
1676922069.220303,131.34765625,-941.40625,-6.8359375,120.60546875,0.0
1676922069.2240427,117.1875,-595.21484375,-1.46484375,123.046875,0.0
1676922069.2277825,88.37890625,-450.68359375,-5.859375,116.69921875,0.0
1676922069.231522,103.02734375,-730.95703125,-10.25390625,117.1875,0.0
1676922069.236525,98.14453125,-664.0625,-1.953125,108.3984375,0.0
1676922069.241528,97.65625,-578.61328125,-0.48828125,101.07421875,0.0
1676922069.246531,118.1640625,-811.03515625,-4.8828125,118.65234375,0.0
1676922069.2515337,130.37109375,-941.89453125,-1.953125,125.9765625,0.0
1676922069.2565367,132.8125,-748.53515625,-6.8359375,105.46875,0.0
1676922069.2615397,112.3046875,-780.76171875,-4.8828125,112.79296875,0.0
1676922069.2665427,104.98046875,-980.95703125,0.48828125,132.32421875,0.0
1676922069.2715456,102.5390625,-976.5625,0.48828125,143.5546875,0.0
1676922069.2765484,88.8671875,-749.0234375,0.48828125,124.51171875,0.0
1676922069.2815514,87.890625,-516.11328125,-2.9296875,117.67578125,0.0
1676922069.2865543,76.171875,-649.90234375,-3.41796875,93.26171875,0.0
1676922069.2915573,88.8671875,-793.45703125,-6.34765625,81.0546875,0.0
1676922069.2940552,97.16796875,-607.421875,-11.23046875,90.8203125,0.0
1676922069.2965531,90.8203125,-568.359375,-10.7421875,98.6328125,0.0
1676922069.299051,85.44921875,-741.2109375,-9.27734375,106.93359375,0.0
1676922069.301549,95.703125,-758.30078125,-9.765625,102.05078125,0.0
1676922069.3040469,92.7734375,-775.390625,-10.7421875,95.703125,0.0
1676922069.3065448,84.47265625,-965.8203125,-9.27734375,110.83984375,0.0
1676922069.309043,113.28125,-1000.0,-9.765625,122.0703125,0.0
1676922069.3115408,102.05078125,-871.58203125,-10.25390625,98.14453125,0.0
1676922069.3140388,76.171875,-651.85546875,-15.13671875,77.63671875,0.0
1676922069.3165367,85.44921875,-623.53515625,-11.71875,109.86328125,0.0
1676922069.3190346,83.49609375,-877.44140625,-4.39453125,122.55859375,0.0
1676922069.3215325,85.9375,-936.5234375,-7.32421875,104.98046875,0.0
1676922069.3252864,96.6796875,-604.00390625,-5.859375,105.46875,0.0
1676922069.3290405,99.609375,-573.2421875,-0.9765625,109.86328125,0.0
1676922069.3327944,98.6328125,-885.7421875,0.9765625,112.79296875,0.0
1676922069.3365486,96.6796875,-703.61328125,-6.8359375,108.88671875,0.0
1676922069.3403025,102.5390625,-534.1796875,-5.37109375,114.74609375,0.0
1676922069.3440566,92.28515625,-874.0234375,-5.859375,105.46875,0.0
1676922069.3478105,105.95703125,-1000.0,-10.25390625,117.1875,0.0
1676922069.3515644,114.2578125,-975.09765625,-10.25390625,121.09375,0.0
1676922069.3553185,92.28515625,-796.38671875,-15.13671875,98.6328125,0.0
1676922069.3590724,107.91015625,-693.84765625,-20.01953125,112.79296875,0.0
1676922069.3628266,124.51171875,-905.2734375,-14.16015625,123.53515625,0.0
1676922069.3665805,92.28515625,-740.234375,-13.18359375,96.6796875,0.0
1676922069.3703377,76.66015625,-595.21484375,-13.671875,85.9375,0.0
1676922069.374095,95.703125,-737.3046875,-13.18359375,88.37890625,0.0
1676922069.3778522,106.93359375,-818.359375,-11.23046875,104.00390625,0.0
1676922069.3816094,116.2109375,-637.6953125,-8.30078125,103.02734375,0.0
1676922069.3853667,106.93359375,-583.49609375,-5.859375,106.93359375,0.0
1676922069.389124,98.14453125,-865.234375,-3.41796875,115.234375,0.0
1676922069.392881,114.74609375,-972.65625,-6.34765625,101.5625,0.0
1676922069.3966382,120.1171875,-680.17578125,-7.8125,81.0546875,0.0
1676922069.4003954,131.8359375,-617.1875,-12.6953125,74.21875,0.0
1676922069.4041526,128.90625,-850.5859375,-13.671875,92.7734375,0.0
1676922069.4079099,108.3984375,-966.30859375,-5.859375,114.2578125,0.0
1676922069.411667,104.98046875,-844.7265625,-0.9765625,111.328125,0.0
1676922069.4166536,134.27734375,-662.59765625,-2.9296875,88.37890625,0.0
1676922069.4216402,118.65234375,-894.04296875,-8.30078125,102.5390625,0.0
1676922069.4266267,87.40234375,-948.73046875,-7.32421875,99.609375,0.0
1676922069.4316132,96.6796875,-659.1796875,-6.34765625,90.8203125,0.0
1676922069.4365997,94.7265625,-611.328125,-12.20703125,100.5859375,0.0
1676922069.441586,100.09765625,-950.1953125,-10.7421875,109.375,0.0
1676922069.4465725,100.09765625,-939.453125,-10.25390625,113.28125,0.0
1676922069.451559,104.98046875,-580.56640625,-14.6484375,109.86328125,0.0
1676922069.4565456,96.19140625,-665.52734375,-14.6484375,99.609375,0.0
1676922069.461532,83.984375,-944.3359375,-11.23046875,102.05078125,0.0
1676922069.4665186,100.5859375,-730.95703125,-8.7890625,83.984375,0.0
1676922069.4715052,116.2109375,-534.1796875,-6.8359375,92.7734375,0.0
1676922069.475368,82.51953125,-729.00390625,-4.8828125,108.88671875,0.0
1676922069.479231,68.84765625,-971.6796875,-9.765625,97.16796875,0.0
1676922069.483094,90.8203125,-859.375,-9.27734375,96.6796875,0.0
1676922069.4869568,89.84375,-618.65234375,-8.30078125,119.62890625,0.0
1676922069.49082,84.47265625,-746.09375,-16.11328125,131.8359375,0.0
1676922069.4946828,103.515625,-1000.0,-11.71875,107.91015625,0.0
1676922069.4985456,106.4453125,-949.70703125,-5.859375,101.5625,0.0
1676922069.5024087,63.96484375,-677.24609375,-6.8359375,87.40234375,0.0
1676922069.5062716,73.73046875,-861.328125,-6.34765625,94.23828125,0.0
1676922069.5101345,81.54296875,-958.984375,-9.765625,104.4921875,0.0
1676922069.5139976,61.03515625,-616.2109375,-10.7421875,91.796875,0.0
1676922069.5178604,70.80078125,-588.8671875,-8.30078125,104.4921875,0.0
1676922069.5227554,73.2421875,-849.609375,-9.27734375,119.140625,0.0
1676922069.5276504,84.9609375,-741.69921875,-10.7421875,123.046875,0.0
1676922069.532545,90.33203125,-500.0,-13.18359375,95.21484375,0.0
1676922069.53744,97.65625,-556.15234375,-8.7890625,98.6328125,0.0
1676922069.542335,94.23828125,-910.15625,-6.8359375,101.5625,0.0
1676922069.54723,73.73046875,-1000.0,-6.8359375,93.75,0.0
1676922069.552125,56.640625,-962.890625,-6.34765625,89.84375,0.0
1676922069.55702,74.21875,-941.40625,-8.7890625,86.9140625,0.0
1676922069.561915,84.47265625,-996.58203125,-6.8359375,95.703125,0.0
1676922069.5668097,77.63671875,-902.34375,-2.44140625,84.9609375,0.0
1676922069.5717046,101.07421875,-613.76953125,-8.30078125,66.89453125,0.0
1676922069.5765996,88.8671875,-698.2421875,-16.11328125,81.54296875,0.0
1676922069.5790966,79.1015625,-808.59375,-9.27734375,109.86328125,0.0
1676922069.5815935,114.74609375,-624.51171875,-7.32421875,110.83984375,0.0
1676922069.5840905,116.2109375,-612.79296875,-9.765625,111.328125,0.0
1676922069.5865874,96.6796875,-758.7890625,-10.25390625,97.65625,0.0
1676922069.5890844,94.7265625,-791.015625,-10.7421875,87.40234375,0.0
1676922069.5915813,77.63671875,-892.08984375,-7.8125,99.12109375,0.0
1676922069.594078,58.10546875,-997.0703125,-12.6953125,88.37890625,0.0
1676922069.596575,87.890625,-987.79296875,-5.859375,104.98046875,0.0
1676922069.599072,115.234375,-888.18359375,-7.32421875,121.09375,0.0
1676922069.601569,110.83984375,-627.44140625,-12.6953125,109.375,0.0
1676922069.604066,117.1875,-581.0546875,-8.7890625,100.5859375,0.0
1676922069.6065629,126.46484375,-885.25390625,-3.90625,113.28125,0.0
1676922069.6103644,107.91015625,-1000.0,0.0,113.28125,0.0
1676922069.614166,107.421875,-665.0390625,-6.8359375,100.5859375,0.0
1676922069.6179676,97.16796875,-604.00390625,-6.34765625,114.2578125,0.0
1676922069.6217692,77.1484375,-832.51953125,-0.48828125,120.1171875,0.0
1676922069.6255708,84.9609375,-687.5,-1.46484375,121.58203125,0.0
1676922069.6293726,99.12109375,-760.25390625,-4.39453125,132.32421875,0.0
1676922069.6331742,119.62890625,-938.96484375,-2.9296875,121.09375,0.0
1676922069.6369758,106.4453125,-970.21484375,-1.46484375,106.93359375,0.0
1676922069.6407773,93.75,-757.32421875,-7.32421875,102.5390625,0.0
1676922069.644579,101.5625,-518.06640625,-7.32421875,101.5625,0.0
1676922069.6483805,110.83984375,-720.21484375,1.46484375,110.83984375,0.0
1676922069.652182,95.703125,-877.9296875,1.953125,103.02734375,0.0
1676922069.655877,98.14453125,-574.70703125,2.44140625,99.12109375,0.0
1676922069.6595721,99.12109375,-460.44921875,5.37109375,110.83984375,0.0
1676922069.6632671,103.02734375,-761.23046875,6.8359375,117.67578125,0.0
1676922069.6669624,106.4453125,-853.02734375,6.8359375,125.9765625,0.0
1676922069.6706574,99.609375,-620.60546875,6.34765625,128.41796875,0.0
1676922069.6743524,107.91015625,-792.96875,6.8359375,111.328125,0.0
1676922069.6780474,111.328125,-1000.0,5.859375,115.234375,0.0
1676922069.6817424,102.5390625,-979.4921875,0.9765625,104.4921875,0.0
1676922069.6854377,82.03125,-685.05859375,1.46484375,77.1484375,0.0
1676922069.6891327,96.6796875,-495.1171875,2.44140625,97.65625,0.0
1676922069.6928277,82.03125,-783.69140625,2.9296875,110.83984375,0.0
1676922069.6965227,73.2421875,-771.97265625,4.8828125,104.98046875,0.0
1676922069.7003832,97.65625,-546.875,-2.44140625,95.21484375,0.0
1676922069.7042437,103.02734375,-723.14453125,-10.7421875,95.703125,0.0
1676922069.708104,112.3046875,-969.23828125,-10.7421875,95.703125,0.0
1676922069.7119644,88.37890625,-786.62109375,-6.34765625,77.63671875,0.0
1676922069.7158248,61.5234375,-626.46484375,-7.32421875,81.54296875,0.0
1676922069.719685,72.75390625,-866.2109375,-4.39453125,92.7734375,0.0
1676922069.7235456,83.984375,-1000.0,1.46484375,92.28515625,0.0
1676922069.727406,74.70703125,-794.921875,0.0,71.77734375,0.0
1676922069.7312665,90.8203125,-576.66015625,-9.27734375,46.875,0.0
1676922069.735127,86.9140625,-622.55859375,-12.20703125,50.29296875,0.0
1676922069.7389872,84.47265625,-820.3125,-5.859375,56.15234375,0.0
1676922069.7428477,63.4765625,-752.44140625,-3.41796875,75.1953125,0.0
1676922069.7464962,53.22265625,-549.8046875,-2.9296875,77.63671875,0.0
1676922069.750145,79.1015625,-710.44921875,-5.859375,58.10546875,0.0
1676922069.7537935,78.125,-797.8515625,-14.16015625,51.26953125,0.0
1676922069.757442,48.828125,-581.0546875,-15.625,43.45703125,0.0
1676922069.7610908,51.7578125,-648.4375,-12.20703125,62.5,0.0
1676922069.7647393,75.1953125,-903.3203125,-11.71875,78.125,0.0
1676922069.7683878,81.0546875,-987.79296875,-6.34765625,82.03125,0.0
1676922069.7720366,80.56640625,-622.55859375,-3.41796875,62.98828125,0.0
1676922069.775685,81.54296875,-431.15234375,-5.859375,66.40625,0.0
1676922069.7793336,62.5,-732.421875,-3.41796875,87.40234375,0.0
1676922069.7829823,62.5,-696.2890625,2.44140625,99.12109375,0.0
1676922069.7866309,82.03125,-436.5234375,-1.953125,87.890625,0.0
1676922069.7916892,76.171875,-450.1953125,-8.7890625,89.35546875,0.0
1676922069.7967472,75.1953125,-731.4453125,-7.32421875,102.5390625,0.0
1676922069.8018055,90.8203125,-663.57421875,-6.34765625,110.3515625,0.0
1676922069.8068638,95.21484375,-440.91796875,-9.27734375,110.3515625,0.0
1676922069.811922,91.796875,-516.11328125,-13.18359375,98.6328125,0.0
1676922069.8169804,115.234375,-916.015625,-14.6484375,102.5390625,0.0
1676922069.8220384,98.14453125,-864.74609375,-13.18359375,92.7734375,0.0
1676922069.8270967,83.49609375,-628.41796875,-11.71875,105.46875,0.0
1676922069.832155,104.4921875,-808.59375,-10.7421875,126.953125,0.0
1676922069.837213,101.07421875,-977.5390625,-5.859375,142.08984375,0.0
1676922069.8422713,108.3984375,-764.6484375,-8.30078125,113.28125,0.0
1676922069.8473296,123.53515625,-504.39453125,-8.7890625,88.8671875,0.0
1676922069.8510191,125.9765625,-637.6953125,0.9765625,115.72265625,0.0
1676922069.8547087,123.53515625,-686.5234375,-0.48828125,99.12109375,0.0
1676922069.8583982,110.83984375,-518.5546875,-9.27734375,86.9140625,0.0
1676922069.8620877,96.19140625,-449.21875,-8.7890625,98.14453125,0.0
1676922069.8657773,104.00390625,-656.73828125,-4.8828125,104.00390625,0.0
1676922069.8694668,114.74609375,-981.4453125,-6.34765625,103.02734375,0.0
1676922069.8731563,90.33203125,-897.4609375,-9.27734375,101.07421875,0.0
1676922069.8768458,89.84375,-566.40625,-10.7421875,105.95703125,0.0
1676922069.8805354,94.23828125,-779.296875,-7.32421875,107.91015625,0.0
1676922069.884225,83.984375,-986.81640625,-4.8828125,120.1171875,0.0
1676922069.8879144,98.14453125,-717.7734375,-13.18359375,96.6796875,0.0
1676922069.891604,90.8203125,-783.203125,-20.01953125,79.1015625,0.0
1676922069.8953524,86.9140625,-952.63671875,-11.23046875,90.8203125,0.0
1676922069.8991008,99.609375,-746.09375,-2.44140625,95.703125,0.0
1676922069.9028492,99.609375,-532.2265625,-3.90625,103.02734375,0.0
1676922069.9065974,86.42578125,-628.41796875,-3.90625,95.703125,0.0
1676922069.9103458,89.84375,-871.09375,-6.34765625,87.890625,0.0
1676922069.9140942,80.56640625,-962.40234375,-5.37109375,97.16796875,0.0
1676922069.9178426,88.37890625,-772.94921875,-4.8828125,102.5390625,0.0
1676922069.921591,74.70703125,-664.0625,-6.34765625,104.98046875,0.0
1676922069.9253392,73.73046875,-928.7109375,-4.8828125,109.375,0.0
1676922069.9290876,98.14453125,-752.44140625,-8.30078125,104.98046875,0.0
1676922069.932836,91.796875,-454.58984375,-10.25390625,92.7734375,0.0
1676922069.9365845,94.7265625,-655.2734375,-5.37109375,93.75,0.0
1676922069.940442,88.37890625,-820.80078125,-4.39453125,97.65625,0.0
1676922069.9443,77.1484375,-710.9375,-11.23046875,83.984375,0.0
1676922069.9481575,87.890625,-746.09375,-11.23046875,91.796875,0.0
1676922069.9520152,104.98046875,-782.71484375,-9.765625,99.609375,0.0
1676922069.955873,75.1953125,-823.2421875,-9.765625,83.49609375,0.0
1676922069.9597306,67.87109375,-814.94140625,-17.578125,92.28515625,0.0
1676922069.9635882,69.82421875,-902.83203125,-17.578125,92.7734375,0.0
1676922069.967446,80.56640625,-954.1015625,-9.27734375,84.47265625,0.0
1676922069.9713037,84.47265625,-926.26953125,-12.20703125,82.51953125,0.0
1676922069.9751613,92.7734375,-581.54296875,-15.13671875,77.1484375,0.0
1676922069.9790192,102.5390625,-486.328125,-12.6953125,79.58984375,0.0
1676922069.9828768,64.94140625,-807.6171875,-9.765625,89.35546875,0.0
1676922069.986521,78.61328125,-711.42578125,-10.7421875,91.30859375,0.0
1676922069.9901652,93.26171875,-477.5390625,-18.06640625,68.359375,0.0
1676922069.9938097,86.42578125,-562.5,-20.5078125,76.66015625,0.0
1676922069.997454,95.21484375,-830.078125,-21.484375,98.6328125,0.0
1676922070.0010982,83.984375,-777.83203125,-20.5078125,106.93359375,0.0
1676922070.0047424,77.63671875,-868.1640625,-16.11328125,98.14453125,0.0
1676922070.0083866,87.890625,-975.09765625,-14.6484375,78.125,0.0
1676922070.0120308,98.14453125,-991.2109375,-14.6484375,107.91015625,0.0
1676922070.015675,81.54296875,-893.5546875,-17.578125,100.09765625,0.0
1676922070.0193195,76.171875,-577.63671875,-24.4140625,63.96484375,0.0
1676922070.0229638,80.078125,-616.2109375,-21.484375,75.1953125,0.0
1676922070.026608,73.73046875,-746.58203125,-15.625,91.796875,0.0
1676922070.0303543,76.66015625,-583.984375,-19.04296875,93.75,0.0
1676922070.0341005,83.49609375,-528.3203125,-16.11328125,86.42578125,0.0
1676922070.0378468,93.26171875,-697.265625,-8.7890625,88.8671875,0.0
1676922070.041593,95.21484375,-695.3125,-12.20703125,93.26171875,0.0
1676922070.0453393,99.12109375,-599.609375,-13.671875,95.703125,0.0
1676922070.0490856,88.8671875,-854.00390625,-9.27734375,103.02734375,0.0
1676922070.0528321,82.03125,-993.1640625,-4.8828125,102.05078125,0.0
1676922070.0565784,89.84375,-1000.0,-4.8828125,100.5859375,0.0
1676922070.0603247,84.47265625,-856.93359375,-13.671875,87.40234375,0.0
1676922070.064071,86.42578125,-582.51953125,-19.04296875,92.7734375,0.0
1676922070.0678172,83.984375,-814.453125,-19.04296875,100.5859375,0.0
1676922070.0715635,86.9140625,-790.52734375,-15.13671875,94.7265625,0.0
1676922070.0753121,73.2421875,-496.58203125,-15.13671875,81.0546875,0.0
1676922070.0790608,78.61328125,-544.43359375,-17.08984375,76.171875,0.0
1676922070.0828094,89.84375,-798.33984375,-12.20703125,98.6328125,0.0
1676922070.0865583,101.5625,-616.2109375,-9.765625,103.515625,0.0
1676922070.090307,116.2109375,-527.83203125,-6.8359375,67.87109375,0.0
1676922070.0940557,65.4296875,-912.59765625,-6.8359375,62.01171875,0.0
1676922070.0978043,65.4296875,-1000.0,-9.27734375,91.796875,0.0
1676922070.101553,92.7734375,-788.57421875,-11.71875,63.96484375,0.0
1676922070.1053019,94.23828125,-560.546875,-13.671875,40.0390625,0.0
1676922070.1090505,116.69921875,-618.65234375,-10.25390625,70.3125,0.0
1676922070.1127992,88.37890625,-838.37890625,-2.44140625,91.30859375,0.0
1676922070.1165478,71.77734375,-806.15234375,1.46484375,99.12109375,0.0
1676922070.1204474,113.28125,-569.3359375,-6.34765625,102.05078125,0.0
1676922070.1243467,105.46875,-689.453125,-9.765625,112.3046875,0.0
1676922070.1282463,105.95703125,-916.015625,-10.7421875,118.1640625,0.0
1676922070.132146,125.0,-729.4921875,-19.04296875,95.21484375,0.0
1676922070.1360455,92.7734375,-572.75390625,-20.5078125,90.33203125,0.0
1676922070.139945,91.796875,-826.66015625,-10.25390625,116.69921875,0.0
1676922070.1438444,92.7734375,-931.640625,-5.859375,112.79296875,0.0
1676922070.147744,92.28515625,-642.08984375,-14.16015625,88.37890625,0.0
1676922070.1516435,115.72265625,-604.98046875,-15.625,68.84765625,0.0
1676922070.1555429,103.02734375,-833.0078125,-15.625,80.078125,0.0
1676922070.1594424,79.1015625,-829.58984375,-16.6015625,98.14453125,0.0
1676922070.163342,95.21484375,-706.54296875,-17.08984375,91.796875,0.0
1676922070.168304,97.16796875,-635.25390625,-20.5078125,88.8671875,0.0
1676922070.173266,101.07421875,-886.71875,-16.11328125,102.5390625,0.0
1676922070.178228,106.4453125,-908.203125,-8.7890625,93.75,0.0
1676922070.18319,108.88671875,-574.70703125,-7.8125,89.35546875,0.0
1676922070.188152,105.95703125,-568.359375,-6.8359375,124.51171875,0.0
1676922070.193114,116.69921875,-932.6171875,-6.8359375,133.7890625,0.0
1676922070.198076,114.2578125,-972.16796875,-13.18359375,107.91015625,0.0
1676922070.203038,92.7734375,-594.7265625,-19.04296875,93.26171875,0.0
1676922070.2080002,86.9140625,-608.3984375,-14.16015625,99.12109375,0.0
1676922070.2129622,98.14453125,-817.87109375,-14.6484375,91.796875,0.0
1676922070.217924,86.9140625,-609.86328125,-20.5078125,91.30859375,0.0
1676922070.222886,89.84375,-509.27734375,-19.53125,92.28515625,0.0
1676922070.2265327,100.5859375,-703.61328125,-13.671875,94.7265625,0.0
1676922070.2301793,76.171875,-801.26953125,-12.6953125,83.0078125,0.0
1676922070.2338262,75.68359375,-631.34765625,-13.671875,81.0546875,0.0
1676922070.2374728,98.6328125,-591.30859375,-12.20703125,92.28515625,0.0
1676922070.2411194,91.30859375,-805.17578125,-10.25390625,83.0078125,0.0
1676922070.2447662,94.7265625,-1000.0,-11.71875,80.078125,0.0
1676922070.2484128,90.8203125,-993.1640625,-14.6484375,93.75,0.0
1676922070.2520595,97.65625,-811.5234375,-15.625,98.6328125,0.0
1676922070.255706,86.9140625,-834.47265625,-14.6484375,98.14453125,0.0
1676922070.2593527,98.14453125,-1000.0,-10.7421875,105.95703125,0.0
1676922070.2629995,98.6328125,-708.0078125,-14.6484375,87.40234375,0.0
1676922070.2666461,82.51953125,-576.66015625,-17.578125,80.078125,0.0
1676922070.270393,95.703125,-866.2109375,-21.97265625,89.35546875,0.0
1676922070.27414,77.1484375,-761.71875,-17.578125,88.8671875,0.0
1676922070.2778869,75.68359375,-584.9609375,-20.01953125,79.58984375,0.0
1676922070.2816336,85.44921875,-643.06640625,-23.92578125,85.9375,0.0
1676922070.2853804,66.89453125,-842.28515625,-10.7421875,107.91015625,0.0
1676922070.2891273,72.265625,-965.8203125,-8.7890625,97.16796875,0.0
1676922070.2928743,77.1484375,-869.140625,-17.08984375,76.171875,0.0
1676922070.296621,72.265625,-728.515625,-21.484375,72.265625,0.0
1676922070.3003678,80.078125,-955.56640625,-9.765625,116.69921875,0.0
1676922070.3041148,80.078125,-911.62109375,-4.8828125,104.98046875,0.0
1676922070.3078618,82.51953125,-577.1484375,-10.7421875,67.3828125,0.0
1676922070.3116086,107.421875,-652.34375,-7.8125,83.984375,0.0
1676922070.3153534,112.79296875,-792.96875,-4.8828125,83.0078125,0.0
1676922070.3190982,79.58984375,-610.3515625,-2.44140625,75.1953125,0.0
1676922070.322843,83.49609375,-546.38671875,-8.30078125,71.2890625,0.0
1676922070.326588,99.12109375,-719.23828125,-14.16015625,81.0546875,0.0
1676922070.3303328,103.02734375,-822.265625,-11.71875,79.58984375,0.0
1676922070.3340778,100.5859375,-895.01953125,-14.16015625,76.171875,0.0
1676922070.3378227,103.515625,-905.76171875,-16.11328125,80.56640625,0.0
1676922070.3415675,113.28125,-944.82421875,-16.11328125,91.796875,0.0
1676922070.3453124,111.81640625,-933.10546875,-13.671875,95.21484375,0.0
1676922070.3490572,102.5390625,-595.703125,-14.6484375,86.42578125,0.0
1676922070.352802,96.6796875,-570.3125,-10.7421875,91.30859375,0.0
1676922070.3565469,89.35546875,-886.71875,-2.44140625,85.9375,0.0
1676922070.3602993,104.98046875,-804.6875,-1.46484375,94.7265625,0.0
1676922070.3640518,99.609375,-534.66796875,-5.859375,94.23828125,0.0
1676922070.3678045,80.078125,-583.984375,-5.37109375,89.35546875,0.0
1676922070.371557,89.84375,-842.7734375,-4.8828125,94.7265625,0.0
1676922070.3753095,82.03125,-687.01171875,-8.7890625,101.5625,0.0
1676922070.3790622,76.66015625,-738.76953125,-9.27734375,102.05078125,0.0
1676922070.3828146,96.19140625,-985.3515625,-7.32421875,87.40234375,0.0
1676922070.386567,117.67578125,-1000.0,-6.8359375,95.703125,0.0
1676922070.3903196,105.95703125,-819.82421875,-10.7421875,78.125,0.0
1676922070.394072,108.88671875,-532.71484375,-9.765625,66.89453125,0.0
1676922070.3978248,103.515625,-654.296875,-1.953125,75.1953125,0.0
1676922070.4015772,92.28515625,-824.21875,-0.9765625,80.56640625,0.0
1676922070.4054344,89.84375,-634.765625,-6.8359375,88.37890625,0.0
1676922070.4092917,85.44921875,-640.625,-6.8359375,74.70703125,0.0
1676922070.4131489,111.328125,-943.359375,-7.32421875,82.03125,0.0
1676922070.4170063,117.67578125,-882.8125,-4.8828125,90.33203125,0.0
1676922070.4208634,104.00390625,-586.42578125,-2.44140625,91.796875,0.0
1676922070.4247208,101.5625,-786.1328125,0.48828125,91.30859375,0.0
1676922070.428578,88.8671875,-1000.0,-3.41796875,77.63671875,0.0
1676922070.432435,81.0546875,-962.40234375,-9.765625,78.125,0.0
1676922070.4362924,90.33203125,-694.3359375,-10.25390625,69.82421875,0.0
1676922070.4401495,68.359375,-556.15234375,-11.23046875,75.1953125,0.0
1676922070.444007,66.89453125,-802.734375,-8.30078125,89.84375,0.0
1676922070.447864,93.75,-767.578125,-8.30078125,81.0546875,0.0
1676922070.4515202,106.93359375,-504.8828125,-10.25390625,86.42578125,0.0
1676922070.4551764,115.234375,-568.359375,-8.7890625,99.609375,0.0
1676922070.4588327,122.55859375,-842.28515625,-6.34765625,99.12109375,0.0
1676922070.462489,114.74609375,-700.1953125,-0.9765625,107.421875,0.0
1676922070.466145,108.88671875,-574.21875,1.46484375,104.00390625,0.0
1676922070.4698014,79.1015625,-852.05078125,1.46484375,109.86328125,0.0
1676922070.4734576,91.30859375,-1000.0,2.9296875,123.53515625,0.0
1676922070.4771137,111.328125,-896.97265625,7.32421875,105.95703125,0.0
1676922070.4807699,92.28515625,-564.453125,10.25390625,74.70703125,0.0
1676922070.484426,102.05078125,-630.37109375,1.953125,84.9609375,0.0
1676922070.4880824,104.4921875,-765.625,-3.90625,102.05078125,0.0
1676922070.4917386,90.8203125,-561.5234375,-0.9765625,104.00390625,0.0
1676922070.4954884,87.40234375,-480.46875,1.46484375,102.05078125,0.0
1676922070.4992385,107.421875,-664.55078125,0.0,82.03125,0.0
1676922070.5029883,120.1171875,-781.25,-0.9765625,82.03125,0.0
1676922070.5067384,116.69921875,-583.49609375,-1.953125,88.8671875,0.0
1676922070.5104883,131.34765625,-551.26953125,4.8828125,94.7265625,0.0
1676922070.5142384,117.1875,-855.46875,8.7890625,113.76953125,0.0
1676922070.5179882,106.93359375,-916.9921875,0.0,120.1171875,0.0
1676922070.521738,106.4453125,-721.6796875,-8.30078125,101.07421875,0.0
1676922070.5254881,91.796875,-823.73046875,-9.27734375,100.09765625,0.0
1676922070.529238,99.609375,-955.56640625,-4.8828125,111.81640625,0.0
1676922070.532988,106.93359375,-962.40234375,-1.953125,111.328125,0.0
1676922070.536738,109.86328125,-603.515625,-1.953125,93.75,0.0
1676922070.54173,106.93359375,-525.87890625,-3.41796875,101.07421875,0.0
1676922070.546722,99.609375,-839.84375,-5.859375,102.05078125,0.0
1676922070.551714,84.9609375,-732.91015625,0.48828125,103.515625,0.0
1676922070.5567062,85.9375,-550.29296875,1.46484375,112.79296875,0.0
1676922070.5616982,88.8671875,-627.9296875,-5.859375,102.5390625,0.0
1676922070.5666902,74.21875,-937.98828125,-0.48828125,113.76953125,0.0
1676922070.5716822,90.33203125,-939.94140625,6.34765625,107.91015625,0.0
1676922070.5766742,94.23828125,-595.21484375,-1.46484375,81.0546875,0.0
1676922070.5816665,73.73046875,-655.2734375,-9.27734375,81.0546875,0.0
1676922070.5866585,74.70703125,-934.5703125,-5.859375,92.7734375,0.0
1676922070.5916505,80.56640625,-828.61328125,-0.9765625,80.56640625,0.0
1676922070.5966425,94.7265625,-843.75,-2.44140625,80.078125,0.0
1676922070.6003828,88.37890625,-926.7578125,-0.9765625,76.66015625,0.0
1676922070.6041234,61.03515625,-882.8125,3.41796875,77.63671875,0.0
1676922070.6078637,58.59375,-645.5078125,0.9765625,74.21875,0.0
1676922070.6116042,71.77734375,-513.671875,-2.9296875,66.40625,0.0
1676922070.6153445,67.3828125,-665.52734375,-6.8359375,62.98828125,0.0
1676922070.6190848,76.171875,-889.6484375,-10.25390625,79.1015625,0.0
1676922070.6228254,87.890625,-814.453125,-3.41796875,93.26171875,0.0
1676922070.6265657,61.03515625,-544.921875,-4.8828125,84.47265625,0.0
1676922070.6303062,55.6640625,-784.1796875,-10.7421875,73.73046875,0.0
1676922070.6340466,75.68359375,-932.6171875,-9.765625,71.77734375,0.0
1676922070.637787,86.42578125,-528.80859375,-5.859375,71.77734375,0.0
1676922070.6415274,62.5,-459.9609375,-8.30078125,80.56640625,0.0
1676922070.6453881,74.70703125,-706.54296875,-8.7890625,97.65625,0.0
1676922070.649249,114.74609375,-670.8984375,-6.34765625,90.8203125,0.0
1676922070.6531098,114.2578125,-602.5390625,-9.27734375,60.05859375,0.0
1676922070.6569707,98.6328125,-554.6875,-8.7890625,62.01171875,0.0
1676922070.6608315,85.9375,-822.265625,-7.32421875,85.9375,0.0
1676922070.6646924,97.65625,-958.984375,-2.44140625,99.609375,0.0
1676922070.668553,88.8671875,-747.0703125,0.48828125,91.30859375,0.0
1676922070.6724138,46.38671875,-615.72265625,-1.953125,86.42578125,0.0
1676922070.6762748,87.40234375,-911.1328125,-5.37109375,95.21484375,0.0
1676922070.6801355,100.5859375,-764.16015625,-8.30078125,81.0546875,0.0
1676922070.6839964,64.453125,-376.953125,-4.39453125,69.3359375,0.0
1676922070.6878572,75.68359375,-521.97265625,-4.39453125,68.359375,0.0
1676922070.6915026,72.265625,-632.8125,-7.32421875,69.82421875,0.0
1676922070.695148,77.1484375,-446.77734375,-8.30078125,69.82421875,0.0
1676922070.6987934,75.68359375,-416.015625,-7.32421875,79.1015625,0.0
1676922070.7024386,55.6640625,-672.8515625,-7.8125,98.6328125,0.0
1676922070.706084,73.73046875,-798.33984375,-13.671875,80.56640625,0.0
1676922070.7097294,95.703125,-824.21875,-18.06640625,59.5703125,0.0
1676922070.7133749,89.35546875,-876.46484375,-11.23046875,72.265625,0.0
1676922070.7170203,87.40234375,-916.015625,-7.32421875,101.07421875,0.0
1676922070.7206655,85.44921875,-996.09375,-10.7421875,95.21484375,0.0
1676922070.7243109,73.2421875,-715.33203125,-15.625,65.91796875,0.0
1676922070.7279563,76.171875,-512.20703125,-21.97265625,75.1953125,0.0
1676922070.7316017,84.9609375,-744.62890625,-19.53125,102.5390625,0.0
1676922070.7353501,80.078125,-642.578125,-17.578125,90.8203125,0.0
1676922070.7390985,62.98828125,-415.52734375,-17.08984375,72.265625,0.0
1676922070.742847,67.87109375,-564.94140625,-12.20703125,81.0546875,0.0
1676922070.7465954,79.1015625,-814.94140625,-12.6953125,98.6328125,0.0
1676922070.7503438,69.82421875,-697.75390625,-16.11328125,87.890625,0.0
1676922070.7540922,56.640625,-752.9296875,-18.5546875,81.0546875,0.0
1676922070.7578406,64.94140625,-895.5078125,-19.04296875,86.42578125,0.0
1676922070.761589,81.0546875,-971.6796875,-16.11328125,102.5390625,0.0
1676922070.7653375,70.80078125,-891.6015625,-13.18359375,97.16796875,0.0
1676922070.769086,65.4296875,-511.71875,-15.625,73.73046875,0.0
1676922070.7728343,78.125,-554.19921875,-17.578125,77.63671875,0.0
1676922070.7765827,85.44921875,-832.03125,-18.06640625,83.49609375,0.0
1676922070.7815895,88.37890625,-626.953125,-17.578125,77.1484375,0.0
1676922070.7865963,72.75390625,-423.33984375,-10.25390625,79.1015625,0.0
1676922070.7916028,83.984375,-652.83203125,-6.8359375,70.80078125,0.0
1676922070.7966096,100.5859375,-918.9453125,-2.9296875,90.33203125,0.0
1676922070.8016164,105.46875,-690.91796875,-4.8828125,95.21484375,0.0
1676922070.806623,88.37890625,-782.71484375,-6.8359375,64.94140625,0.0
1676922070.8116298,77.63671875,-962.890625,-7.32421875,61.03515625,0.0
1676922070.8166366,89.35546875,-926.26953125,-12.20703125,82.51953125,0.0
1676922070.8216434,65.4296875,-609.375,-16.11328125,63.96484375,0.0
1676922070.8266501,54.6875,-408.203125,-20.01953125,44.43359375,0.0
1676922070.8316567,54.6875,-766.11328125,-12.6953125,43.9453125,0.0
1676922070.8366635,22.4609375,-874.51171875,-12.20703125,30.2734375,0.0
1676922070.839265,12.20703125,-482.421875,-14.16015625,14.6484375,0.0
1676922070.841867,26.85546875,-447.265625,-12.20703125,19.53125,0.0
1676922070.8444686,40.52734375,-860.3515625,-3.41796875,25.390625,0.0
1676922070.8470702,16.6015625,-761.23046875,4.8828125,-0.48828125,0.0
1676922070.849672,-24.4140625,-454.58984375,1.46484375,-7.8125,0.0
1676922070.8522737,-36.1328125,-768.06640625,1.953125,-16.6015625,0.0
1676922070.8548753,-38.0859375,-943.359375,-0.48828125,-38.0859375,0.0
1676922070.8574772,-38.57421875,-668.45703125,-2.44140625,-39.0625,0.0
1676922070.8600788,-37.59765625,-538.0859375,-2.44140625,-54.19921875,0.0
1676922070.8626804,-28.80859375,-651.3671875,-4.8828125,-59.5703125,0.0
1676922070.8652823,-17.578125,-931.15234375,6.34765625,-28.3203125,0.0
1676922070.867884,-34.1796875,-765.625,13.18359375,-38.0859375,0.0
1676922070.8728251,-36.62109375,-540.52734375,3.90625,-36.62109375,0.0
1676922070.8777664,-38.0859375,-760.25390625,1.953125,-11.23046875,0.0
1676922070.8827076,-36.1328125,-947.75390625,2.9296875,-8.30078125,0.0
1676922070.887649,-11.71875,-667.48046875,-6.34765625,-39.55078125,0.0
1676922070.8925903,-0.9765625,-555.17578125,-12.20703125,-39.55078125,0.0
1676922070.8975315,-8.30078125,-854.00390625,-14.16015625,-8.7890625,0.0
1676922070.9024727,3.90625,-1000.0,-13.18359375,8.7890625,0.0
1676922070.907414,-1.953125,-781.25,-15.13671875,6.8359375,0.0
1676922070.9123554,16.6015625,-552.24609375,-16.6015625,27.83203125,0.0
1676922070.9172966,27.83203125,-758.7890625,-18.06640625,43.9453125,0.0
1676922070.9222379,35.64453125,-736.328125,-21.97265625,28.3203125,0.0
1676922070.927179,51.7578125,-549.31640625,-17.08984375,32.71484375,0.0
1676922070.9308772,47.8515625,-542.48046875,-15.13671875,53.7109375,0.0
1676922070.9345753,48.33984375,-783.203125,-16.6015625,82.51953125,0.0
1676922070.9382734,62.98828125,-690.91796875,-10.25390625,96.19140625,0.0
1676922070.9419713,66.89453125,-466.30859375,-14.16015625,71.77734375,0.0
1676922070.9456694,67.3828125,-582.51953125,-20.01953125,74.21875,0.0
1676922070.9493675,79.1015625,-905.76171875,-22.94921875,95.703125,0.0
1676922070.9530656,113.28125,-1000.0,-23.92578125,108.88671875,0.0
1676922070.9567637,138.671875,-755.37109375,-22.94921875,100.5859375,0.0
1676922070.9604616,128.90625,-592.7734375,-20.5078125,104.4921875,0.0
1676922070.9641597,125.9765625,-932.6171875,-18.5546875,124.51171875,0.0
1676922070.9678578,122.55859375,-833.0078125,-16.6015625,119.140625,0.0
1676922070.971556,118.65234375,-510.7421875,-20.5078125,99.609375,0.0
1676922070.9753122,128.41796875,-605.95703125,-28.3203125,82.03125,0.0
1676922070.9790688,138.18359375,-703.125,-25.87890625,101.5625,0.0
1676922070.982825,133.7890625,-563.96484375,-19.53125,124.0234375,0.0
1676922070.9865813,124.51171875,-488.28125,-19.53125,112.79296875,0.0
1676922070.9903376,120.1171875,-696.77734375,-19.53125,101.5625,0.0
1676922070.994094,112.3046875,-951.171875,-20.5078125,110.3515625,0.0
1676922070.9978504,119.140625,-832.51953125,-16.6015625,107.421875,0.0
1676922071.0016067,131.8359375,-618.1640625,-10.25390625,104.98046875,0.0
1676922071.005363,127.44140625,-829.1015625,-10.7421875,118.65234375,0.0
1676922071.0091195,144.04296875,-1000.0,-10.7421875,124.0234375,0.0
1676922071.0128758,145.5078125,-669.921875,-15.13671875,118.1640625,0.0
1676922071.016632,108.3984375,-570.3125,-14.6484375,125.9765625,0.0
1676922071.020382,115.72265625,-826.171875,-11.71875,115.234375,0.0
1676922071.024132,114.74609375,-714.35546875,-19.04296875,88.37890625,0.0
1676922071.0278819,121.09375,-490.234375,-22.4609375,90.8203125,0.0
1676922071.0316317,116.69921875,-530.2734375,-20.01953125,114.74609375,0.0
1676922071.0353818,100.09765625,-801.7578125,-15.13671875,119.62890625,0.0
1676922071.0391316,115.234375,-989.74609375,-14.6484375,115.72265625,0.0
1676922071.0428815,139.6484375,-885.7421875,-20.5078125,104.00390625,0.0
1676922071.0466316,133.7890625,-702.63671875,-16.6015625,110.3515625,0.0
1676922071.0503814,114.2578125,-921.875,-14.6484375,140.625,0.0
1676922071.0541313,118.65234375,-817.87109375,-11.23046875,129.8828125,0.0
1676922071.0578814,118.1640625,-583.49609375,-10.25390625,116.2109375,0.0
1676922071.0616312,105.46875,-796.875,-9.765625,123.53515625,0.0
1676922071.0653715,116.69921875,-905.76171875,-11.23046875,122.0703125,0.0
1676922071.0691118,112.3046875,-603.02734375,-11.71875,98.6328125,0.0
1676922071.0728524,120.60546875,-479.00390625,-10.7421875,90.8203125,0.0
1676922071.0765927,122.55859375,-703.125,-8.7890625,113.76953125,0.0
1676922071.080333,101.07421875,-752.9296875,-2.44140625,125.0,0.0
1676922071.0840735,106.4453125,-809.08203125,-1.953125,124.51171875,0.0
1676922071.0878139,117.1875,-850.09765625,-5.859375,129.8828125,0.0
1676922071.0915542,104.00390625,-836.42578125,-6.8359375,129.8828125,0.0
1676922071.0952945,89.35546875,-861.81640625,-4.39453125,136.23046875,0.0
1676922071.0990348,107.91015625,-569.82421875,-3.41796875,107.421875,0.0
1676922071.1027753,118.65234375,-461.42578125,-12.20703125,84.47265625,0.0
1676922071.1065156,91.30859375,-794.43359375,-10.25390625,95.703125,0.0
1676922071.1103783,82.03125,-789.55078125,-10.25390625,96.19140625,0.0
1676922071.1142406,100.5859375,-556.640625,-16.6015625,101.5625,0.0
1676922071.1181033,110.3515625,-792.48046875,-9.765625,103.515625,0.0
1676922071.1219656,111.328125,-960.44921875,-7.32421875,96.19140625,0.0
1676922071.1258283,91.796875,-688.4765625,-9.27734375,74.21875,0.0
1676922071.1296906,70.80078125,-707.03125,-9.765625,91.796875,0.0
1676922071.1335533,73.2421875,-938.4765625,-13.18359375,102.5390625,0.0
1676922071.137416,87.890625,-981.4453125,-18.06640625,91.796875,0.0
1676922071.1412783,95.703125,-747.55859375,-20.5078125,83.0078125,0.0
1676922071.145141,93.26171875,-431.640625,-20.99609375,79.1015625,0.0
1676922071.1490033,83.49609375,-563.4765625,-20.5078125,83.0078125,0.0
1676922071.152866,119.140625,-801.7578125,-12.6953125,78.61328125,0.0
1676922071.157765,113.28125,-588.37890625,-6.8359375,72.75390625,0.0
1676922071.162664,62.5,-440.91796875,-11.23046875,75.68359375,0.0
1676922071.167563,86.42578125,-666.50390625,-8.30078125,92.28515625,0.0
1676922071.172462,81.54296875,-753.41796875,-7.8125,82.51953125,0.0
1676922071.177361,64.94140625,-628.41796875,-10.7421875,57.12890625,0.0
1676922071.18226,66.40625,-764.16015625,-5.859375,45.8984375,0.0
1676922071.1871593,69.82421875,-947.75390625,-8.7890625,51.7578125,0.0
1676922071.1920583,60.546875,-998.046875,-6.8359375,50.78125,0.0
1676922071.1969573,37.59765625,-693.359375,-2.44140625,21.484375,0.0
1676922071.2018564,20.5078125,-534.1796875,-5.859375,12.6953125,0.0
1676922071.2067554,6.8359375,-763.18359375,-5.37109375,17.578125,0.0
1676922071.2116544,-2.44140625,-677.24609375,-4.8828125,2.44140625,0.0
1676922071.2141442,7.32421875,-511.23046875,-0.9765625,-13.671875,0.0
1676922071.2166343,3.41796875,-592.28515625,8.7890625,-1.46484375,0.0
1676922071.2191243,-18.5546875,-856.93359375,14.16015625,0.0,0.0
1676922071.2216141,-41.50390625,-713.37890625,12.6953125,-37.109375,0.0
1676922071.224104,-46.38671875,-531.73828125,13.671875,-45.8984375,0.0
1676922071.226594,-49.31640625,-830.56640625,12.6953125,-38.0859375,0.0
1676922071.229084,-57.6171875,-991.69921875,7.8125,-32.71484375,0.0
1676922071.2315738,-37.109375,-807.12890625,3.41796875,-37.109375,0.0
1676922071.2340636,-58.10546875,-771.97265625,7.32421875,-46.875,0.0
1676922071.2365537,-60.546875,-778.80859375,8.30078125,-44.921875,0.0
1676922071.2390437,-25.87890625,-945.3125,6.8359375,-16.11328125,0.0
1676922071.2415335,-11.23046875,-829.58984375,10.25390625,-12.6953125,0.0
1676922071.2452998,-4.8828125,-537.109375,15.13671875,-7.8125,0.0
1676922071.2490664,-9.27734375,-680.17578125,10.25390625,-1.953125,0.0
1676922071.2528327,9.27734375,-797.36328125,0.0,5.859375,0.0
1676922071.2565992,21.484375,-545.41015625,-0.9765625,16.11328125,0.0
1676922071.2603655,28.3203125,-453.125,-3.41796875,14.6484375,0.0
1676922071.264132,18.06640625,-848.14453125,-4.8828125,26.85546875,0.0
1676922071.2678983,14.6484375,-980.95703125,-6.8359375,38.0859375,0.0
1676922071.2716646,35.64453125,-612.79296875,-12.20703125,50.29296875,0.0
1676922071.2754312,42.96875,-500.48828125,-12.20703125,75.68359375,0.0
1676922071.2791975,47.8515625,-771.97265625,-7.32421875,76.171875,0.0
1676922071.282964,60.05859375,-859.86328125,-5.859375,64.453125,0.0
1676922071.2867303,68.359375,-758.30078125,-7.32421875,71.77734375,0.0
1676922071.291714,65.4296875,-644.53125,-9.765625,88.8671875,0.0
1676922071.2966979,85.44921875,-835.9375,-13.671875,99.12109375,0.0
1676922071.3016815,81.0546875,-808.59375,-16.6015625,110.83984375,0.0
1676922071.3066654,68.84765625,-554.6875,-23.92578125,101.07421875,0.0
1676922071.311649,81.0546875,-601.5625,-28.80859375,91.796875,0.0
1676922071.3166327,97.16796875,-931.640625,-24.4140625,100.5859375,0.0
1676922071.3216166,103.515625,-935.05859375,-16.6015625,98.6328125,0.0
1676922071.3266003,109.375,-582.03125,-9.765625,100.09765625,0.0
1676922071.3315842,106.93359375,-666.015625,-8.30078125,108.3984375,0.0
1676922071.3365679,102.5390625,-960.44921875,-13.671875,126.46484375,0.0
1676922071.3415518,99.12109375,-738.76953125,-19.04296875,126.953125,0.0
1676922071.3465354,118.65234375,-507.32421875,-20.5078125,114.74609375,0.0
1676922071.3502903,120.60546875,-666.9921875,-18.5546875,121.09375,0.0
1676922071.3540452,112.3046875,-860.3515625,-16.11328125,136.71875,0.0
1676922071.3578,103.02734375,-898.4375,-17.08984375,132.32421875,0.0
1676922071.3615549,99.609375,-736.81640625,-18.5546875,110.83984375,0.0
1676922071.3653097,127.44140625,-759.765625,-16.6015625,113.28125,0.0
1676922071.3690648,122.55859375,-1000.0,-11.23046875,140.13671875,0.0
1676922071.3728197,115.234375,-951.171875,-17.578125,143.5546875,0.0
1676922071.3765745,136.23046875,-680.6640625,-20.5078125,121.09375,0.0
1676922071.3803294,154.296875,-822.75390625,-13.671875,135.7421875,0.0
1676922071.3840842,127.9296875,-979.4921875,-9.27734375,154.78515625,0.0
1676922071.387839,99.12109375,-670.8984375,-14.16015625,124.51171875,0.0
1676922071.391594,111.328125,-620.1171875,-23.92578125,113.76953125,0.0
1676922071.3953402,124.0234375,-865.72265625,-24.4140625,127.9296875,0.0
1676922071.3990865,130.37109375,-758.30078125,-17.08984375,132.32421875,0.0
1676922071.402833,124.0234375,-530.76171875,-20.99609375,122.0703125,0.0
1676922071.4065793,119.140625,-586.9140625,-22.4609375,126.953125,0.0
1676922071.4103255,126.46484375,-878.90625,-13.18359375,136.71875,0.0
1676922071.4140718,120.60546875,-945.3125,-6.34765625,142.578125,0.0
1676922071.417818,91.796875,-941.40625,-7.8125,139.16015625,0.0
1676922071.4215643,95.703125,-962.40234375,-11.71875,121.09375,0.0
1676922071.4253106,117.67578125,-1000.0,-4.8828125,120.60546875,0.0
1676922071.4290571,111.81640625,-885.25390625,-4.8828125,117.67578125,0.0
1676922071.4328034,111.81640625,-551.26953125,-12.20703125,108.3984375,0.0
1676922071.4365497,108.3984375,-713.37890625,-11.23046875,111.328125,0.0
1676922071.440309,92.7734375,-708.49609375,-8.30078125,89.35546875,0.0
1676922071.4440682,95.703125,-431.640625,-4.8828125,85.9375,0.0
1676922071.4478273,110.83984375,-431.640625,-4.39453125,121.09375,0.0
1676922071.4515867,80.078125,-582.51953125,-8.7890625,125.0,0.0
1676922071.455346,80.078125,-616.69921875,-10.7421875,100.09765625,0.0
1676922071.4591053,112.79296875,-678.7109375,-12.6953125,102.05078125,0.0
1676922071.4628644,109.375,-755.37109375,-15.13671875,106.4453125,0.0
1676922071.4666238,104.98046875,-821.77734375,-11.71875,117.67578125,0.0
1676922071.4703832,103.02734375,-971.19140625,-6.34765625,119.62890625,0.0
1676922071.4741423,95.703125,-599.609375,-7.8125,93.75,0.0
1676922071.4779015,86.42578125,-350.5859375,-10.7421875,89.84375,0.0
1676922071.4816608,97.16796875,-703.61328125,-12.20703125,83.984375,0.0
1676922071.4854057,101.5625,-712.890625,-8.7890625,82.51953125,0.0
1676922071.4891505,76.66015625,-420.8984375,-7.8125,78.125,0.0
1676922071.4928954,92.28515625,-432.12890625,-10.7421875,80.078125,0.0
1676922071.4966402,104.00390625,-702.63671875,-8.7890625,87.40234375,0.0
1676922071.500385,98.6328125,-682.6171875,-5.37109375,80.078125,0.0
1676922071.50413,106.4453125,-779.296875,-1.953125,86.9140625,0.0
1676922071.507875,93.75,-931.640625,-5.37109375,96.6796875,0.0
1676922071.5116198,88.8671875,-926.7578125,-14.6484375,100.5859375,0.0
1676922071.5153646,97.16796875,-680.17578125,-22.4609375,96.6796875,0.0
1676922071.5191095,96.6796875,-416.015625,-22.4609375,96.6796875,0.0
1676922071.5228543,117.1875,-584.47265625,-13.18359375,104.00390625,0.0
1676922071.5265992,127.44140625,-941.40625,-1.953125,132.32421875,0.0
1676922071.530398,102.5390625,-754.39453125,-0.48828125,125.48828125,0.0
1676922071.5341966,100.09765625,-461.42578125,-4.8828125,104.00390625,0.0
1676922071.5379953,101.5625,-572.265625,-6.34765625,100.09765625,0.0
1676922071.541794,101.5625,-664.55078125,-2.9296875,112.79296875,0.0
1676922071.5455928,101.07421875,-526.85546875,-0.9765625,121.09375,0.0
1676922071.5493917,82.03125,-694.3359375,-5.37109375,98.6328125,0.0
1676922071.5531905,91.30859375,-929.19921875,-11.71875,93.26171875,0.0
1676922071.5569892,103.02734375,-933.59375,-13.671875,111.81640625,0.0
1676922071.560788,103.02734375,-625.0,-14.16015625,97.16796875,0.0
1676922071.5645866,125.48828125,-480.46875,-14.6484375,82.03125,0.0
1676922071.5683854,104.4921875,-690.91796875,-10.25390625,78.61328125,0.0
1676922071.572184,101.07421875,-590.8203125,-6.34765625,77.63671875,0.0
1676922071.575883,104.4921875,-395.5078125,-11.71875,96.19140625,0.0
1676922071.5795817,93.75,-507.32421875,-9.765625,101.5625,0.0
1676922071.5832806,93.26171875,-831.54296875,-4.8828125,90.33203125,0.0
1676922071.5869794,82.03125,-645.5078125,-6.8359375,80.56640625,0.0
1676922071.5906782,83.0078125,-439.94140625,-10.7421875,85.44921875,0.0
1676922071.594377,79.58984375,-796.38671875,-11.71875,103.515625,0.0
1676922071.598076,70.80078125,-1000.0,-3.90625,98.14453125,0.0
1676922071.601775,73.2421875,-823.2421875,-0.9765625,73.2421875,0.0
1676922071.6054738,68.84765625,-502.44140625,-10.25390625,71.2890625,0.0
1676922071.6091726,68.84765625,-554.19921875,-15.13671875,87.40234375,0.0
1676922071.6128714,71.2890625,-724.12109375,-11.71875,72.75390625,0.0
1676922071.6165702,77.63671875,-594.7265625,-8.30078125,65.91796875,0.0
1676922071.6203344,84.9609375,-492.1875,-6.8359375,86.9140625,0.0
1676922071.6240985,67.3828125,-640.13671875,-7.8125,93.75,0.0
1676922071.6278625,61.03515625,-767.08984375,-10.7421875,85.44921875,0.0
1676922071.6316266,91.30859375,-593.75,-14.6484375,78.61328125,0.0
1676922071.6353908,82.03125,-532.71484375,-13.18359375,80.56640625,0.0
1676922071.639155,65.91796875,-775.87890625,-9.27734375,89.84375,0.0
1676922071.642919,72.75390625,-1000.0,-4.39453125,94.7265625,0.0
1676922071.6466832,91.796875,-947.265625,-5.37109375,98.6328125,0.0
1676922071.6504474,94.7265625,-680.17578125,-9.765625,89.84375,0.0
1676922071.6542113,84.47265625,-840.33203125,-7.32421875,103.02734375,0.0
1676922071.6579754,102.5390625,-960.44921875,-4.39453125,97.16796875,0.0
1676922071.6617396,103.515625,-605.95703125,-6.8359375,76.171875,0.0
1676922071.6667278,87.40234375,-517.578125,-13.671875,69.82421875,0.0
1676922071.671716,102.5390625,-793.9453125,-15.625,78.61328125,0.0
1676922071.6767044,107.421875,-770.99609375,-13.18359375,84.9609375,0.0
1676922071.6816926,69.3359375,-564.453125,-5.859375,87.40234375,0.0
1676922071.6866808,78.61328125,-563.4765625,-4.8828125,92.7734375,0.0
1676922071.691669,95.703125,-919.921875,-2.9296875,103.515625,0.0
1676922071.6966572,94.23828125,-911.1328125,-4.39453125,99.12109375,0.0
1676922071.7016454,95.703125,-657.71484375,-4.8828125,88.8671875,0.0
1676922071.7066336,86.9140625,-844.7265625,-0.9765625,83.49609375,0.0
1676922071.711622,93.26171875,-1000.0,0.0,98.14453125,0.0
1676922071.7166102,82.51953125,-794.43359375,-6.8359375,92.28515625,0.0
1676922071.7215984,90.33203125,-552.24609375,-8.30078125,76.66015625,0.0
1676922071.72661,110.83984375,-709.9609375,-1.46484375,84.47265625,0.0
1676922071.7316215,79.1015625,-745.60546875,-3.90625,101.07421875,0.0
1676922071.736633,72.75390625,-503.41796875,-6.34765625,100.5859375,0.0
1676922071.7416446,92.7734375,-467.7734375,-7.8125,90.33203125,0.0
1676922071.7466562,104.4921875,-655.2734375,-7.32421875,91.796875,0.0
1676922071.7516675,95.703125,-929.6875,-1.953125,96.19140625,0.0
1676922071.756679,93.75,-828.125,-5.859375,88.37890625,0.0
1676922071.7616906,109.375,-550.29296875,-8.30078125,82.03125,0.0
1676922071.7667022,104.98046875,-731.93359375,-2.44140625,97.16796875,0.0
1676922071.7717137,84.9609375,-929.19921875,-2.9296875,110.3515625,0.0
1676922071.7767253,100.5859375,-645.99609375,0.48828125,97.65625,0.0
1676922071.7817369,97.65625,-720.21484375,3.41796875,90.8203125,0.0
1676922071.784386,81.0546875,-940.4296875,0.9765625,91.796875,0.0
1676922071.787035,85.44921875,-769.04296875,-8.30078125,66.89453125,0.0
1676922071.789684,101.5625,-495.60546875,-7.8125,59.5703125,0.0
1676922071.7923331,113.28125,-559.08203125,-0.48828125,85.9375,0.0
1676922071.7949822,80.56640625,-879.8828125,-3.41796875,90.8203125,0.0
1676922071.7976313,97.16796875,-998.53515625,-6.34765625,67.3828125,0.0
1676922071.8002803,111.81640625,-789.0625,-8.30078125,59.08203125,0.0
1676922071.8029294,118.65234375,-649.4140625,-9.27734375,89.84375,0.0
1676922071.8055785,118.65234375,-901.85546875,-0.9765625,98.6328125,0.0
1676922071.8082275,75.1953125,-741.2109375,-3.90625,71.2890625,0.0
1676922071.8108766,58.59375,-462.890625,-10.7421875,67.87109375,0.0
1676922071.8135257,77.1484375,-634.27734375,-7.32421875,69.82421875,0.0
1676922071.8171706,86.9140625,-868.1640625,-6.8359375,70.3125,0.0
1676922071.8208158,84.9609375,-726.5625,-12.6953125,72.265625,0.0
1676922071.8244607,74.21875,-801.7578125,-10.7421875,66.89453125,0.0
1676922071.828106,69.3359375,-932.12890625,-6.34765625,57.12890625,0.0
1676922071.8317509,75.68359375,-895.99609375,-4.39453125,73.73046875,0.0
1676922071.8353958,69.82421875,-910.15625,0.9765625,90.8203125,0.0
1676922071.839041,90.8203125,-871.58203125,-1.953125,64.94140625,0.0
1676922071.842686,87.890625,-826.171875,-14.16015625,58.59375,0.0
1676922071.8463311,72.75390625,-1000.0,-10.25390625,89.84375,0.0
1676922071.849976,54.19921875,-729.4921875,-5.859375,65.4296875,0.0
1676922071.8536212,65.91796875,-477.05078125,-9.765625,56.640625,0.0
1676922071.8572662,73.2421875,-810.546875,-10.7421875,71.77734375,0.0
1676922071.860959,77.1484375,-731.4453125,-7.8125,77.63671875,0.0
1676922071.864652,83.49609375,-458.49609375,-4.8828125,65.4296875,0.0
1676922071.8683448,78.125,-563.96484375,-3.90625,76.66015625,0.0
1676922071.8720376,83.984375,-809.5703125,-1.953125,77.1484375,0.0
1676922071.8757305,96.6796875,-692.87109375,-8.7890625,47.8515625,0.0
1676922071.8794231,98.6328125,-759.765625,-16.6015625,60.05859375,0.0
1676922071.883116,96.19140625,-948.2421875,-10.7421875,70.3125,0.0
1676922071.8868089,119.140625,-996.58203125,-2.44140625,79.1015625,0.0
1676922071.8905017,120.60546875,-987.79296875,-0.48828125,86.42578125,0.0
1676922071.8941946,101.5625,-664.55078125,-5.37109375,57.12890625,0.0
1676922071.8978875,80.56640625,-604.98046875,-13.18359375,53.22265625,0.0
1676922071.9015803,86.42578125,-771.97265625,-20.99609375,52.24609375,0.0
1676922071.9053304,103.515625,-601.07421875,-15.625,45.8984375,0.0
1676922071.9090805,96.19140625,-470.21484375,-6.34765625,61.03515625,0.0
1676922071.9128306,96.19140625,-710.44921875,-4.8828125,79.1015625,0.0
1676922071.9165807,111.328125,-853.02734375,-5.859375,60.546875,0.0
1676922071.9203308,83.984375,-635.25390625,-8.30078125,50.29296875,0.0
1676922071.9240808,69.82421875,-791.015625,-7.8125,69.82421875,0.0
1676922071.9278307,88.8671875,-970.703125,-9.27734375,72.265625,0.0
1676922071.9315808,88.8671875,-938.4765625,-9.27734375,76.66015625,0.0
1676922071.9353309,93.26171875,-849.609375,-4.8828125,59.08203125,0.0
1676922071.939081,93.75,-646.97265625,-7.32421875,54.19921875,0.0
1676922071.942831,73.2421875,-799.31640625,-7.32421875,67.87109375,0.0
1676922071.9465811,79.58984375,-953.61328125,-6.34765625,65.91796875,0.0
1676922071.950329,84.9609375,-574.70703125,-14.16015625,55.17578125,0.0
1676922071.9540772,65.4296875,-479.4921875,-16.6015625,64.453125,0.0
1676922071.9578252,82.03125,-751.953125,-10.7421875,90.8203125,0.0
1676922071.9615731,96.6796875,-632.8125,-12.6953125,96.6796875,0.0
1676922071.965321,82.51953125,-485.83984375,-15.625,83.984375,0.0
1676922071.969069,84.47265625,-818.84765625,-14.16015625,87.40234375,0.0
1676922071.9728172,82.03125,-1000.0,-11.23046875,106.4453125,0.0
1676922071.9765651,90.33203125,-784.66796875,-8.7890625,78.61328125,0.0
1676922071.980313,99.609375,-536.62109375,-8.30078125,66.89453125,0.0
1676922071.9840612,93.75,-606.93359375,-10.25390625,87.890625,0.0
1676922071.9878092,84.9609375,-788.57421875,-9.27734375,93.26171875,0.0
1676922071.9915571,83.0078125,-820.3125,-4.8828125,92.28515625,0.0
1676922071.9954162,95.703125,-622.55859375,-4.39453125,84.9609375,0.0
1676922071.9992752,107.91015625,-638.18359375,-8.7890625,97.65625,0.0
1676922072.0031343,74.21875,-894.53125,-5.859375,104.98046875,0.0
1676922072.0069935,78.61328125,-655.2734375,-8.30078125,85.44921875,0.0
1676922072.0108526,92.28515625,-467.7734375,-13.671875,83.0078125,0.0
1676922072.0147116,78.61328125,-798.33984375,-10.25390625,93.26171875,0.0
1676922072.0185707,90.8203125,-946.77734375,-8.7890625,94.7265625,0.0
1676922072.0224297,110.3515625,-563.96484375,-14.6484375,88.37890625,0.0
1676922072.026289,94.7265625,-460.44921875,-19.04296875,81.0546875,0.0
1676922072.030148,81.0546875,-753.41796875,-12.6953125,83.0078125,0.0
1676922072.034007,89.35546875,-718.26171875,-7.32421875,85.9375,0.0
1676922072.037866,94.23828125,-447.75390625,-10.25390625,82.51953125,0.0
1676922072.042761,85.9375,-513.671875,-4.8828125,79.1015625,0.0
1676922072.047656,61.5234375,-842.28515625,0.9765625,86.9140625,0.0
1676922072.052551,69.82421875,-929.19921875,-5.859375,74.21875,0.0
1676922072.057446,100.5859375,-672.36328125,-11.23046875,53.7109375,0.0
1676922072.062341,106.4453125,-580.078125,-7.32421875,65.4296875,0.0
1676922072.067236,107.421875,-910.64453125,-2.9296875,92.28515625,0.0
1676922072.0721307,100.5859375,-1000.0,-5.37109375,81.0546875,0.0
1676922072.0770257,86.42578125,-624.51171875,-7.8125,65.91796875,0.0
1676922072.0819206,83.49609375,-565.91796875,-2.44140625,90.8203125,0.0
1676922072.0868156,64.94140625,-865.72265625,-5.859375,95.703125,0.0
1676922072.0917106,65.91796875,-687.01171875,-12.6953125,58.59375,0.0
1676922072.0966055,80.078125,-534.1796875,-9.765625,53.7109375,0.0
1676922072.1003623,80.56640625,-683.10546875,-7.8125,76.66015625,0.0
1676922072.1041188,70.80078125,-770.99609375,-11.23046875,78.125,0.0
1676922072.1078756,79.58984375,-629.8828125,-15.13671875,69.82421875,0.0
1676922072.111632,83.49609375,-544.43359375,-15.625,83.984375,0.0
1676922072.1153889,65.91796875,-765.625,-14.6484375,100.09765625,0.0
1676922072.1191454,55.17578125,-996.09375,-9.765625,92.7734375,0.0
1676922072.1229022,73.73046875,-996.09375,-11.71875,80.078125,0.0
1676922072.126659,80.56640625,-872.0703125,-10.7421875,80.078125,0.0
1676922072.1304154,85.9375,-842.28515625,-11.71875,72.75390625,0.0
1676922072.1341722,61.5234375,-1000.0,-6.34765625,100.5859375,0.0
1676922072.1379287,41.015625,-796.38671875,-3.90625,95.21484375,0.0
1676922072.1416855,72.75390625,-549.8046875,-12.20703125,61.5234375,0.0
1676922072.145428,75.1953125,-750.0,-11.23046875,54.6875,0.0
1676922072.1491706,84.9609375,-674.31640625,-10.25390625,50.78125,0.0
1676922072.152913,88.8671875,-524.90234375,-9.765625,56.15234375,0.0
1676922072.1566556,82.03125,-607.91015625,-14.6484375,61.03515625,0.0
1676922072.1603982,78.125,-831.54296875,-13.18359375,64.94140625,0.0
1676922072.1641407,61.5234375,-967.7734375,-5.37109375,85.44921875,0.0
1676922072.1678832,86.9140625,-857.91015625,-9.27734375,86.9140625,0.0
1676922072.1716259,103.02734375,-728.02734375,-17.578125,49.8046875,0.0
1676922072.1753683,76.66015625,-963.8671875,-6.34765625,65.4296875,0.0
1676922072.1791108,63.4765625,-894.53125,4.8828125,83.49609375,0.0
1676922072.1828535,77.1484375,-436.03515625,-1.953125,60.546875,0.0
1676922072.186596,84.9609375,-504.8828125,-6.8359375,58.10546875,0.0
1676922072.1903443,71.2890625,-781.73828125,-2.44140625,75.1953125,0.0
1676922072.1940928,75.1953125,-522.4609375,-3.41796875,73.2421875,0.0
1676922072.1978412,83.49609375,-424.8046875,-8.7890625,82.03125,0.0
1676922072.2015896,63.4765625,-621.58203125,-5.37109375,86.9140625,0.0
1676922072.205338,57.12890625,-626.46484375,-0.9765625,64.453125,0.0
1676922072.2090864,70.3125,-690.4296875,-5.37109375,63.96484375,0.0
1676922072.2128348,84.9609375,-708.0078125,-7.8125,78.61328125,0.0
1676922072.2165833,95.21484375,-778.3203125,-4.39453125,80.56640625,0.0
1676922072.2203317,99.609375,-900.390625,-7.8125,72.75390625,0.0
1676922072.22408,83.0078125,-496.58203125,-9.27734375,57.6171875,0.0
1676922072.2278285,74.70703125,-372.0703125,-4.8828125,82.51953125,0.0
1676922072.231577,90.8203125,-725.5859375,-10.25390625,96.19140625,0.0
1676922072.2353275,81.54296875,-664.55078125,-10.25390625,77.63671875,0.0
1676922072.2390778,88.8671875,-391.6015625,-2.44140625,73.2421875,0.0
1676922072.2428284,98.14453125,-470.703125,-11.23046875,78.61328125,0.0
1676922072.246579,104.4921875,-808.59375,-17.08984375,88.37890625,0.0
1676922072.2503293,111.81640625,-713.8671875,-17.08984375,83.984375,0.0
1676922072.2540798,91.30859375,-687.98828125,-15.13671875,78.61328125,0.0
1676922072.2578304,75.68359375,-904.78515625,-7.8125,81.54296875,0.0
1676922072.2615807,93.26171875,-973.6328125,-9.27734375,104.4921875,0.0
1676922072.2653313,89.35546875,-772.94921875,-4.8828125,108.88671875,0.0
1676922072.2690818,76.171875,-458.0078125,-2.44140625,92.28515625,0.0
1676922072.2728322,98.6328125,-534.1796875,-8.30078125,89.35546875,0.0
1676922072.2765827,104.4921875,-719.7265625,-10.25390625,86.9140625,0.0
1676922072.2803397,66.40625,-556.15234375,-9.765625,83.49609375,0.0
1676922072.284097,72.75390625,-503.90625,-13.18359375,78.125,0.0
1676922072.287854,84.47265625,-802.734375,-16.11328125,86.9140625,0.0
1676922072.2916112,93.26171875,-839.35546875,-14.16015625,94.23828125,0.0
1676922072.2953682,85.44921875,-542.48046875,-16.6015625,76.171875,0.0
1676922072.2991252,80.56640625,-701.171875,-16.6015625,69.3359375,0.0
1676922072.3028824,80.56640625,-949.21875,-10.7421875,76.66015625,0.0
1676922072.3066394,70.3125,-924.31640625,-9.765625,97.16796875,0.0
1676922072.3103967,81.54296875,-579.1015625,-8.30078125,96.19140625,0.0
1676922072.3141537,76.66015625,-472.65625,-10.7421875,81.54296875,0.0
1676922072.317911,59.5703125,-720.21484375,-9.27734375,80.56640625,0.0
1676922072.321668,67.87109375,-677.24609375,-6.8359375,92.28515625,0.0
1676922072.3254104,88.8671875,-466.30859375,-5.859375,91.30859375,0.0
1676922072.3291528,70.80078125,-517.578125,-1.953125,82.03125,0.0
1676922072.3328953,61.5234375,-787.59765625,-1.953125,62.98828125,0.0
1676922072.3366377,63.4765625,-639.6484375,-8.7890625,54.6875,0.0
1676922072.3403802,74.21875,-517.08984375,-13.671875,78.61328125,0.0
1676922072.344123,75.68359375,-822.75390625,-10.7421875,96.19140625,0.0
1676922072.3478653,68.359375,-1000.0,-6.8359375,104.98046875,0.0
1676922072.3516078,60.546875,-880.37109375,-6.8359375,91.796875,0.0
1676922072.3553503,75.68359375,-514.6484375,-11.23046875,65.91796875,0.0
1676922072.3590927,65.4296875,-584.47265625,-7.32421875,61.03515625,0.0
1676922072.3628352,37.109375,-858.3984375,-3.41796875,58.59375,0.0
1676922072.3665776,65.4296875,-618.1640625,-6.8359375,60.05859375,0.0
1676922072.3705525,52.734375,-415.52734375,-10.7421875,48.828125,0.0
1676922072.3745275,48.33984375,-585.9375,-15.625,49.31640625,0.0
1676922072.3785026,75.1953125,-751.46484375,-18.06640625,62.01171875,0.0
1676922072.3824775,69.82421875,-564.453125,-18.5546875,48.33984375,0.0
1676922072.3864524,66.40625,-455.56640625,-16.6015625,44.921875,0.0
1676922072.3904276,76.171875,-768.06640625,-15.13671875,49.8046875,0.0
1676922072.3944025,78.125,-920.41015625,-10.25390625,51.7578125,0.0
1676922072.3983774,86.42578125,-666.50390625,-4.8828125,55.6640625,0.0
1676922072.4023523,91.796875,-704.58984375,-10.7421875,81.0546875,0.0
1676922072.4063272,92.28515625,-934.08203125,-12.6953125,90.33203125,0.0
1676922072.4103024,75.1953125,-913.57421875,-6.8359375,65.4296875,0.0
1676922072.4142773,63.4765625,-577.63671875,-10.7421875,42.96875,0.0
1676922072.4190578,81.0546875,-520.01953125,-16.6015625,51.26953125,0.0
1676922072.4238384,88.37890625,-840.8203125,-13.671875,77.1484375,0.0
1676922072.428619,90.8203125,-770.5078125,-13.18359375,65.91796875,0.0
1676922072.4333992,88.37890625,-532.2265625,-10.7421875,54.19921875,0.0
1676922072.4381797,71.2890625,-563.96484375,-7.8125,68.359375,0.0
1676922072.4429603,76.171875,-902.34375,-7.8125,104.00390625,0.0
1676922072.4477408,85.44921875,-1000.0,-4.39453125,97.16796875,0.0
1676922072.4525213,77.63671875,-634.27734375,-4.39453125,44.43359375,0.0
1676922072.4573016,57.12890625,-556.640625,-2.44140625,39.55078125,0.0
1676922072.4620821,58.10546875,-736.81640625,-5.859375,55.17578125,0.0
1676922072.4668627,67.3828125,-549.8046875,-11.71875,56.15234375,0.0
1676922072.4716432,38.0859375,-676.7578125,-14.16015625,66.89453125,0.0
1676922072.4753895,48.33984375,-903.3203125,-10.7421875,67.3828125,0.0
1676922072.4791358,71.2890625,-884.27734375,-5.859375,40.52734375,0.0
1676922072.482882,66.40625,-611.328125,-4.39453125,44.921875,0.0
1676922072.486628,62.98828125,-528.3203125,-7.32421875,66.40625,0.0
1676922072.4903743,57.6171875,-706.0546875,-4.8828125,58.59375,0.0
1676922072.4941206,71.77734375,-914.0625,-3.90625,52.734375,0.0
1676922072.4978669,84.47265625,-895.5078125,-9.765625,63.4765625,0.0
1676922072.5016131,84.47265625,-582.51953125,-7.32421875,68.84765625,0.0
1676922072.5053592,99.12109375,-734.86328125,-5.859375,86.42578125,0.0
1676922072.5091054,99.609375,-942.87109375,-2.44140625,88.8671875,0.0
1676922072.5128517,86.9140625,-539.55078125,-1.46484375,73.2421875,0.0
1676922072.516598,101.5625,-446.77734375,-4.39453125,96.6796875,0.0
1676922072.5203495,111.328125,-736.81640625,-5.859375,113.28125,0.0
1676922072.524101,103.02734375,-673.828125,-6.34765625,93.75,0.0
1676922072.5278525,125.48828125,-606.93359375,-9.765625,83.984375,0.0
1676922072.531604,122.0703125,-641.11328125,-7.32421875,88.37890625,0.0
1676922072.5353556,91.796875,-841.796875,-2.44140625,101.07421875,0.0
1676922072.5391073,94.23828125,-997.55859375,0.0,98.6328125,0.0
1676922072.5428588,106.4453125,-812.01171875,-0.48828125,77.63671875,0.0
1676922072.5466104,97.16796875,-600.5859375,-4.8828125,79.1015625,0.0
1676922072.5503619,97.65625,-878.90625,-5.859375,112.3046875,0.0
1676922072.5541134,99.12109375,-801.7578125,-5.37109375,96.19140625,0.0
1676922072.557865,84.47265625,-393.06640625,-12.6953125,76.171875,0.0
1676922072.5616164,83.49609375,-570.3125,-13.18359375,90.8203125,0.0
1676922072.5653634,90.8203125,-824.21875,-12.20703125,88.37890625,0.0
1676922072.5691106,69.3359375,-579.58984375,-19.53125,70.3125,0.0
1676922072.5728576,65.4296875,-479.00390625,-20.99609375,64.453125,0.0
1676922072.5766046,90.33203125,-650.390625,-16.6015625,75.1953125,0.0
1676922072.5803518,86.42578125,-729.98046875,-6.34765625,80.56640625,0.0
1676922072.5840988,54.19921875,-803.7109375,0.48828125,80.078125,0.0
1676922072.5878458,41.015625,-907.2265625,2.44140625,80.56640625,0.0
1676922072.591593,57.12890625,-928.7109375,-8.7890625,79.58984375,0.0
1676922072.59534,68.84765625,-985.3515625,-14.6484375,94.23828125,0.0
1676922072.599087,73.73046875,-718.75,-14.16015625,70.80078125,0.0
1676922072.6028342,73.73046875,-519.53125,-16.11328125,54.19921875,0.0
1676922072.6065812,75.68359375,-729.98046875,-12.20703125,63.96484375,0.0
1676922072.6103952,79.1015625,-609.375,-10.25390625,73.73046875,0.0
1676922072.6142092,66.40625,-395.5078125,-10.25390625,73.73046875,0.0
1676922072.6180234,55.6640625,-559.5703125,-8.7890625,67.3828125,0.0
1676922072.6218374,70.80078125,-812.98828125,-12.6953125,62.01171875,0.0
1676922072.6256514,59.08203125,-664.0625,-23.4375,61.03515625,0.0
1676922072.6294656,58.10546875,-738.76953125,-17.578125,66.40625,0.0
1676922072.6332796,85.44921875,-946.2890625,-4.39453125,73.2421875,0.0
1676922072.6370935,93.75,-954.1015625,-3.41796875,82.51953125,0.0
1676922072.6409075,74.21875,-930.17578125,-9.27734375,67.87109375,0.0
1676922072.6447215,58.59375,-633.30078125,-18.06640625,67.3828125,0.0
1676922072.6485357,79.1015625,-554.19921875,-20.99609375,91.796875,0.0
1676922072.6523497,88.8671875,-845.21484375,-15.13671875,92.7734375,0.0
1676922072.6560316,73.2421875,-629.8828125,-16.6015625,72.265625,0.0
1676922072.6597135,81.54296875,-460.44921875,-20.99609375,64.94140625,0.0
1676922072.6633954,84.9609375,-675.78125,-12.6953125,75.1953125,0.0
1676922072.6670773,72.75390625,-775.390625,-9.27734375,87.40234375,0.0
1676922072.6707592,68.84765625,-618.1640625,-15.625,77.1484375,0.0
1676922072.6744413,67.87109375,-781.73828125,-16.6015625,62.98828125,0.0
1676922072.6781232,75.1953125,-954.58984375,-17.08984375,55.17578125,0.0
1676922072.6818051,79.1015625,-966.30859375,-10.25390625,68.359375,0.0
1676922072.685487,67.87109375,-652.34375,-7.8125,62.5,0.0
1676922072.689169,76.66015625,-435.05859375,-13.671875,37.59765625,0.0
1676922072.6928508,71.77734375,-771.484375,-12.6953125,42.96875,0.0
1676922072.6965327,46.38671875,-975.09765625,-7.8125,57.6171875,0.0
1676922072.7003949,50.29296875,-717.28515625,-8.7890625,59.5703125,0.0
1676922072.704257,73.73046875,-559.5703125,-9.27734375,58.10546875,0.0
1676922072.7081192,64.94140625,-852.05078125,-10.7421875,59.5703125,0.0
1676922072.7119813,40.52734375,-798.33984375,-12.20703125,53.22265625,0.0
1676922072.7158434,44.921875,-529.78515625,-16.6015625,41.015625,0.0
1676922072.7197056,67.87109375,-708.49609375,-20.01953125,55.17578125,0.0
1676922072.7235677,62.98828125,-967.28515625,-15.13671875,77.1484375,0.0
1676922072.7274299,45.41015625,-811.03515625,-13.18359375,58.10546875,0.0
1676922072.731292,56.15234375,-523.92578125,-19.53125,56.640625,0.0
1676922072.7351542,57.12890625,-621.58203125,-16.11328125,74.70703125,0.0
1676922072.7390163,60.05859375,-788.57421875,-11.71875,63.4765625,0.0
1676922072.7428784,60.05859375,-543.45703125,-16.11328125,47.8515625,0.0
1676922072.746536,70.80078125,-540.52734375,-16.6015625,48.33984375,0.0
1676922072.7501934,65.4296875,-832.03125,-13.18359375,56.640625,0.0
1676922072.753851,58.10546875,-929.6875,-20.5078125,48.828125,0.0
1676922072.7575085,77.1484375,-711.9140625,-24.4140625,42.96875,0.0
1676922072.7611659,63.96484375,-513.18359375,-21.97265625,37.109375,0.0
1676922072.7648234,56.640625,-730.95703125,-20.01953125,46.875,0.0
1676922072.768481,51.7578125,-999.0234375,-19.04296875,72.265625,0.0
1676922072.7721384,57.12890625,-724.12109375,-20.5078125,45.8984375,0.0
1676922072.775796,88.37890625,-452.63671875,-23.92578125,38.57421875,0.0
1676922072.7794535,77.1484375,-676.7578125,-20.99609375,47.36328125,0.0
1676922072.7831109,74.70703125,-661.62109375,-25.390625,35.15625,0.0
1676922072.7867684,84.47265625,-464.84375,-27.34375,44.43359375,0.0
1676922072.7917624,81.54296875,-508.7890625,-22.4609375,60.546875,0.0
1676922072.7967563,78.61328125,-737.3046875,-20.01953125,58.59375,0.0
1676922072.80175,69.82421875,-635.25390625,-16.6015625,34.66796875,0.0
1676922072.8067439,75.68359375,-418.45703125,-12.20703125,48.828125,0.0
1676922072.8117378,82.51953125,-575.68359375,-10.7421875,82.51953125,0.0
1676922072.8167315,60.546875,-904.296875,-7.8125,77.1484375,0.0
1676922072.8217254,67.3828125,-975.5859375,-6.34765625,69.3359375,0.0
1676922072.8267193,73.2421875,-780.76171875,-11.23046875,66.40625,0.0
1676922072.8317132,89.35546875,-659.1796875,-11.71875,83.0078125,0.0
1676922072.836707,98.14453125,-942.3828125,-3.41796875,96.19140625,0.0
1676922072.8417008,81.0546875,-837.40234375,0.9765625,75.1953125,0.0
1676922072.8466947,76.66015625,-456.54296875,-7.32421875,77.63671875,0.0
1676922072.8504407,102.05078125,-564.453125,-7.32421875,85.9375,0.0
1676922072.8541868,86.9140625,-720.703125,-7.32421875,82.51953125,0.0
1676922072.857933,73.2421875,-605.46875,-9.765625,75.68359375,0.0
1676922072.861679,92.7734375,-573.73046875,-10.7421875,57.6171875,0.0
1676922072.865425,97.65625,-724.12109375,-12.6953125,62.98828125,0.0
1676922072.8691711,106.93359375,-974.12109375,-7.8125,80.078125,0.0
1676922072.8729172,79.1015625,-862.3046875,-2.44140625,65.4296875,0.0
1676922072.8766632,57.6171875,-618.1640625,-4.39453125,54.19921875,0.0
1676922072.8804092,71.77734375,-808.10546875,-5.37109375,72.265625,0.0
1676922072.8841555,82.03125,-1000.0,-7.32421875,82.03125,0.0
1676922072.8879015,81.54296875,-742.67578125,-15.13671875,57.12890625,0.0
1676922072.8916476,87.40234375,-514.16015625,-12.6953125,58.59375,0.0
1676922072.8953938,104.4921875,-787.59765625,-7.32421875,88.8671875,0.0
1676922072.8991404,111.81640625,-745.60546875,-7.32421875,80.078125,0.0
1676922072.9028866,93.26171875,-524.90234375,-7.32421875,54.6875,0.0
1676922072.906633,65.91796875,-608.88671875,-8.7890625,58.10546875,0.0
1676922072.9103792,65.4296875,-841.796875,-12.20703125,48.828125,0.0
1676922072.9141254,74.70703125,-991.69921875,-6.34765625,52.24609375,0.0
1676922072.917872,88.8671875,-907.2265625,-5.859375,57.6171875,0.0
1676922072.9216182,82.03125,-723.6328125,-8.7890625,37.59765625,0.0
1676922072.9253645,85.9375,-921.38671875,-6.8359375,65.91796875,0.0
1676922072.929111,83.0078125,-825.68359375,-1.46484375,73.2421875,0.0
1676922072.9328573,59.08203125,-509.27734375,0.48828125,53.22265625,0.0
1676922072.9366035,60.546875,-720.703125,-9.765625,37.109375,0.0
1676922072.9403694,54.19921875,-895.5078125,-13.671875,33.203125,0.0
1676922072.9441352,62.98828125,-571.2890625,-6.8359375,41.015625,0.0
1676922072.9479008,68.84765625,-420.41015625,-9.27734375,48.828125,0.0
1676922072.9516666,44.43359375,-626.953125,-8.7890625,41.9921875,0.0
1676922072.9554324,60.05859375,-739.2578125,-3.41796875,26.3671875,0.0
1676922072.959198,61.5234375,-787.59765625,-3.90625,32.71484375,0.0
1676922072.9629638,49.31640625,-702.1484375,-8.7890625,41.9921875,0.0
1676922072.9667296,58.10546875,-679.6875,-10.7421875,50.78125,0.0
1676922072.9704955,64.94140625,-911.1328125,-3.41796875,68.84765625,0.0
1676922072.9742613,56.15234375,-564.453125,0.0,62.98828125,0.0
1676922072.9780269,50.29296875,-364.74609375,1.46484375,69.82421875,0.0
1676922072.9817927,75.1953125,-650.390625,-1.46484375,88.37890625,0.0
1676922072.98679,78.125,-554.6875,-3.41796875,84.47265625,0.0
1676922072.9917872,75.68359375,-331.0546875,-0.9765625,77.1484375,0.0
1676922072.9967844,85.44921875,-579.58984375,2.44140625,70.3125,0.0
1676922073.0017817,82.51953125,-892.08984375,4.8828125,84.47265625,0.0
1676922073.006779,82.03125,-676.26953125,0.9765625,84.47265625,0.0
1676922073.0117764,87.890625,-640.13671875,1.46484375,74.21875,0.0
1676922073.0167737,98.14453125,-864.2578125,3.41796875,76.66015625,0.0
1676922073.021771,104.00390625,-962.890625,-1.953125,93.75,0.0
1676922073.0267682,84.9609375,-769.53125,-3.41796875,90.33203125,0.0
1676922073.0317655,80.56640625,-470.21484375,-5.37109375,67.3828125,0.0
1676922073.0367627,100.09765625,-540.0390625,-3.41796875,75.68359375,0.0
1676922073.04176,104.4921875,-717.28515625,-0.9765625,90.33203125,0.0
1676922073.044244,96.19140625,-576.66015625,-3.90625,83.984375,0.0
1676922073.0467284,90.33203125,-416.50390625,-5.37109375,87.890625,0.0
1676922073.0492125,81.54296875,-574.21875,-4.8828125,89.84375,0.0
1676922073.0516965,67.87109375,-685.05859375,-7.8125,77.63671875,0.0
1676922073.0541809,78.125,-555.17578125,-10.25390625,69.82421875,0.0
1676922073.056665,66.89453125,-753.41796875,-7.32421875,74.70703125,0.0
1676922073.059149,55.17578125,-960.9375,-6.34765625,85.9375,0.0
1676922073.0616333,77.63671875,-855.46875,-10.7421875,70.3125,0.0
1676922073.0641174,68.359375,-583.984375,-16.11328125,67.87109375,0.0
1676922073.0666015,40.52734375,-463.8671875,-11.23046875,77.1484375,0.0
1676922073.0690858,47.36328125,-754.39453125,-10.7421875,74.21875,0.0
1676922073.07157,60.546875,-1000.0,-12.20703125,76.171875,0.0
1676922073.0753307,67.3828125,-642.08984375,-10.7421875,74.21875,0.0
1676922073.0790918,55.17578125,-466.30859375,-15.625,62.98828125,0.0
1676922073.0828526,44.921875,-802.24609375,-16.6015625,49.31640625,0.0
1676922073.0866137,41.015625,-668.9453125,-21.484375,56.15234375,0.0
1676922073.0903745,60.05859375,-488.28125,-20.01953125,73.73046875,0.0
1676922073.0941353,81.54296875,-795.8984375,-16.11328125,82.51953125,0.0
1676922073.0978963,52.24609375,-995.60546875,-13.671875,91.796875,0.0
1676922073.1016572,47.36328125,-778.80859375,-14.16015625,89.84375,0.0
1676922073.1054182,78.61328125,-628.41796875,-16.11328125,79.58984375,0.0
1676922073.109179,79.58984375,-812.98828125,-9.27734375,75.1953125,0.0
1676922073.11294,73.2421875,-944.82421875,-10.7421875,78.61328125,0.0
1676922073.116701,41.015625,-757.32421875,-9.765625,75.68359375,0.0
1676922073.1204622,43.9453125,-512.6953125,-6.34765625,87.40234375,0.0
1676922073.1242232,77.1484375,-569.82421875,-10.25390625,98.6328125,0.0
1676922073.1279845,85.44921875,-685.546875,-7.8125,85.44921875,0.0
1676922073.1317458,90.8203125,-548.828125,-7.32421875,65.4296875,0.0
1676922073.135507,78.125,-482.421875,-3.90625,66.89453125,0.0
1676922073.1392684,79.58984375,-806.640625,-0.48828125,72.75390625,0.0
1676922073.1430295,82.51953125,-934.08203125,-0.9765625,83.49609375,0.0
1676922073.1467907,77.63671875,-608.3984375,-6.8359375,83.984375,0.0
1676922073.150552,66.89453125,-483.88671875,-10.7421875,67.3828125,0.0
1676922073.154313,91.30859375,-706.54296875,-6.34765625,65.4296875,0.0
1676922073.1580744,86.42578125,-798.828125,-0.9765625,65.91796875,0.0
1676922073.1618357,58.59375,-780.2734375,4.8828125,67.87109375,0.0
1676922073.1668122,59.5703125,-754.39453125,1.46484375,60.546875,0.0
1676922073.1717887,87.890625,-836.9140625,-2.9296875,75.68359375,0.0
1676922073.1767652,83.984375,-754.39453125,-3.90625,84.9609375,0.0
1676922073.1817417,53.7109375,-582.03125,-2.44140625,63.4765625,0.0
1676922073.1867182,61.03515625,-677.734375,-1.953125,53.7109375,0.0
1676922073.1916947,67.87109375,-937.98828125,-5.37109375,59.08203125,0.0
1676922073.1966715,70.3125,-942.87109375,-6.8359375,65.91796875,0.0
1676922073.201648,71.2890625,-578.125,-7.32421875,56.15234375,0.0
1676922073.2066245,63.96484375,-601.5625,-7.8125,67.3828125,0.0
1676922073.211601,59.08203125,-945.80078125,-8.30078125,70.80078125,0.0
1676922073.2165775,46.875,-758.7890625,-8.30078125,53.7109375,0.0
1676922073.221554,56.640625,-502.9296875,-12.20703125,56.640625,0.0
1676922073.2253094,62.5,-675.29296875,-15.625,68.84765625,0.0
1676922073.2290647,62.01171875,-791.015625,-12.6953125,62.01171875,0.0
1676922073.23282,75.1953125,-766.6015625,-9.765625,52.24609375,0.0
1676922073.2365754,78.61328125,-757.8125,-9.27734375,64.94140625,0.0
1676922073.2403307,48.33984375,-768.06640625,-4.39453125,65.4296875,0.0
1676922073.244086,51.26953125,-987.3046875,-6.8359375,68.359375,0.0
1676922073.2478414,57.6171875,-926.7578125,-14.16015625,54.19921875,0.0
1676922073.2515967,52.734375,-628.41796875,-17.08984375,55.17578125,0.0
1676922073.255352,71.2890625,-744.140625,-17.578125,64.453125,0.0
1676922073.2591074,71.2890625,-846.6796875,-14.16015625,39.55078125,0.0
1676922073.2628627,61.03515625,-579.58984375,-12.6953125,42.96875,0.0
1676922073.266618,74.21875,-531.73828125,-16.11328125,56.15234375,0.0
1676922073.2704124,95.21484375,-840.33203125,-12.6953125,70.3125,0.0
1676922073.2742066,82.51953125,-859.86328125,-11.71875,59.08203125,0.0
1676922073.2780008,70.3125,-556.640625,-19.04296875,49.31640625,0.0
1676922073.2817953,101.5625,-561.03515625,-14.16015625,95.21484375,0.0
1676922073.2855897,89.35546875,-828.125,-9.765625,100.09765625,0.0
1676922073.289384,74.21875,-893.5546875,-9.27734375,63.96484375,0.0
1676922073.293178,94.7265625,-857.421875,-11.71875,60.05859375,0.0
1676922073.2969725,108.3984375,-917.96875,-16.11328125,73.2421875,0.0
1676922073.300767,104.98046875,-951.66015625,-14.16015625,82.03125,0.0
1676922073.3045611,88.8671875,-718.26171875,-4.39453125,68.359375,0.0
1676922073.3083553,93.75,-501.953125,-0.9765625,62.01171875,0.0
1676922073.3121498,102.5390625,-620.1171875,-1.953125,87.890625,0.0
1676922073.3171196,98.14453125,-944.82421875,4.8828125,119.140625,0.0
1676922073.3220897,104.4921875,-749.51171875,3.41796875,81.54296875,0.0
1676922073.3270597,100.09765625,-445.80078125,-4.8828125,61.5234375,0.0
1676922073.3320296,76.66015625,-612.79296875,-3.90625,70.3125,0.0
1676922073.3369994,64.94140625,-705.56640625,-2.9296875,79.1015625,0.0
1676922073.3419695,72.265625,-809.08203125,-2.9296875,86.42578125,0.0
1676922073.3469396,83.49609375,-892.578125,-4.8828125,71.77734375,0.0
1676922073.3519094,81.54296875,-873.53515625,-7.8125,70.80078125,0.0
1676922073.3568792,98.14453125,-986.81640625,-8.30078125,95.21484375,0.0
1676922073.3618493,83.0078125,-699.21875,-6.8359375,92.7734375,0.0
1676922073.3668194,66.89453125,-416.9921875,-2.44140625,71.2890625,0.0
1676922073.3717892,87.890625,-707.03125,0.9765625,84.47265625,0.0
1676922073.3742692,90.8203125,-754.39453125,1.953125,104.00390625,0.0
1676922073.3767493,104.00390625,-492.67578125,-2.9296875,80.56640625,0.0
1676922073.3792295,114.74609375,-508.30078125,-6.34765625,68.359375,0.0
1676922073.3817096,89.84375,-729.00390625,-7.32421875,74.70703125,0.0
1676922073.3841896,88.37890625,-596.19140625,-6.34765625,73.2421875,0.0
1676922073.3866696,86.42578125,-679.6875,-8.7890625,68.84765625,0.0
1676922073.3891497,88.8671875,-936.5234375,-13.671875,89.84375,0.0
1676922073.3916297,101.07421875,-914.0625,-13.18359375,96.6796875,0.0
1676922073.3941097,89.84375,-640.13671875,-12.6953125,66.40625,0.0
1676922073.39659,76.66015625,-423.33984375,-8.30078125,54.6875,0.0
1676922073.39907,82.03125,-530.76171875,-11.71875,69.82421875,0.0
1676922073.40155,88.8671875,-937.98828125,-14.6484375,83.0078125,0.0
1676922073.4054503,102.5390625,-831.54296875,-12.20703125,63.96484375,0.0
1676922073.4093509,101.5625,-441.40625,-10.25390625,51.26953125,0.0
1676922073.4132512,78.61328125,-616.69921875,-7.32421875,65.4296875,0.0
1676922073.4171515,86.9140625,-842.7734375,-5.859375,64.453125,0.0
1676922073.4210517,99.609375,-634.765625,-8.7890625,40.52734375,0.0
1676922073.424952,82.03125,-711.42578125,-9.765625,39.0625,0.0
1676922073.4288526,77.63671875,-913.57421875,-4.8828125,66.89453125,0.0
1676922073.4327528,96.19140625,-930.6640625,-4.39453125,69.3359375,0.0
1676922073.4366531,96.19140625,-597.65625,-9.765625,50.78125,0.0
1676922073.4405537,97.65625,-460.44921875,-13.18359375,48.828125,0.0
1676922073.444454,96.6796875,-714.35546875,-5.37109375,79.58984375,0.0
1676922073.4483542,82.03125,-624.51171875,-1.46484375,89.84375,0.0
1676922073.451959,83.984375,-415.52734375,-1.953125,63.96484375,0.0
1676922073.4555638,73.73046875,-463.8671875,-3.90625,59.5703125,0.0
1676922073.4591684,82.03125,-809.5703125,-2.9296875,71.2890625,0.0
1676922073.4627733,99.609375,-748.53515625,-6.34765625,59.08203125,0.0
1676922073.466378,88.8671875,-521.484375,-14.6484375,47.8515625,0.0
1676922073.4699826,78.61328125,-768.5546875,-8.30078125,61.03515625,0.0
1676922073.4735875,80.56640625,-998.53515625,-2.9296875,73.2421875,0.0
1676922073.4771922,76.171875,-962.890625,-3.41796875,72.75390625,0.0
1676922073.480797,81.0546875,-560.546875,-3.90625,65.4296875,0.0
1676922073.4844017,91.30859375,-488.28125,-5.859375,81.0546875,0.0
1676922073.4880066,79.1015625,-710.44921875,-6.34765625,78.61328125,0.0
1676922073.4916112,59.08203125,-568.84765625,-5.37109375,59.08203125,0.0
1676922073.4966106,62.01171875,-448.73046875,-8.7890625,53.22265625,0.0
1676922073.5016098,83.984375,-607.91015625,-6.34765625,66.89453125,0.0
1676922073.5066092,106.93359375,-758.7890625,-1.953125,73.2421875,0.0
1676922073.5116086,82.51953125,-570.80078125,-5.37109375,64.94140625,0.0
1676922073.516608,68.84765625,-538.57421875,-8.7890625,66.40625,0.0
1676922073.5216074,75.68359375,-825.1953125,-8.7890625,73.73046875,0.0
1676922073.5266066,77.63671875,-1000.0,-7.32421875,88.8671875,0.0
1676922073.531606,90.8203125,-860.3515625,-6.8359375,83.0078125,0.0
1676922073.5366054,73.73046875,-561.5234375,-8.7890625,60.546875,0.0
1676922073.5416045,62.5,-751.46484375,-5.37109375,77.1484375,0.0
1676922073.546604,76.66015625,-943.84765625,-3.41796875,71.77734375,0.0
1676922073.5516033,68.359375,-697.75390625,-12.20703125,47.36328125,0.0
1676922073.5553553,66.40625,-562.98828125,-14.6484375,55.17578125,0.0
1676922073.5591075,90.33203125,-844.23828125,-11.23046875,77.1484375,0.0
1676922073.5628595,75.68359375,-905.76171875,-7.32421875,73.2421875,0.0
1676922073.5666115,62.5,-626.953125,-8.7890625,76.171875,0.0
1676922073.5703638,91.30859375,-591.796875,-10.7421875,88.8671875,0.0
1676922073.5741158,98.14453125,-924.8046875,-10.7421875,78.125,0.0
1676922073.5778677,84.9609375,-913.0859375,-10.25390625,69.3359375,0.0
1676922073.58162,92.7734375,-545.41015625,-6.34765625,73.2421875,0.0
1676922073.585372,104.00390625,-672.36328125,-8.7890625,67.3828125,0.0
1676922073.589124,99.609375,-1000.0,-6.34765625,83.49609375,0.0
1676922073.5928762,89.84375,-908.203125,-0.9765625,73.73046875,0.0
1676922073.5966282,83.984375,-525.87890625,-10.25390625,58.10546875,0.0
1676922073.6003878,96.19140625,-592.28515625,-20.5078125,79.1015625,0.0
1676922073.6041474,101.5625,-766.11328125,-23.4375,67.3828125,0.0
1676922073.6079068,90.8203125,-562.01171875,-21.484375,57.12890625,0.0
1676922073.6116664,65.91796875,-443.84765625,-17.08984375,68.359375,0.0
1676922073.615426,61.03515625,-617.1875,-12.6953125,76.66015625,0.0
1676922073.6191854,69.82421875,-937.01171875,-7.32421875,79.58984375,0.0
1676922073.622945,86.42578125,-845.703125,-10.25390625,61.03515625,0.0
1676922073.6267047,81.54296875,-484.86328125,-13.18359375,59.08203125,0.0
1676922073.6304643,69.3359375,-652.34375,-8.7890625,81.54296875,0.0
1676922073.634224,76.66015625,-932.12890625,-10.7421875,80.56640625,0.0
1676922073.6379833,69.82421875,-594.23828125,-14.16015625,52.24609375,0.0
1676922073.641743,67.87109375,-581.0546875,-11.71875,47.8515625,0.0
1676922073.6454837,79.58984375,-898.4375,-7.32421875,75.68359375,0.0
1676922073.6492245,76.66015625,-770.99609375,-9.765625,84.9609375,0.0
1676922073.6529653,80.56640625,-492.1875,-12.20703125,71.77734375,0.0
1676922073.656706,77.1484375,-529.296875,-12.20703125,62.5,0.0
1676922073.660447,47.8515625,-810.05859375,-10.7421875,73.73046875,0.0
1676922073.664188,62.98828125,-917.48046875,-2.44140625,79.58984375,0.0
1676922073.6679287,72.75390625,-772.94921875,-2.44140625,60.546875,0.0
1676922073.6716695,75.68359375,-632.8125,-7.32421875,68.84765625,0.0
1676922073.6754103,89.84375,-906.73828125,-11.23046875,76.66015625,0.0
1676922073.679151,97.16796875,-793.45703125,-18.06640625,54.6875,0.0
1676922073.6828918,92.7734375,-463.8671875,-16.6015625,43.45703125,0.0
1676922073.6866326,89.84375,-614.2578125,-16.11328125,62.01171875,0.0
1676922073.6903775,93.26171875,-768.5546875,-21.97265625,71.2890625,0.0
1676922073.6941226,81.0546875,-558.10546875,-19.04296875,64.453125,0.0
1676922073.6978674,89.35546875,-617.67578125,-14.6484375,69.3359375,0.0
1676922073.7016122,88.8671875,-868.65234375,-10.25390625,73.2421875,0.0
1676922073.7053573,79.58984375,-891.11328125,-7.32421875,66.40625,0.0
1676922073.7091022,91.796875,-880.859375,-8.7890625,42.48046875,0.0
1676922073.712847,78.125,-729.00390625,-9.765625,39.55078125,0.0
1676922073.716592,70.3125,-729.4921875,-9.765625,64.94140625,0.0
1676922073.720337,79.58984375,-922.36328125,-4.39453125,77.63671875,0.0
1676922073.7240818,73.2421875,-530.76171875,-6.34765625,58.10546875,0.0
1676922073.7278268,79.1015625,-319.82421875,-12.20703125,51.7578125,0.0
1676922073.7315717,73.73046875,-637.6953125,-12.6953125,52.24609375,0.0
1676922073.7353282,61.5234375,-632.32421875,-10.7421875,46.875,0.0
1676922073.7390847,69.82421875,-364.2578125,-8.30078125,26.3671875,0.0
1676922073.742841,84.9609375,-417.96875,-8.30078125,27.34375,0.0
1676922073.7465975,79.58984375,-680.6640625,-8.30078125,56.640625,0.0
1676922073.750354,79.1015625,-565.91796875,-8.30078125,53.22265625,0.0
1676922073.7541103,75.68359375,-574.21875,-10.7421875,44.43359375,0.0
1676922073.7578669,57.6171875,-739.2578125,-14.6484375,51.7578125,0.0
1676922073.7616234,50.78125,-949.21875,-12.20703125,75.68359375,0.0
1676922073.76538,58.59375,-871.09375,-0.48828125,58.10546875,0.0
1676922073.7691364,42.48046875,-381.34765625,-1.46484375,46.38671875,0.0
1676922073.7728927,50.29296875,-377.44140625,-2.44140625,64.94140625,0.0
1676922073.7766492,74.70703125,-523.4375,-1.953125,49.8046875,0.0
1676922073.7803936,75.68359375,-360.83984375,-8.7890625,49.31640625,0.0
1676922073.7841377,70.3125,-315.91796875,-9.765625,53.7109375,0.0
1676922073.787882,72.75390625,-520.01953125,-5.859375,69.3359375,0.0
1676922073.7916265,73.2421875,-592.28515625,-6.8359375,78.61328125,0.0
1676922073.7953708,60.546875,-401.3671875,-11.71875,65.4296875,0.0
1676922073.7991152,50.29296875,-614.74609375,-15.625,67.87109375,0.0
1676922073.8028593,60.546875,-874.51171875,-14.16015625,76.66015625,0.0
1676922073.8066037,84.9609375,-719.7265625,-11.23046875,68.84765625,0.0
1676922073.810348,89.84375,-608.88671875,-7.32421875,81.54296875,0.0
1676922073.8140922,74.70703125,-656.73828125,-6.34765625,80.078125,0.0
1676922073.8178365,99.609375,-778.80859375,-4.39453125,79.1015625,0.0
1676922073.821581,95.703125,-955.078125,0.0,78.125,0.0
1676922073.8253326,46.875,-644.04296875,-8.7890625,66.40625,0.0
1676922073.8290842,69.3359375,-521.97265625,-15.625,70.3125,0.0
1676922073.8328357,92.28515625,-750.9765625,-12.20703125,62.98828125,0.0
1676922073.8365874,69.82421875,-646.97265625,-13.18359375,58.59375,0.0
1676922073.8403392,52.734375,-522.4609375,-10.25390625,53.22265625,0.0
1676922073.8440907,77.1484375,-793.45703125,-7.32421875,59.08203125,0.0
1676922073.8478422,73.2421875,-1000.0,-12.6953125,77.1484375,0.0
1676922073.851594,45.41015625,-787.59765625,-14.16015625,87.40234375,0.0
1676922073.8553457,55.17578125,-453.61328125,-12.20703125,66.89453125,0.0
1676922073.8590972,61.5234375,-539.55078125,-8.7890625,48.33984375,0.0
1676922073.8628488,50.78125,-721.19140625,-8.30078125,52.24609375,0.0
1676922073.8666005,55.6640625,-688.96484375,-0.48828125,53.7109375,0.0
1676922073.8704603,60.05859375,-661.1328125,2.9296875,43.45703125,0.0
1676922073.8743203,51.26953125,-649.90234375,-3.90625,62.5,0.0
1676922073.87818,51.26953125,-849.609375,-0.9765625,59.5703125,0.0
1676922073.88204,57.6171875,-643.5546875,-1.953125,29.78515625,0.0
1676922073.8858998,52.24609375,-521.484375,-9.27734375,32.71484375,0.0
1676922073.8897595,23.92578125,-825.1953125,-12.20703125,49.8046875,0.0
1676922073.8936195,25.390625,-934.08203125,-15.13671875,58.10546875,0.0
1676922073.8974793,57.6171875,-611.81640625,-18.5546875,41.015625,0.0
1676922073.9013393,60.05859375,-480.46875,-12.6953125,56.15234375,0.0
1676922073.905199,63.96484375,-742.67578125,-4.8828125,63.4765625,0.0
1676922073.909059,63.4765625,-741.69921875,-4.8828125,64.453125,0.0
1676922073.9129188,57.12890625,-516.11328125,-1.953125,63.4765625,0.0
1676922073.9178064,52.734375,-498.53515625,-4.39453125,59.5703125,0.0
1676922073.922694,68.359375,-682.12890625,-6.8359375,70.3125,0.0
1676922073.9275815,75.68359375,-797.8515625,-9.27734375,67.87109375,0.0
1676922073.9324691,69.3359375,-708.984375,-9.765625,64.94140625,0.0
1676922073.9373567,87.890625,-576.66015625,-7.32421875,72.75390625,0.0
1676922073.9422445,95.703125,-879.8828125,-4.8828125,79.58984375,0.0
1676922073.947132,83.984375,-972.65625,-1.953125,84.9609375,0.0
1676922073.9520197,77.1484375,-615.72265625,-7.32421875,73.73046875,0.0
1676922073.9569073,81.0546875,-590.8203125,-5.37109375,54.19921875,0.0
1676922073.9617949,89.35546875,-846.19140625,-3.90625,53.7109375,0.0
1676922073.9666824,57.12890625,-682.6171875,-6.34765625,63.96484375,0.0
1676922073.97157,48.828125,-600.09765625,-3.90625,62.01171875,0.0
1676922073.975331,66.89453125,-718.75,-6.34765625,59.08203125,0.0
1676922073.979092,85.9375,-789.0625,-5.37109375,66.89453125,0.0
1676922073.982853,81.0546875,-643.06640625,-3.41796875,57.6171875,0.0
1676922073.9866138,62.5,-533.69140625,-5.859375,80.56640625,0.0
1676922073.9903748,72.75390625,-710.9375,-3.41796875,100.09765625,0.0
1676922073.9941359,66.40625,-959.47265625,-1.46484375,74.21875,0.0
1676922073.9978967,77.1484375,-979.4921875,-5.37109375,59.08203125,0.0
1676922074.0016577,79.1015625,-860.83984375,-6.34765625,56.640625,0.0
1676922074.0054185,66.40625,-808.59375,-2.44140625,68.359375,0.0
1676922074.0091796,63.96484375,-998.046875,-2.9296875,80.56640625,0.0
1676922074.0129404,73.73046875,-776.85546875,-7.32421875,58.10546875,0.0
1676922074.0167015,97.16796875,-541.50390625,-6.34765625,61.5234375,0.0
1676922074.0204396,94.7265625,-801.7578125,-2.44140625,83.49609375,0.0
1676922074.0241778,88.37890625,-731.4453125,-0.48828125,92.7734375,0.0
1676922074.027916,76.66015625,-517.578125,-0.48828125,82.51953125,0.0
1676922074.0316541,83.0078125,-633.7890625,0.0,82.51953125,0.0
1676922074.0353923,82.03125,-856.93359375,-1.953125,88.37890625,0.0
1676922074.0391302,62.5,-927.734375,-4.39453125,73.2421875,0.0
1676922074.0428684,79.58984375,-837.890625,-5.859375,65.91796875,0.0
1676922074.0466065,82.51953125,-661.1328125,-2.44140625,67.3828125,0.0
1676922074.0503447,80.078125,-922.36328125,0.48828125,79.1015625,0.0
1676922074.0540829,86.42578125,-883.7890625,1.953125,72.75390625,0.0
1676922074.057821,65.91796875,-438.4765625,-2.44140625,62.5,0.0
1676922074.0615592,64.453125,-548.828125,-10.25390625,54.19921875,0.0
1676922074.065312,62.5,-807.12890625,-8.7890625,54.19921875,0.0
1676922074.0690646,63.4765625,-611.81640625,-2.44140625,61.5234375,0.0
1676922074.0728173,56.15234375,-465.8203125,-1.953125,49.8046875,0.0
1676922074.0765698,57.12890625,-583.0078125,-5.859375,49.8046875,0.0
1676922074.0803225,73.2421875,-680.6640625,-2.9296875,63.4765625,0.0
1676922074.0840752,74.70703125,-804.19921875,-1.46484375,75.1953125,0.0
1676922074.087828,74.70703125,-833.49609375,-3.90625,66.89453125,0.0
1676922074.0915806,95.21484375,-781.25,-1.46484375,69.82421875,0.0
1676922074.095333,72.75390625,-935.05859375,0.48828125,96.6796875,0.0
1676922074.0990858,46.875,-668.9453125,-0.48828125,74.21875,0.0
1676922074.1028385,60.05859375,-500.48828125,-7.32421875,44.43359375,0.0
1676922074.1065912,65.4296875,-809.5703125,-9.765625,52.24609375,0.0
1676922074.1104476,62.98828125,-833.49609375,-1.953125,64.453125,0.0
1676922074.114304,80.56640625,-529.78515625,-6.34765625,62.5,0.0
1676922074.1181602,77.1484375,-553.22265625,-6.34765625,65.4296875,0.0
1676922074.1220167,52.734375,-866.69921875,0.0,84.47265625,0.0
1676922074.125873,66.40625,-829.1015625,-1.953125,85.44921875,0.0
1676922074.1297293,71.77734375,-806.640625,-1.953125,81.0546875,0.0
1676922074.1335857,47.36328125,-941.89453125,0.9765625,46.38671875,0.0
1676922074.137442,53.7109375,-973.6328125,3.90625,42.96875,0.0
1676922074.1412985,54.6875,-818.84765625,5.37109375,45.8984375,0.0
1676922074.145155,58.59375,-551.7578125,1.46484375,41.9921875,0.0
1676922074.1490111,69.3359375,-605.95703125,4.39453125,62.98828125,0.0
1676922074.1528676,58.59375,-731.4453125,6.34765625,76.171875,0.0
1676922074.1565132,52.24609375,-557.12890625,-2.44140625,62.98828125,0.0
1676922074.1601589,64.453125,-439.94140625,-5.37109375,58.10546875,0.0
1676922074.1638045,58.10546875,-681.640625,3.90625,84.47265625,0.0
1676922074.1674502,55.17578125,-845.703125,1.46484375,88.37890625,0.0
1676922074.1710958,60.546875,-593.26171875,-3.90625,62.5,0.0
1676922074.1747413,52.24609375,-757.32421875,-1.953125,63.96484375,0.0
1676922074.178387,71.2890625,-995.60546875,-3.90625,63.96484375,0.0
1676922074.1820326,87.890625,-995.60546875,-5.859375,80.078125,0.0
1676922074.1856782,69.3359375,-721.19140625,-5.859375,70.80078125,0.0
1676922074.189324,46.875,-484.86328125,-8.7890625,63.96484375,0.0
1676922074.1929696,72.265625,-708.49609375,-5.859375,91.30859375,0.0
1676922074.1966152,95.21484375,-733.3984375,-0.9765625,111.328125,0.0
1676922074.200363,92.28515625,-550.29296875,-3.41796875,100.09765625,0.0
1676922074.2041106,72.75390625,-550.29296875,-6.8359375,89.35546875,0.0
1676922074.2078586,73.2421875,-812.01171875,-7.32421875,103.515625,0.0
1676922074.2116063,85.9375,-772.94921875,-8.7890625,102.5390625,0.0
1676922074.215354,88.8671875,-633.7890625,-3.90625,100.5859375,0.0
1676922074.219102,82.51953125,-858.88671875,-5.37109375,99.12109375,0.0
1676922074.2228496,86.42578125,-1000.0,-3.41796875,122.0703125,0.0
1676922074.2265973,84.9609375,-905.76171875,5.859375,113.76953125,0.0
1676922074.230345,85.9375,-625.0,2.44140625,69.3359375,0.0
1676922074.2340927,75.1953125,-627.9296875,2.9296875,71.77734375,0.0
1676922074.2378407,72.75390625,-880.37109375,8.7890625,77.1484375,0.0
1676922074.2415884,76.66015625,-683.59375,3.90625,73.2421875,0.0
1676922074.2453578,66.40625,-508.30078125,-1.46484375,76.171875,0.0
1676922074.2491274,62.01171875,-689.94140625,0.0,80.56640625,0.0
1676922074.2528968,91.30859375,-817.87109375,4.8828125,90.33203125,0.0
1676922074.2566662,103.02734375,-662.109375,-0.48828125,80.078125,0.0
1676922074.2604358,48.33984375,-562.01171875,-2.9296875,78.125,0.0
1676922074.2642052,57.12890625,-826.66015625,1.46484375,89.84375,0.0
1676922074.2679746,83.0078125,-961.9140625,-4.8828125,74.70703125,0.0
1676922074.2717443,82.51953125,-641.11328125,-9.27734375,56.15234375,0.0
1676922074.2755136,67.3828125,-598.14453125,-4.39453125,66.89453125,0.0
1676922074.279283,61.03515625,-902.34375,-1.46484375,88.37890625,0.0
1676922074.2830527,69.82421875,-981.4453125,-3.41796875,73.73046875,0.0
1676922074.286822,63.96484375,-655.2734375,-0.48828125,64.453125,0.0
1676922074.2918024,65.91796875,-595.703125,1.953125,78.61328125,0.0
1676922074.2967827,68.84765625,-886.71875,-7.8125,72.75390625,0.0
1676922074.301763,65.91796875,-779.78515625,-10.25390625,73.73046875,0.0
1676922074.3067434,55.17578125,-551.7578125,-11.23046875,65.91796875,0.0
1676922074.3117237,57.12890625,-594.7265625,-9.27734375,58.59375,0.0
1676922074.316704,69.3359375,-915.0390625,-3.41796875,80.56640625,0.0
1676922074.3216844,67.87109375,-972.16796875,-7.8125,84.9609375,0.0
1676922074.3266647,52.734375,-622.0703125,-15.13671875,66.40625,0.0
1676922074.331645,48.33984375,-620.60546875,-14.6484375,54.19921875,0.0
1676922074.3366253,77.63671875,-936.03515625,-18.06640625,74.70703125,0.0
1676922074.3416057,89.35546875,-769.53125,-15.625,74.21875,0.0
1676922074.346586,77.63671875,-653.80859375,-15.13671875,69.82421875,0.0
1676922074.3503325,84.9609375,-900.87890625,-17.578125,83.984375,0.0
1676922074.354079,84.9609375,-936.03515625,-16.6015625,80.56640625,0.0
1676922074.3578253,75.68359375,-639.6484375,-17.08984375,59.5703125,0.0
1676922074.3615718,65.91796875,-523.4375,-19.53125,46.38671875,0.0
1676922074.3653183,58.59375,-734.375,-19.53125,56.15234375,0.0
1676922074.3690648,71.2890625,-979.98046875,-14.6484375,71.2890625,0.0
1676922074.3728113,74.70703125,-902.34375,-13.671875,71.2890625,0.0
1676922074.3765578,69.3359375,-612.3046875,-10.25390625,50.29296875,0.0
1676922074.3803043,64.94140625,-748.046875,-4.39453125,64.453125,0.0
1676922074.3840506,75.1953125,-955.078125,-4.39453125,80.078125,0.0
1676922074.387797,91.30859375,-684.5703125,-3.90625,54.19921875,0.0
1676922074.3915436,71.77734375,-742.67578125,-7.32421875,46.875,0.0
1676922074.3952956,72.265625,-927.734375,-6.34765625,65.4296875,0.0
1676922074.3990476,65.91796875,-705.56640625,0.48828125,80.56640625,0.0
1676922074.4027996,66.89453125,-649.4140625,0.9765625,76.171875,0.0
1676922074.4065516,75.68359375,-876.46484375,-4.39453125,71.2890625,0.0
1676922074.4103036,87.890625,-971.19140625,-2.9296875,81.54296875,0.0
1676922074.4140553,85.9375,-1000.0,-3.90625,69.3359375,0.0
1676922074.4178073,59.08203125,-835.44921875,-9.765625,51.26953125,0.0
1676922074.4215593,55.17578125,-696.77734375,-5.37109375,68.359375,0.0
1676922074.4253113,68.359375,-929.19921875,2.9296875,84.47265625,0.0
1676922074.4290633,66.40625,-794.921875,1.953125,79.1015625,0.0
1676922074.4328153,51.7578125,-431.15234375,-5.859375,77.63671875,0.0
1676922074.4365673,56.15234375,-538.0859375,-6.8359375,73.73046875,0.0
1676922074.44157,79.1015625,-788.57421875,0.9765625,71.77734375,0.0
1676922074.4465728,64.94140625,-605.95703125,-8.7890625,68.84765625,0.0
1676922074.4515753,47.36328125,-488.28125,-10.25390625,79.58984375,0.0
1676922074.456578,62.98828125,-645.01953125,-0.48828125,73.73046875,0.0
1676922074.4615808,66.89453125,-777.34375,-0.9765625,62.01171875,0.0
1676922074.4665835,72.75390625,-877.9296875,-5.859375,68.84765625,0.0
1676922074.4715862,83.49609375,-909.1796875,-10.25390625,63.4765625,0.0
1676922074.476589,74.70703125,-923.828125,-11.23046875,72.75390625,0.0
1676922074.4815917,84.9609375,-994.140625,-13.671875,81.0546875,0.0
1676922074.4865942,94.23828125,-713.37890625,-12.6953125,52.734375,0.0
1676922074.491597,99.609375,-513.671875,-5.859375,58.59375,0.0
1676922074.4965997,107.91015625,-739.74609375,-7.8125,84.9609375,0.0
1676922074.4991019,69.82421875,-727.5390625,-12.20703125,73.2421875,0.0
1676922074.501604,60.546875,-526.3671875,-13.18359375,63.4765625,0.0
1676922074.5041065,77.1484375,-588.8671875,-9.765625,79.58984375,0.0
1676922074.5066087,82.51953125,-856.4453125,-10.25390625,91.30859375,0.0
1676922074.509111,92.7734375,-776.85546875,-15.625,78.125,0.0
1676922074.5116131,88.8671875,-815.91796875,-15.625,73.73046875,0.0
1676922074.5141153,76.66015625,-973.14453125,-13.671875,88.37890625,0.0
1676922074.5166175,75.1953125,-922.8515625,-12.6953125,91.30859375,0.0
1676922074.5191197,75.68359375,-824.70703125,-15.625,81.0546875,0.0
1676922074.5216222,83.0078125,-799.8046875,-15.13671875,71.77734375,0.0
1676922074.5241244,99.12109375,-704.58984375,-11.71875,67.3828125,0.0
1676922074.5266266,85.9375,-924.31640625,-11.71875,71.77734375,0.0
1676922074.530374,67.3828125,-898.4375,-7.8125,73.73046875,0.0
1676922074.5341215,78.61328125,-580.078125,-2.9296875,71.2890625,0.0
1676922074.5378692,112.79296875,-618.65234375,-5.37109375,58.10546875,0.0
1676922074.5416167,78.125,-714.84375,-6.8359375,51.7578125,0.0
1676922074.5453641,55.6640625,-566.40625,-9.765625,54.19921875,0.0
1676922074.5491118,65.4296875,-736.328125,-15.625,54.19921875,0.0
1676922074.5528593,70.80078125,-1000.0,-11.23046875,57.12890625,0.0
1676922074.5566068,79.1015625,-930.6640625,-1.953125,59.5703125,0.0
1676922074.5603542,78.61328125,-584.9609375,0.48828125,41.50390625,0.0
1676922074.5641017,73.73046875,-447.265625,-0.9765625,36.1328125,0.0
1676922074.5678494,38.57421875,-652.83203125,-2.9296875,37.109375,0.0
1676922074.5715969,44.43359375,-748.53515625,-3.41796875,43.9453125,0.0
1676922074.5754535,69.3359375,-653.3203125,0.48828125,48.33984375,0.0
1676922074.5793102,64.453125,-470.703125,0.48828125,31.25,0.0
1676922074.5831666,72.265625,-715.33203125,-3.41796875,35.15625,0.0
1676922074.5870233,56.640625,-674.8046875,-6.8359375,41.015625,0.0
1676922074.59088,44.43359375,-417.96875,-10.7421875,41.9921875,0.0
1676922074.5947366,62.5,-677.24609375,-3.90625,58.59375,0.0
1676922074.5985932,70.80078125,-951.66015625,2.44140625,65.91796875,0.0
1676922074.60245,59.5703125,-745.1171875,-4.39453125,61.03515625,0.0
1676922074.6063066,72.265625,-382.8125,-6.34765625,55.6640625,0.0
1676922074.610163,79.58984375,-478.515625,-2.9296875,58.59375,0.0
1676922074.6140196,66.89453125,-651.85546875,-2.9296875,47.36328125,0.0
1676922074.6178763,86.9140625,-450.1953125,-6.34765625,40.0390625,0.0
1676922074.6215422,84.9609375,-333.984375,-3.41796875,60.546875,0.0
1676922074.6252081,77.1484375,-457.51953125,-5.37109375,62.98828125,0.0
1676922074.628874,70.3125,-667.96875,-13.671875,57.6171875,0.0
1676922074.63254,72.265625,-716.796875,-14.16015625,45.8984375,0.0
1676922074.636206,83.984375,-510.25390625,-12.20703125,44.921875,0.0
1676922074.6398716,91.30859375,-684.5703125,-7.32421875,88.8671875,0.0
1676922074.6435375,94.23828125,-1000.0,-5.37109375,101.07421875,0.0
1676922074.6472034,70.3125,-812.5,-8.30078125,56.15234375,0.0
1676922074.6508694,58.59375,-469.23828125,-11.71875,47.8515625,0.0
1676922074.6545353,76.66015625,-643.5546875,-15.13671875,70.3125,0.0
1676922074.6582012,62.5,-717.28515625,-14.6484375,67.3828125,0.0
1676922074.6618671,53.22265625,-480.95703125,-14.6484375,46.38671875,0.0
1676922074.6668496,76.66015625,-518.5546875,-14.16015625,53.22265625,0.0
1676922074.671832,90.33203125,-752.44140625,-10.25390625,83.984375,0.0
1676922074.6768143,81.54296875,-680.6640625,-14.16015625,76.66015625,0.0
1676922074.6817968,81.54296875,-459.9609375,-18.06640625,49.8046875,0.0
1676922074.6867793,98.6328125,-519.53125,-12.6953125,58.10546875,0.0
1676922074.6917615,55.6640625,-861.81640625,-0.48828125,84.9609375,0.0
1676922074.696744,39.55078125,-972.16796875,-1.46484375,81.54296875,0.0
1676922074.7017264,66.89453125,-751.953125,-10.25390625,75.1953125,0.0
1676922074.706709,81.54296875,-579.1015625,-12.20703125,69.82421875,0.0
1676922074.7116914,82.03125,-910.64453125,-8.30078125,64.453125,0.0
1676922074.7166736,85.9375,-895.5078125,-3.41796875,81.54296875,0.0
1676922074.721656,89.35546875,-508.30078125,-2.9296875,90.8203125,0.0
1676922074.7254038,70.3125,-574.21875,-3.41796875,69.3359375,0.0
1676922074.7291515,78.125,-694.82421875,-4.39453125,60.546875,0.0
1676922074.7328992,79.58984375,-522.4609375,-6.34765625,81.0546875,0.0
1676922074.7366467,62.98828125,-473.14453125,-8.7890625,84.47265625,0.0
1676922074.7403944,71.77734375,-624.51171875,-6.8359375,80.078125,0.0
1676922074.744142,83.984375,-916.015625,-4.8828125,69.3359375,0.0
1676922074.7478898,69.3359375,-788.57421875,-10.7421875,65.91796875,0.0
1676922074.7516375,66.40625,-495.60546875,-10.25390625,63.4765625,0.0
1676922074.755385,82.51953125,-725.5859375,-5.37109375,80.078125,0.0
1676922074.7591326,91.796875,-1000.0,-3.90625,104.00390625,0.0
1676922074.7628803,81.54296875,-668.9453125,-2.44140625,82.03125,0.0
1676922074.766628,62.5,-442.87109375,-2.9296875,71.77734375,0.0
1676922074.7703743,56.15234375,-715.8203125,-7.32421875,72.75390625,0.0
1676922074.7741203,65.4296875,-708.984375,-8.7890625,58.59375,0.0
1676922074.7778666,85.44921875,-463.8671875,-7.8125,54.6875,0.0
1676922074.7816126,83.984375,-483.3984375,-8.7890625,58.59375,0.0
1676922074.785359,80.56640625,-730.95703125,-4.8828125,65.91796875,0.0
1676922074.789105,67.3828125,-883.7890625,-0.9765625,73.73046875,0.0
1676922074.7928512,79.58984375,-878.90625,2.44140625,59.5703125,0.0
1676922074.7965975,84.47265625,-699.70703125,-2.44140625,46.38671875,0.0
1676922074.8003435,74.70703125,-909.66796875,-10.25390625,62.98828125,0.0
1676922074.8040898,83.49609375,-802.24609375,-10.7421875,59.5703125,0.0
1676922074.8078358,81.54296875,-479.98046875,-8.7890625,55.6640625,0.0
1676922074.811582,73.73046875,-775.87890625,-5.37109375,70.80078125,0.0
1676922074.8153853,77.1484375,-916.015625,-10.25390625,78.61328125,0.0
1676922074.8191886,66.89453125,-645.99609375,-11.71875,70.3125,0.0
1676922074.8229918,71.2890625,-515.625,-11.23046875,40.0390625,0.0
1676922074.826795,71.2890625,-633.30078125,-14.6484375,49.31640625,0.0
1676922074.8305984,62.5,-817.87109375,-10.7421875,60.546875,0.0
1676922074.8344016,59.08203125,-851.07421875,-8.30078125,56.640625,0.0
1676922074.838205,69.3359375,-881.34765625,-6.8359375,51.26953125,0.0
1676922074.8420084,82.51953125,-891.11328125,-0.9765625,62.5,0.0
1676922074.8458116,75.1953125,-937.01171875,1.953125,74.21875,0.0
1676922074.8496149,68.359375,-655.76171875,-0.9765625,58.59375,0.0
1676922074.853418,81.54296875,-453.125,-5.859375,45.41015625,0.0
1676922074.8572214,65.4296875,-687.98828125,-3.41796875,44.43359375,0.0
1676922074.8609257,61.5234375,-670.8984375,-7.32421875,73.73046875,0.0
1676922074.8646297,74.70703125,-443.84765625,-15.13671875,86.42578125,0.0
1676922074.8683338,94.23828125,-560.05859375,-12.6953125,76.171875,0.0
1676922074.8720381,116.69921875,-850.5859375,-11.71875,68.84765625,0.0
1676922074.8757424,103.515625,-658.69140625,-9.27734375,57.12890625,0.0
1676922074.8794465,70.80078125,-694.82421875,-4.39453125,68.359375,0.0
1676922074.8831506,74.21875,-911.1328125,-3.90625,71.2890625,0.0
1676922074.886855,90.8203125,-969.23828125,-4.8828125,62.98828125,0.0
1676922074.8905592,86.9140625,-829.58984375,-2.44140625,60.05859375,0.0
1676922074.8942633,92.28515625,-460.9375,-2.9296875,66.89453125,0.0
1676922074.8979673,97.16796875,-540.0390625,-2.9296875,71.2890625,0.0
1676922074.9016716,90.8203125,-750.0,-2.44140625,65.91796875,0.0
1676922074.905415,86.42578125,-575.1953125,-1.953125,67.87109375,0.0
1676922074.9091587,87.890625,-422.8515625,-1.953125,62.98828125,0.0
1676922074.912902,91.796875,-601.07421875,-8.7890625,50.78125,0.0
1676922074.9166455,99.609375,-720.21484375,-8.30078125,59.08203125,0.0
1676922074.9203892,86.9140625,-587.40234375,-1.953125,70.80078125,0.0
1676922074.9241326,81.54296875,-781.25,-4.39453125,66.40625,0.0
1676922074.927876,95.21484375,-917.96875,-5.859375,73.2421875,0.0
1676922074.9316196,90.8203125,-984.375,-3.41796875,88.37890625,0.0
1676922074.935363,73.73046875,-787.109375,-5.859375,80.078125,0.0
1676922074.9391065,65.4296875,-462.40234375,-3.41796875,66.89453125,0.0
1676922074.94285,68.84765625,-639.6484375,-1.46484375,62.01171875,0.0
1676922074.9465935,83.0078125,-637.20703125,-0.48828125,62.98828125,0.0
1676922074.9503527,78.125,-397.4609375,-1.953125,56.640625,0.0
1676922074.9541116,82.51953125,-381.34765625,-6.34765625,62.5,0.0
1676922074.9578707,83.984375,-695.3125,-6.34765625,86.42578125,0.0
1676922074.9616299,95.21484375,-725.5859375,-4.8828125,79.58984375,0.0
