timestamps,TP9,Fp1,Fp2,TP10,stim
1676924010.3460708,42.96875,192.87109375,178.7109375,132.32421875,0.0
1676924010.3498237,52.24609375,343.26171875,300.78125,108.3984375,0.0
1676924010.3535767,38.57421875,107.421875,138.18359375,139.6484375,0.0
1676924010.3573298,35.64453125,166.015625,188.96484375,166.9921875,0.0
1676924010.3611794,61.5234375,125.48828125,171.38671875,140.13671875,0.0
1676924010.3650286,52.734375,56.640625,95.703125,97.65625,0.0
1676924010.3688781,29.296875,-105.46875,-17.578125,117.1875,0.0
1676924010.3727276,32.71484375,-2.9296875,50.78125,150.390625,0.0
1676924010.376577,44.921875,263.18359375,226.07421875,124.0234375,0.0
1676924010.3804264,35.64453125,41.50390625,73.2421875,53.7109375,0.0
1676924010.384276,14.16015625,-483.88671875,-295.41015625,58.10546875,0.0
1676924010.3881252,10.7421875,-249.51171875,-132.32421875,97.65625,0.0
1676924010.3919747,37.59765625,335.9375,288.57421875,102.05078125,0.0
1676924010.3958242,56.640625,81.0546875,95.21484375,67.87109375,0.0
1676924010.3996735,58.10546875,-42.48046875,-24.90234375,70.3125,0.0
1676924010.403523,40.52734375,233.3984375,169.43359375,128.41796875,0.0
1676924010.4071708,45.41015625,300.78125,223.6328125,148.4375,0.0
1676924010.4108183,62.01171875,25.390625,17.08984375,125.0,0.0
1676924010.4144661,58.59375,-136.23046875,-96.19140625,119.140625,0.0
1676924010.4181137,52.734375,-64.94140625,-42.48046875,159.1796875,0.0
1676924010.4217615,44.43359375,84.47265625,69.82421875,189.453125,0.0
1676924010.4254093,46.38671875,-269.04296875,-166.9921875,193.84765625,0.0
1676924010.429057,48.828125,-858.88671875,-599.12109375,173.33984375,0.0
1676924010.4327047,53.7109375,-225.09765625,-160.64453125,180.6640625,0.0
1676924010.4363523,52.24609375,244.140625,190.4296875,244.62890625,0.0
1676924010.44,48.828125,18.06640625,34.66796875,240.234375,0.0
1676924010.4436476,57.6171875,67.3828125,49.31640625,175.78125,0.0
1676924010.4472954,71.77734375,282.71484375,214.35546875,191.89453125,0.0
1676924010.4523075,47.8515625,187.01171875,154.296875,246.09375,0.0
1676924010.4573197,31.25,27.34375,51.26953125,261.71875,0.0
1676924010.4623318,67.3828125,158.203125,171.38671875,209.47265625,0.0
1676924010.4673438,58.10546875,315.4296875,302.734375,182.6171875,0.0
1676924010.472356,7.32421875,181.640625,238.76953125,236.328125,0.0
1676924010.477368,-20.99609375,-200.1953125,-15.13671875,255.859375,0.0
1676924010.4823802,-3.41796875,-251.953125,-46.38671875,193.359375,0.0
1676924010.4873924,4.8828125,-14.16015625,138.18359375,150.87890625,0.0
1676924010.4924045,-7.8125,83.984375,246.58203125,183.10546875,0.0
1676924010.4974165,-40.0390625,-586.9140625,-205.078125,208.49609375,0.0
1676924010.5024288,-34.66796875,-404.78515625,-82.51953125,172.8515625,0.0
1676924010.5074408,-3.41796875,343.75,454.1015625,97.65625,0.0
1676924010.5111797,-20.5078125,103.02734375,319.82421875,121.58203125,0.0
1676924010.5149188,-32.71484375,-20.5078125,239.74609375,165.0390625,0.0
1676924010.5186577,-18.5546875,246.09375,411.1328125,125.48828125,0.0
1676924010.5223968,-7.8125,290.0390625,441.89453125,77.1484375,0.0
1676924010.5261357,-7.8125,44.921875,285.15625,89.84375,0.0
1676924010.5298748,-26.3671875,-269.04296875,72.265625,141.11328125,0.0
1676924010.5336137,-23.4375,-112.79296875,194.3359375,162.59765625,0.0
1676924010.5373526,8.30078125,253.90625,439.453125,111.328125,0.0
1676924010.5410917,16.11328125,-271.97265625,49.8046875,90.8203125,0.0
1676924010.5448306,0.48828125,-822.265625,-366.2109375,144.53125,0.0
1676924010.5485697,6.34765625,-62.5,152.83203125,144.53125,0.0
1676924010.5523086,22.94921875,285.64453125,427.734375,106.4453125,0.0
1676924010.5560575,24.90234375,16.6015625,229.98046875,64.94140625,0.0
1676924010.559806,18.5546875,92.28515625,264.16015625,90.8203125,0.0
1676924010.5635548,10.7421875,263.671875,391.6015625,137.20703125,0.0
1676924010.5673037,34.66796875,142.08984375,314.94140625,118.1640625,0.0
1676924010.5710526,44.43359375,-27.34375,177.24609375,62.01171875,0.0
1676924010.5748012,24.4140625,-164.55078125,52.24609375,65.4296875,0.0
1676924010.5785499,16.6015625,-118.65234375,93.75,111.328125,0.0
1676924010.5822988,45.8984375,57.6171875,252.9296875,103.515625,0.0
1676924010.5860476,58.10546875,-451.171875,-111.81640625,55.17578125,0.0
1676924010.5897963,57.12890625,-255.859375,-23.92578125,52.24609375,0.0
1676924010.593545,47.8515625,217.28515625,312.01171875,108.3984375,0.0
1676924010.5972939,46.875,-214.35546875,44.921875,110.3515625,0.0
1676924010.601046,83.984375,-223.6328125,26.85546875,67.87109375,0.0
1676924010.6047983,98.6328125,205.078125,310.05859375,50.29296875,0.0
1676924010.6085508,90.8203125,298.828125,392.08984375,75.1953125,0.0
1676924010.612303,80.078125,33.69140625,234.375,100.09765625,0.0
1676924010.6160553,95.21484375,-100.09765625,130.859375,75.68359375,0.0
1676924010.6198077,121.58203125,-59.5703125,143.5546875,46.875,0.0
1676924010.62356,116.69921875,-16.6015625,194.82421875,94.7265625,0.0
1676924010.6273122,102.5390625,-297.36328125,9.27734375,153.3203125,0.0
1676924010.6310644,119.62890625,-470.21484375,-124.0234375,133.7890625,0.0
1676924010.6348166,138.18359375,239.74609375,363.76953125,85.9375,0.0
1676924010.638569,121.58203125,380.37109375,450.1953125,100.09765625,0.0
1676924010.6423213,112.79296875,137.20703125,271.97265625,151.85546875,0.0
1676924010.6460748,126.953125,240.234375,340.33203125,169.43359375,0.0
1676924010.649828,144.04296875,420.8984375,463.8671875,117.67578125,0.0
1676924010.6535814,140.625,200.68359375,298.33984375,104.00390625,0.0
1676924010.6573346,111.328125,-115.72265625,54.19921875,169.43359375,0.0
1676924010.661088,126.953125,83.49609375,183.10546875,198.2421875,0.0
1676924010.6648412,173.33984375,144.53125,238.76953125,182.12890625,0.0
1676924010.6685946,187.98828125,-4.8828125,166.9921875,185.546875,0.0
1676924010.672348,174.31640625,-318.359375,-45.41015625,250.0,0.0
1676924010.6761012,176.26953125,-6.8359375,162.59765625,306.640625,0.0
1676924010.6798546,223.6328125,602.05078125,602.05078125,325.1953125,0.0
1676924010.6836078,274.90234375,369.62890625,456.54296875,351.07421875,0.0
1676924010.6873612,302.734375,251.46484375,403.80859375,424.31640625,0.0
1676924010.691087,305.17578125,516.11328125,597.16796875,519.53125,0.0
1676924010.6948128,322.265625,640.625,690.4296875,537.59765625,0.0
1676924010.6985383,340.33203125,434.08203125,559.08203125,500.48828125,0.0
1676924010.702264,346.6796875,433.59375,572.265625,515.13671875,0.0
1676924010.7059898,334.47265625,624.51171875,737.3046875,582.51953125,0.0
1676924010.7097154,347.16796875,529.296875,697.75390625,605.95703125,0.0
1676924010.7134411,369.140625,111.328125,417.96875,561.5234375,0.0
1676924010.717167,337.890625,-303.7109375,141.11328125,544.921875,0.0
1676924010.7208927,313.96484375,416.9921875,654.78515625,559.5703125,0.0
1676924010.7246184,315.4296875,833.0078125,985.3515625,561.03515625,0.0
1676924010.728344,329.58984375,592.7734375,851.5625,515.13671875,0.0
1676924010.7320697,330.078125,701.171875,904.296875,469.7265625,0.0
1676924010.735839,313.4765625,901.3671875,984.375,485.3515625,0.0
1676924010.739608,286.1328125,833.0078125,968.75,492.1875,0.0
1676924010.7433772,265.13671875,612.79296875,914.55078125,478.515625,0.0
1676924010.7471464,284.66796875,728.515625,924.8046875,438.96484375,0.0
1676924010.7509155,291.9921875,859.375,989.74609375,444.82421875,0.0
1676924010.754685,262.6953125,603.02734375,916.50390625,477.05078125,0.0
1676924010.758454,280.2734375,124.51171875,595.703125,484.375,0.0
1676924010.7622232,328.61328125,372.0703125,728.515625,465.8203125,0.0
1676924010.7659924,341.30859375,762.20703125,-979.00390625,491.69921875,0.0
1676924010.7697616,318.84765625,558.10546875,933.10546875,556.640625,0.0
1676924010.7735307,298.828125,433.59375,831.54296875,540.0390625,0.0
1676924010.7773,322.265625,787.59765625,931.15234375,462.40234375,0.0
1676924010.7810645,330.078125,-957.51953125,994.140625,425.78125,0.0
1676924010.7848294,256.34765625,806.15234375,929.6875,412.109375,0.0
1676924010.788594,186.5234375,738.28125,927.24609375,365.72265625,0.0
1676924010.7923586,164.55078125,910.64453125,958.0078125,245.1171875,0.0
1676924010.7961235,120.1171875,916.015625,-989.2578125,123.046875,0.0
1676924010.7998881,37.59765625,328.61328125,607.91015625,79.1015625,0.0
1676924010.8036528,-49.8046875,-40.0390625,256.34765625,8.7890625,0.0
1676924010.8074176,-71.77734375,424.31640625,525.390625,-121.58203125,0.0
1676924010.8111823,-114.74609375,558.10546875,555.6640625,-256.8359375,0.0
1676924010.814947,-209.47265625,18.06640625,126.953125,-388.18359375,0.0
1676924010.8187118,-300.29296875,-174.31640625,-41.015625,-496.09375,0.0
1676924010.8224764,-322.75390625,-5.859375,37.59765625,-543.9453125,0.0
1676924010.8274844,-306.15234375,2.9296875,17.578125,-590.8203125,0.0
1676924010.8324924,-310.546875,-236.81640625,-162.109375,-578.61328125,0.0
1676924010.8375,-322.265625,-245.1171875,-201.66015625,-509.765625,0.0
1676924010.842508,-312.01171875,24.4140625,-33.69140625,-483.88671875,0.0
1676924010.847516,-281.25,-96.19140625,-122.55859375,-490.72265625,0.0
1676924010.852524,-263.671875,-513.671875,-420.41015625,-484.86328125,0.0
1676924010.857532,-249.51171875,-504.8828125,-413.0859375,-436.5234375,0.0
1676924010.86254,-232.91015625,-105.46875,-118.65234375,-379.39453125,0.0
1676924010.867548,-211.42578125,-275.390625,-208.49609375,-373.53515625,0.0
1676924010.8725557,-199.70703125,-746.58203125,-592.28515625,-398.4375,0.0
1676924010.8775637,-202.1484375,-469.23828125,-421.38671875,-386.23046875,0.0
1676924010.8825717,-219.23828125,-129.39453125,-144.04296875,-359.86328125,0.0
1676924010.8864064,-229.00390625,-424.31640625,-360.83984375,-415.52734375,0.0
1676924010.8902411,-230.95703125,-622.0703125,-541.9921875,-509.765625,0.0
1676924010.894076,-275.390625,-570.80078125,-551.26953125,-541.9921875,0.0
1676924010.8979108,-337.40234375,-400.390625,-433.10546875,-558.10546875,0.0
1676924010.9017456,-344.23828125,-580.078125,-592.28515625,-601.07421875,0.0
1676924010.9055805,-341.30859375,-998.53515625,-955.078125,-684.5703125,0.0
1676924010.9094152,-360.83984375,-764.6484375,-779.296875,-748.046875,0.0
1676924010.91325,-376.953125,-434.5703125,-543.45703125,-724.609375,0.0
1676924010.9170847,-385.25390625,-743.1640625,-792.48046875,-693.84765625,0.0
1676924010.9209194,-366.2109375,-907.71484375,-950.68359375,-735.3515625,0.0
1676924010.9247544,-343.26171875,-530.2734375,-683.10546875,-752.9296875,0.0
1676924010.928589,-331.54296875,-566.89453125,-708.0078125,-679.19921875,0.0
1676924010.9322417,-312.5,-739.2578125,-848.14453125,-604.98046875,0.0
1676924010.935894,-256.8359375,-623.53515625,-754.39453125,-582.51953125,0.0
1676924010.9395466,-209.47265625,-480.46875,-655.76171875,-582.03125,0.0
1676924010.943199,-209.9609375,-573.2421875,-696.77734375,-500.0,0.0
1676924010.9468515,-201.66015625,-849.609375,-848.14453125,-377.9296875,0.0
1676924010.9505038,-143.5546875,-917.48046875,-910.15625,-296.875,0.0
1676924010.9541564,-98.14453125,-859.375,-869.62890625,-284.66796875,0.0
1676924010.957809,-77.1484375,-805.17578125,-799.31640625,-247.0703125,0.0
1676924010.9614613,-84.47265625,-962.890625,-945.3125,-156.73828125,0.0
1676924010.9651139,-62.01171875,-821.77734375,-854.4921875,-99.12109375,0.0
1676924010.9687662,-7.8125,-275.390625,-379.39453125,-106.4453125,0.0
1676924010.9724188,-3.41796875,-418.45703125,-441.89453125,-92.28515625,0.0
1676924010.9761524,-18.5546875,-549.8046875,-531.73828125,-13.671875,0.0
1676924010.979886,-6.34765625,-252.44140625,-307.12890625,32.71484375,0.0
1676924010.9836197,24.4140625,-180.17578125,-237.79296875,12.6953125,0.0
1676924010.9873533,22.4609375,-384.27734375,-365.72265625,-7.8125,0.0
1676924010.991087,-1.953125,-447.265625,-371.58203125,28.3203125,0.0
1676924010.9948206,-16.11328125,-440.91796875,-348.14453125,60.546875,0.0
1676924010.9985545,13.671875,-474.609375,-335.44921875,21.484375,0.0
1676924011.002288,22.4609375,-690.4296875,-461.9140625,-7.32421875,0.0
1676924011.0060217,6.8359375,-913.57421875,-717.7734375,47.8515625,0.0
1676924011.0097554,14.6484375,-255.37109375,-194.82421875,76.66015625,0.0
1676924011.013489,34.1796875,56.640625,111.328125,62.01171875,0.0
1676924011.0172226,53.7109375,-210.44921875,-82.51953125,17.578125,0.0
1676924011.0209923,49.8046875,-139.16015625,-47.36328125,27.34375,0.0
1676924011.0247617,33.203125,101.5625,119.140625,86.42578125,0.0
1676924011.0285313,43.9453125,35.15625,96.6796875,97.65625,0.0
1676924011.032301,62.01171875,-138.671875,-38.57421875,70.80078125,0.0
1676924011.0360703,62.98828125,-88.37890625,-20.5078125,68.359375,0.0
1676924011.03984,49.31640625,-193.359375,-83.984375,118.65234375,0.0
1676924011.0436096,34.66796875,-322.265625,-177.24609375,151.85546875,0.0
1676924011.047379,56.15234375,-649.90234375,-411.62109375,124.51171875,0.0
1676924011.0511487,76.171875,-387.6953125,-243.1640625,84.47265625,0.0
1676924011.0549183,77.1484375,167.48046875,132.32421875,126.953125,0.0
1676924011.0586877,55.17578125,-149.4140625,-64.94140625,184.5703125,0.0
1676924011.0624573,66.40625,-274.4140625,-145.5078125,156.25,0.0
1676924011.0661979,74.21875,68.84765625,53.7109375,99.609375,0.0
1676924011.0699384,56.15234375,201.171875,145.5078125,118.65234375,0.0
1676924011.073679,50.29296875,-126.953125,-53.22265625,168.45703125,0.0
1676924011.0774195,53.7109375,-230.95703125,-138.671875,155.2734375,0.0
1676924011.08116,57.12890625,83.49609375,62.01171875,86.9140625,0.0
1676924011.0849004,58.59375,-56.640625,-12.6953125,78.61328125,0.0
1676924011.088641,34.1796875,-533.69140625,-340.33203125,143.06640625,0.0
1676924011.0923815,13.18359375,-691.40625,-459.9609375,153.80859375,0.0
1676924011.096122,51.7578125,-3.41796875,22.4609375,71.77734375,0.0
1676924011.0998626,66.40625,205.56640625,173.33984375,32.2265625,0.0
1676924011.1036031,54.6875,-31.73828125,15.625,93.75,0.0
1676924011.1073437,45.8984375,39.55078125,65.4296875,145.5078125,0.0
1676924011.1111987,57.6171875,190.4296875,136.23046875,118.65234375,0.0
1676924011.115054,72.265625,-26.85546875,-24.4140625,81.0546875,0.0
1676924011.118909,69.3359375,-390.13671875,-281.25,112.79296875,0.0
1676924011.1227639,50.29296875,-156.25,-136.23046875,145.01953125,0.0
1676924011.126619,72.75390625,175.78125,111.81640625,123.046875,0.0
1676924011.130474,78.125,-96.19140625,-76.66015625,63.96484375,0.0
1676924011.134329,41.9921875,-664.0625,-492.1875,85.44921875,0.0
1676924011.1381843,40.52734375,-394.04296875,-310.05859375,148.92578125,0.0
1676924011.1420393,46.38671875,219.23828125,111.328125,127.9296875,0.0
1676924011.1458943,42.48046875,17.08984375,-26.85546875,65.4296875,0.0
1676924011.1497495,42.48046875,-124.0234375,-100.5859375,58.10546875,0.0
1676924011.1536045,43.9453125,123.046875,70.3125,113.76953125,0.0
1676924011.1572607,35.15625,226.07421875,138.18359375,131.34765625,0.0
1676924011.1609168,46.38671875,-27.34375,-25.390625,89.35546875,0.0
1676924011.1645727,72.75390625,-104.00390625,-87.890625,81.0546875,0.0
1676924011.1682289,55.17578125,103.02734375,61.03515625,127.44140625,0.0
1676924011.171885,30.2734375,-0.9765625,20.5078125,156.25,0.0
1676924011.175541,33.69140625,-416.9921875,-253.90625,146.484375,0.0
1676924011.179197,37.109375,-847.65625,-602.05078125,93.26171875,0.0
1676924011.1828532,39.0625,-213.37890625,-140.625,95.703125,0.0
1676924011.1865094,35.15625,234.86328125,235.3515625,150.390625,0.0
1676924011.1901655,38.57421875,-11.23046875,66.89453125,133.30078125,0.0
1676924011.1938214,41.015625,54.6875,91.30859375,76.171875,0.0
1676924011.1974776,36.1328125,225.09765625,202.63671875,78.61328125,0.0
1676924011.20248,2.9296875,127.9296875,164.0625,117.67578125,0.0
1676924011.2074823,-3.41796875,-94.23828125,45.8984375,128.90625,0.0
1676924011.2124848,22.4609375,24.90234375,127.44140625,88.37890625,0.0
1676924011.217487,21.484375,231.4453125,263.671875,70.80078125,0.0
1676924011.2224896,8.7890625,87.890625,168.9453125,112.79296875,0.0
1676924011.2274919,6.8359375,-246.58203125,-49.31640625,136.71875,0.0
1676924011.2324944,16.11328125,-290.0390625,-48.828125,102.5390625,0.0
1676924011.2374969,36.1328125,-115.72265625,67.87109375,62.98828125,0.0
1676924011.242499,28.80859375,25.390625,178.7109375,96.19140625,0.0
1676924011.2475016,-12.20703125,-566.89453125,-222.16796875,154.78515625,0.0
1676924011.2525039,19.04296875,-427.24609375,-126.953125,139.6484375,0.0
1676924011.2575064,57.6171875,279.78515625,379.8828125,89.35546875,0.0
1676924011.2612514,38.0859375,30.76171875,220.21484375,95.21484375,0.0
1676924011.2649965,22.4609375,-56.15234375,162.59765625,133.7890625,0.0
1676924011.2687416,46.38671875,243.1640625,380.859375,132.8125,0.0
1676924011.2724864,71.2890625,300.78125,449.70703125,89.84375,0.0
1676924011.2762315,64.94140625,-12.20703125,251.953125,83.984375,0.0
1676924011.2799766,41.50390625,-293.45703125,73.2421875,133.30078125,0.0
1676924011.2837217,32.71484375,-72.75390625,231.4453125,155.76171875,0.0
1676924011.2874668,70.3125,317.3828125,507.8125,115.72265625,0.0
1676924011.2912116,77.1484375,-153.3203125,183.10546875,106.93359375,0.0
1676924011.2949567,53.22265625,-574.70703125,-123.53515625,143.06640625,0.0
1676924011.2987018,55.17578125,-71.77734375,212.890625,150.390625,0.0
1676924011.3024468,71.77734375,199.70703125,413.57421875,119.140625,0.0
1676924011.3061855,73.2421875,-65.91796875,233.88671875,80.078125,0.0
1676924011.3099244,64.94140625,-45.41015625,238.76953125,100.09765625,0.0
1676924011.313663,54.19921875,318.359375,496.58203125,140.625,0.0
1676924011.3174016,65.91796875,237.79296875,434.08203125,120.1171875,0.0
1676924011.3211405,71.77734375,40.0390625,279.296875,66.89453125,0.0
1676924011.3248792,50.29296875,-78.61328125,191.89453125,93.26171875,0.0
1676924011.3286178,41.015625,53.7109375,279.78515625,145.99609375,0.0
1676924011.3323567,50.29296875,167.96875,361.328125,129.39453125,0.0
1676924011.3360953,55.6640625,-354.98046875,-8.30078125,69.3359375,0.0
1676924011.339834,51.7578125,-137.20703125,118.65234375,61.03515625,0.0
1676924011.3435729,58.59375,397.4609375,492.1875,111.328125,0.0
1676924011.3473115,66.89453125,129.39453125,309.08203125,125.0,0.0
1676924011.351188,77.1484375,-108.3984375,121.09375,85.44921875,0.0
1676924011.3550642,70.3125,-13.671875,168.9453125,53.22265625,0.0
1676924011.3589406,45.41015625,288.57421875,380.859375,78.61328125,0.0
1676924011.362817,28.3203125,21.484375,216.30859375,113.28125,0.0
1676924011.3666933,35.64453125,-270.01953125,-8.30078125,80.078125,0.0
1676924011.3705697,44.43359375,-73.2421875,110.83984375,46.875,0.0
1676924011.3744462,47.8515625,-8.7890625,191.40625,101.07421875,0.0
1676924011.3783224,32.71484375,-331.0546875,-4.8828125,160.64453125,0.0
1676924011.3821988,33.69140625,-507.8125,-152.83203125,145.01953125,0.0
1676924011.3860753,69.82421875,144.53125,266.6015625,89.84375,0.0
1676924011.3899515,64.94140625,265.13671875,385.25390625,99.12109375,0.0
1676924011.393828,39.0625,62.98828125,262.20703125,151.3671875,0.0
1676924011.3974535,37.109375,139.16015625,283.69140625,143.5546875,0.0
1676924011.4010792,58.59375,312.5,400.87890625,70.80078125,0.0
1676924011.4047048,48.828125,242.67578125,378.41796875,61.5234375,0.0
1676924011.4083304,28.3203125,-85.9375,157.2265625,126.46484375,0.0
1676924011.411956,30.2734375,-69.82421875,150.87890625,148.4375,0.0
1676924011.4155817,40.0390625,6.34765625,193.359375,100.09765625,0.0
1676924011.4192073,46.38671875,-113.28125,113.76953125,65.91796875,0.0
1676924011.422833,17.578125,-414.0625,-80.078125,113.76953125,0.0
1676924011.4264586,6.8359375,-175.29296875,83.984375,150.87890625,0.0
1676924011.4300842,42.96875,366.2109375,457.03125,117.67578125,0.0
1676924011.4337099,39.0625,88.37890625,270.01953125,63.4765625,0.0
1676924011.4373355,16.11328125,-310.05859375,-4.39453125,107.421875,0.0
1676924011.4410853,16.6015625,47.8515625,250.0,154.296875,0.0
1676924011.4448352,30.76171875,331.54296875,471.19140625,109.86328125,0.0
1676924011.448585,38.57421875,82.03125,313.4765625,62.01171875,0.0
1676924011.452335,38.57421875,39.0625,263.18359375,59.5703125,0.0
1676924011.4560847,14.16015625,229.98046875,393.5546875,98.14453125,0.0
1676924011.4598346,14.6484375,26.85546875,276.3671875,108.88671875,0.0
1676924011.4635847,40.0390625,-470.703125,-91.796875,78.125,0.0
1676924011.4673345,43.45703125,-499.0234375,-131.34765625,60.05859375,0.0
1676924011.4710844,11.23046875,151.3671875,318.84765625,102.05078125,0.0
1676924011.4748342,9.27734375,364.2578125,472.16796875,132.32421875,0.0
1676924011.478584,41.9921875,-247.0703125,54.19921875,88.8671875,0.0
1676924011.482334,28.3203125,-389.16015625,-69.3359375,39.0625,0.0
1676924011.486079,6.34765625,258.7890625,366.69921875,53.7109375,0.0
1676924011.4898238,-11.71875,217.7734375,338.37890625,90.8203125,0.0
1676924011.493569,0.48828125,17.08984375,200.1953125,86.9140625,0.0
1676924011.497314,20.01953125,90.8203125,214.84375,56.640625,0.0
1676924011.5010588,20.99609375,171.875,252.9296875,83.0078125,0.0
1676924011.504804,-0.48828125,-14.16015625,142.578125,133.7890625,0.0
1676924011.508549,2.44140625,-555.17578125,-235.83984375,136.23046875,0.0
1676924011.5122938,25.390625,-335.9375,-103.02734375,71.2890625,0.0
1676924011.516039,23.4375,273.4375,328.61328125,58.59375,0.0
1676924011.519784,8.7890625,-32.71484375,137.6953125,120.60546875,0.0
1676924011.5235288,7.32421875,-281.25,-28.80859375,124.51171875,0.0
1676924011.527274,24.4140625,108.3984375,232.91015625,66.40625,0.0
1676924011.5310242,28.80859375,338.37890625,394.53125,48.33984375,0.0
1676924011.5347745,8.30078125,48.33984375,215.33203125,87.40234375,0.0
1676924011.5385249,4.39453125,-77.63671875,144.04296875,112.79296875,0.0
1676924011.5422752,38.0859375,202.63671875,337.40234375,81.54296875,0.0
1676924011.5460255,61.03515625,270.01953125,379.39453125,38.57421875,0.0
1676924011.549776,29.296875,-317.3828125,-37.59765625,72.75390625,0.0
1676924011.5535264,-1.953125,-593.26171875,-246.09375,118.65234375,0.0
1676924011.5572767,29.296875,96.19140625,241.69921875,85.44921875,0.0
1676924011.561027,50.78125,257.8125,349.609375,34.1796875,0.0
1676924011.5647774,33.203125,-50.78125,148.92578125,68.359375,0.0
1676924011.5685277,16.6015625,-1.953125,192.87109375,114.74609375,0.0
1676924011.572278,43.45703125,244.62890625,357.91015625,108.3984375,0.0
1676924011.5772853,62.5,17.578125,201.66015625,43.45703125,0.0
1676924011.5822926,42.96875,-361.328125,-88.37890625,18.06640625,0.0
1676924011.5872996,24.90234375,-131.34765625,79.58984375,67.87109375,0.0
1676924011.5923069,34.1796875,267.578125,368.65234375,83.984375,0.0
1676924011.5973141,49.31640625,150.390625,282.2265625,43.9453125,0.0
1676924011.6023211,34.1796875,-264.16015625,-18.5546875,21.97265625,0.0
1676924011.6073284,4.39453125,-199.70703125,16.6015625,52.734375,0.0
1676924011.6123357,-0.48828125,229.98046875,316.40625,78.125,0.0
1676924011.617343,20.99609375,116.2109375,235.3515625,52.734375,0.0
1676924011.6223502,18.5546875,-376.953125,-114.74609375,-8.30078125,0.0
1676924011.6273572,12.6953125,-134.765625,33.203125,1.46484375,0.0
1676924011.6323645,17.08984375,275.390625,329.1015625,50.78125,0.0
1676924011.6361265,21.484375,29.296875,184.08203125,33.203125,0.0
1676924011.6398883,13.18359375,-61.5234375,102.05078125,-29.78515625,0.0
1676924011.6436503,0.9765625,115.234375,209.47265625,-27.83203125,0.0
1676924011.6474123,-8.30078125,-11.71875,159.1796875,33.69140625,0.0
1676924011.6511743,-2.44140625,-354.00390625,-82.03125,42.48046875,0.0
1676924011.6549363,17.578125,-552.24609375,-261.71875,-5.37109375,0.0
1676924011.658698,34.1796875,-245.60546875,-51.26953125,-1.46484375,0.0
1676924011.66246,24.4140625,143.06640625,228.515625,58.10546875,0.0
1676924011.666222,-4.8828125,-287.109375,-51.7578125,49.31640625,0.0
1676924011.6699839,-4.8828125,-604.4921875,-273.92578125,-9.27734375,0.0
1676924011.6737459,38.57421875,145.5078125,231.4453125,-20.5078125,0.0
1676924011.6775079,23.4375,276.85546875,340.33203125,28.80859375,0.0
1676924011.6812527,-19.04296875,9.765625,179.19921875,61.5234375,0.0
1676924011.6849976,14.16015625,105.46875,242.67578125,28.3203125,0.0
1676924011.6887424,41.50390625,291.9921875,370.60546875,-13.18359375,0.0
1676924011.6924872,43.45703125,194.82421875,321.2890625,1.953125,0.0
1676924011.696232,39.0625,-6.8359375,199.21875,28.80859375,0.0
1676924011.699977,40.0390625,-98.6328125,125.0,20.5078125,0.0
1676924011.7037218,56.15234375,-145.01953125,82.51953125,-26.3671875,0.0
1676924011.7074666,52.24609375,-68.84765625,149.4140625,-6.34765625,0.0
1676924011.7112114,16.6015625,-602.05078125,-206.54296875,50.78125,0.0
1676924011.7149563,20.99609375,-621.58203125,-242.1875,40.52734375,0.0
1676924011.7187011,47.36328125,169.43359375,285.15625,-20.01953125,0.0
1676924011.722446,25.87890625,21.97265625,180.6640625,-32.2265625,0.0
1676924011.7261682,-1.953125,-85.9375,126.953125,20.01953125,0.0
1676924011.7298906,4.39453125,193.359375,324.21875,34.66796875,0.0
1676924011.733613,21.97265625,263.671875,385.25390625,-6.8359375,0.0
1676924011.7373352,4.39453125,13.18359375,207.03125,-34.66796875,0.0
1676924011.7410574,-17.08984375,-99.12109375,117.1875,-5.37109375,0.0
1676924011.7447798,-28.3203125,-124.0234375,101.07421875,31.73828125,0.0
1676924011.7485023,-11.71875,-115.72265625,110.3515625,9.765625,0.0
1676924011.7522244,-6.34765625,-399.4140625,-86.42578125,-35.15625,0.0
1676924011.7559466,-23.92578125,-724.609375,-309.08203125,-11.23046875,0.0
1676924011.759669,-16.11328125,-130.859375,108.3984375,33.203125,0.0
1676924011.7633915,13.18359375,227.05078125,343.26171875,31.73828125,0.0
1676924011.7671137,20.99609375,-145.5078125,83.0078125,-5.37109375,0.0
1676924011.7708907,9.27734375,-123.53515625,91.796875,-13.18359375,0.0
1676924011.7746677,-8.7890625,311.5234375,404.296875,27.83203125,0.0
1676924011.7784448,-3.90625,208.984375,349.609375,43.9453125,0.0
1676924011.7822216,18.06640625,9.27734375,202.63671875,-6.8359375,0.0
1676924011.7859986,39.55078125,103.02734375,264.16015625,-24.4140625,0.0
1676924011.7897756,30.2734375,-35.64453125,180.17578125,26.3671875,0.0
1676924011.7935526,16.11328125,-206.0546875,72.75390625,45.41015625,0.0
1676924011.7973297,31.73828125,-427.24609375,-96.6796875,15.625,0.0
1676924011.8011065,41.50390625,-180.6640625,38.57421875,-18.5546875,0.0
1676924011.8048835,41.9921875,305.17578125,376.953125,-4.39453125,0.0
1676924011.8086605,2.9296875,102.5390625,277.83203125,30.76171875,0.0
1676924011.8124375,-13.18359375,-351.5625,-33.203125,6.8359375,0.0
1676924011.8162854,10.7421875,-143.5546875,76.171875,-54.6875,0.0
1676924011.8201332,8.7890625,316.89453125,382.32421875,-40.52734375,0.0
1676924011.8239813,-18.06640625,-19.04296875,145.01953125,20.99609375,0.0
1676924011.8278291,-21.97265625,-281.73828125,-35.15625,18.06640625,0.0
1676924011.831677,-0.9765625,91.796875,221.19140625,-43.9453125,0.0
1676924011.835525,-4.39453125,34.1796875,158.69140625,-52.24609375,0.0
1676924011.8393729,-24.4140625,-432.6171875,-154.296875,18.06640625,0.0
1676924011.8432207,-20.99609375,-563.96484375,-256.34765625,35.64453125,0.0
1676924011.8470685,-1.46484375,59.5703125,163.0859375,-36.1328125,0.0
1676924011.8509164,-0.48828125,226.07421875,302.24609375,-57.6171875,0.0
1676924011.8547645,-14.6484375,-20.5078125,119.62890625,12.6953125,0.0
1676924011.8586123,-24.4140625,-39.55078125,106.93359375,45.41015625,0.0
1676924011.8622503,7.32421875,222.65625,300.29296875,5.37109375,0.0
1676924011.8658886,16.11328125,192.3828125,284.66796875,-16.11328125,0.0
1676924011.8695269,-1.46484375,-165.52734375,38.0859375,22.94921875,0.0
1676924011.873165,-5.37109375,-44.43359375,108.88671875,48.33984375,0.0
1676924011.876803,16.6015625,181.15234375,262.6953125,20.5078125,0.0
1676924011.8804412,28.80859375,-18.06640625,131.8359375,-7.32421875,0.0
1676924011.8840795,-5.37109375,-658.69140625,-361.81640625,22.4609375,0.0
1676924011.8877175,-24.90234375,-654.78515625,-394.04296875,56.640625,0.0
1676924011.8913555,-0.48828125,213.37890625,264.6484375,30.2734375,0.0
1676924011.8949938,30.76171875,147.94921875,227.05078125,-20.5078125,0.0
1676924011.898632,22.4609375,2.44140625,130.859375,-16.6015625,0.0
1676924011.90227,-17.578125,181.15234375,242.1875,30.2734375,0.0
1676924011.9060373,-20.01953125,274.90234375,316.40625,50.78125,0.0
1676924011.9098046,-8.7890625,100.5859375,227.5390625,11.23046875,0.0
1676924011.9135718,-8.30078125,-61.5234375,91.30859375,-19.53125,0.0
1676924011.917339,-15.13671875,176.26953125,244.62890625,34.66796875,0.0
1676924011.9211063,-25.390625,177.24609375,247.55859375,63.4765625,0.0
1676924011.9248736,-7.32421875,-315.91796875,-106.4453125,29.78515625,0.0
1676924011.9286408,7.32421875,-587.890625,-316.40625,-14.6484375,0.0
1676924011.932408,-5.37109375,-167.48046875,-11.23046875,-4.39453125,0.0
1676924011.9361753,-8.30078125,267.08984375,329.1015625,43.9453125,0.0
1676924011.9399426,9.765625,-286.62109375,-38.0859375,51.26953125,0.0
1676924011.9437099,15.625,-598.6328125,-268.5546875,-0.9765625,0.0
1676924011.947477,34.1796875,140.13671875,227.5390625,7.8125,0.0
1676924011.9524655,31.73828125,189.453125,278.80859375,69.3359375,0.0
1676924011.9574537,24.90234375,1.953125,170.41015625,57.12890625,0.0
1676924011.9624422,30.76171875,76.66015625,216.796875,-6.8359375,0.0
1676924011.9674306,39.55078125,204.58984375,291.9921875,-28.3203125,0.0
1676924011.972419,37.59765625,123.046875,214.35546875,24.4140625,0.0
1676924011.9774075,28.80859375,-224.12109375,-5.37109375,63.96484375,0.0
1676924011.9823956,62.98828125,-119.140625,74.21875,22.4609375,0.0
1676924011.987384,78.61328125,191.89453125,269.53125,-16.11328125,0.0
1676924011.9923725,43.9453125,4.39453125,151.85546875,23.4375,0.0
1676924011.9973607,27.83203125,-649.90234375,-303.7109375,73.2421875,0.0
1676924012.0023491,67.3828125,-415.0390625,-153.80859375,55.6640625,0.0
1676924012.0073376,76.171875,292.96875,329.58984375,-6.8359375,0.0
1676924012.0110831,28.80859375,39.55078125,175.29296875,3.41796875,0.0
1676924012.0148287,20.5078125,-86.9140625,101.07421875,47.36328125,0.0
1676924012.018574,59.08203125,209.9609375,303.7109375,44.921875,0.0
1676924012.0223196,74.21875,312.98828125,371.58203125,-2.44140625,0.0
1676924012.026065,64.453125,49.8046875,180.6640625,-5.859375,0.0
1676924012.0298104,35.64453125,-303.22265625,-70.80078125,53.22265625,0.0
1676924012.033556,35.64453125,-89.35546875,86.42578125,74.21875,0.0
1676924012.0373015,77.1484375,296.875,356.4453125,20.99609375,0.0
1676924012.041047,58.59375,-248.53515625,-27.34375,7.8125,0.0
1676924012.0447927,22.4609375,-555.17578125,-237.3046875,66.40625,0.0
1676924012.048538,27.34375,93.75,213.8671875,78.61328125,0.0
1676924012.0522835,37.109375,-5.859375,145.99609375,54.19921875,0.0
1676924012.0560558,36.62109375,-180.17578125,26.3671875,26.3671875,0.0
1676924012.0598283,27.83203125,46.875,169.43359375,40.0390625,0.0
1676924012.0636005,22.4609375,258.7890625,333.49609375,75.1953125,0.0
1676924012.0673728,32.2265625,150.390625,273.92578125,50.78125,0.0
1676924012.0711453,44.921875,-241.2109375,-13.671875,19.04296875,0.0
1676924012.0749176,41.9921875,-342.7734375,-90.8203125,49.31640625,0.0
1676924012.0786898,13.671875,-149.4140625,38.57421875,68.359375,0.0
1676924012.0824623,11.71875,4.8828125,143.06640625,55.17578125,0.0
1676924012.0862346,31.73828125,-419.43359375,-155.76171875,23.4375,0.0
1676924012.0900068,39.55078125,-258.30078125,-57.12890625,11.71875,0.0
1676924012.0937793,32.2265625,339.35546875,366.69921875,65.4296875,0.0
1676924012.0975516,29.296875,93.26171875,204.1015625,104.00390625,0.0
1676924012.1013868,50.78125,-18.06640625,125.48828125,67.3828125,0.0
1676924012.105222,50.78125,146.97265625,225.09765625,32.2265625,0.0
1676924012.109057,41.9921875,5.37109375,145.01953125,51.7578125,0.0
1676924012.1128922,22.94921875,-319.82421875,-78.61328125,79.1015625,0.0
1676924012.1167274,27.83203125,-358.88671875,-114.74609375,52.24609375,0.0
1676924012.1205626,48.33984375,-209.9609375,-16.6015625,-1.46484375,0.0
1676924012.1243978,40.52734375,-13.671875,119.62890625,41.50390625,0.0
1676924012.128233,17.578125,-228.02734375,1.953125,104.00390625,0.0
1676924012.1320682,20.99609375,-516.6015625,-215.33203125,72.75390625,0.0
1676924012.1359031,52.734375,130.859375,210.9375,9.765625,0.0
1676924012.1397383,51.7578125,253.90625,313.96484375,23.4375,0.0
1676924012.1435735,33.69140625,-14.16015625,143.5546875,62.01171875,0.0
1676924012.1472013,33.69140625,71.77734375,202.1484375,60.546875,0.0
1676924012.1508293,49.31640625,267.578125,334.47265625,7.32421875,0.0
1676924012.154457,53.7109375,172.8515625,272.4609375,-3.41796875,0.0
1676924012.1580849,33.69140625,-9.765625,131.34765625,41.9921875,0.0
1676924012.161713,21.97265625,-11.23046875,121.58203125,57.6171875,0.0
1676924012.1653407,33.203125,-126.46484375,42.96875,21.484375,0.0
1676924012.1689684,46.38671875,-154.296875,24.4140625,-3.90625,0.0
1676924012.1725965,25.87890625,-642.08984375,-325.1953125,49.8046875,0.0
1676924012.1762242,5.37109375,-653.80859375,-349.609375,65.91796875,0.0
1676924012.179852,33.69140625,197.265625,265.13671875,16.6015625,0.0
1676924012.18348,46.38671875,116.2109375,201.171875,-18.5546875,0.0
1676924012.1871078,34.66796875,-57.12890625,70.80078125,0.48828125,0.0
1676924012.1908777,17.08984375,209.9609375,253.90625,45.8984375,0.0
1676924012.1946476,33.203125,295.41015625,313.96484375,38.57421875,0.0
1676924012.1984174,43.9453125,-35.15625,75.68359375,-14.6484375,0.0
1676924012.2021873,20.99609375,-83.49609375,22.94921875,-9.27734375,0.0
1676924012.2059572,10.7421875,143.5546875,172.36328125,40.52734375,0.0
1676924012.2097268,27.83203125,-30.2734375,60.546875,59.08203125,0.0
1676924012.2134967,36.62109375,-464.35546875,-240.72265625,28.80859375,0.0
1676924012.2172666,28.3203125,-745.1171875,-435.05859375,19.53125,0.0
1676924012.2210364,35.15625,-172.8515625,-25.390625,42.96875,0.0
1676924012.2248063,43.45703125,235.3515625,275.87890625,55.6640625,0.0
1676924012.2285762,46.38671875,-194.3359375,-22.4609375,37.59765625,0.0
1676924012.232346,36.62109375,-208.49609375,-46.875,3.90625,0.0
1676924012.236099,32.71484375,238.76953125,253.90625,39.0625,0.0
1676924012.239852,27.83203125,208.984375,234.86328125,80.56640625,0.0
1676924012.2436047,47.36328125,9.27734375,101.5625,60.05859375,0.0
1676924012.2473576,62.01171875,83.984375,127.44140625,9.27734375,0.0
1676924012.2511106,44.43359375,175.29296875,185.05859375,19.53125,0.0
1676924012.2548635,22.4609375,-63.4765625,30.76171875,69.3359375,0.0
1676924012.2586164,24.90234375,-574.21875,-320.3125,72.75390625,0.0
1676924012.2623694,45.8984375,-321.2890625,-143.06640625,22.94921875,0.0
1676924012.2661223,57.6171875,316.40625,309.08203125,24.4140625,0.0
1676924012.269875,37.59765625,126.46484375,198.2421875,71.2890625,0.0
1676924012.273628,15.13671875,-179.19921875,1.46484375,69.3359375,0.0
1676924012.277381,32.71484375,-168.9453125,-34.66796875,30.2734375,0.0
1676924012.2812386,48.828125,143.06640625,158.69140625,22.4609375,0.0
1676924012.2850962,25.87890625,-52.734375,47.36328125,65.91796875,0.0
1676924012.2889538,3.41796875,-387.20703125,-183.59375,86.42578125,0.0
1676924012.2928114,23.4375,55.17578125,108.3984375,39.55078125,0.0
1676924012.296669,45.41015625,258.7890625,242.67578125,-0.48828125,0.0
1676924012.3005266,23.92578125,-328.61328125,-159.66796875,52.734375,0.0
1676924012.3043842,10.7421875,-571.77734375,-326.171875,92.28515625,0.0
1676924012.3082418,37.59765625,57.6171875,104.4921875,53.7109375,0.0
1676924012.3120995,61.03515625,179.6875,178.22265625,6.8359375,0.0
1676924012.315957,48.33984375,-110.3515625,-30.76171875,19.04296875,0.0
1676924012.3198147,16.6015625,-69.3359375,9.27734375,70.80078125,0.0
1676924012.3236723,24.4140625,219.23828125,219.7265625,77.1484375,0.0
1676924012.3285708,44.43359375,132.32421875,150.87890625,33.69140625,0.0
1676924012.3334694,39.55078125,-188.4765625,-65.4296875,30.76171875,0.0
1676924012.3383682,26.3671875,-99.609375,-7.32421875,75.68359375,0.0
1676924012.3432667,34.1796875,175.78125,181.15234375,92.28515625,0.0
1676924012.3481653,59.08203125,176.26953125,215.33203125,42.96875,0.0
1676924012.353064,44.43359375,-568.359375,-380.37109375,38.0859375,0.0
1676924012.3579626,15.13671875,-688.4765625,-499.51171875,74.21875,0.0
1676924012.3628612,22.4609375,169.43359375,187.98828125,83.49609375,0.0
1676924012.3677597,41.9921875,109.375,158.203125,52.24609375,0.0
1676924012.3726583,51.26953125,-137.6953125,-35.64453125,3.90625,0.0
1676924012.377557,42.48046875,47.36328125,76.171875,39.55078125,0.0
1676924012.3824556,31.25,220.703125,225.09765625,94.23828125,0.0
1676924012.3861945,49.8046875,28.80859375,95.703125,73.2421875,0.0
1676924012.3899333,64.94140625,-121.58203125,-40.52734375,16.6015625,0.0
1676924012.3936722,55.6640625,119.62890625,127.9296875,50.78125,0.0
1676924012.397411,43.9453125,212.890625,211.42578125,104.4921875,0.0
1676924012.40115,49.31640625,-202.1484375,-57.12890625,108.3984375,0.0
1676924012.4048889,53.22265625,-572.75390625,-331.54296875,63.96484375,0.0
1676924012.4086277,61.03515625,-199.21875,-109.375,41.015625,0.0
1676924012.4123666,45.8984375,209.9609375,180.6640625,82.51953125,0.0
1676924012.4161055,21.97265625,-311.03515625,-134.27734375,104.98046875,0.0
1676924012.4198444,59.08203125,-651.85546875,-379.39453125,65.91796875,0.0
1676924012.4235833,79.1015625,101.5625,110.83984375,36.62109375,0.0
1676924012.4273221,47.8515625,218.26171875,203.125,87.890625,0.0
1676924012.4310777,32.71484375,-36.62109375,28.80859375,115.234375,0.0
1676924012.4348333,53.22265625,12.20703125,69.82421875,86.9140625,0.0
1676924012.4385886,68.359375,168.9453125,168.45703125,51.7578125,0.0
1676924012.4423442,52.24609375,78.125,91.30859375,80.078125,0.0
1676924012.4460998,41.50390625,-135.7421875,-21.484375,121.58203125,0.0
1676924012.4498553,58.10546875,-236.81640625,-74.70703125,111.328125,0.0
1676924012.453611,63.4765625,-167.96875,-41.50390625,64.453125,0.0
1676924012.4573665,55.17578125,-66.40625,45.8984375,58.59375,0.0
1676924012.461122,20.5078125,-680.17578125,-399.4140625,129.39453125,0.0
1676924012.4648774,42.48046875,-645.99609375,-374.51171875,144.04296875,0.0
1676924012.468633,80.56640625,223.14453125,274.90234375,77.1484375,0.0
1676924012.4723885,42.96875,43.45703125,152.83203125,47.8515625,0.0
1676924012.476121,26.3671875,-120.1171875,37.59765625,89.35546875,0.0
1676924012.4798536,45.41015625,194.3359375,249.51171875,106.93359375,0.0
1676924012.483586,55.6640625,257.32421875,299.31640625,56.640625,0.0
1676924012.4873185,50.78125,24.90234375,146.97265625,32.2265625,0.0
1676924012.4910512,38.0859375,-83.0078125,55.17578125,74.70703125,0.0
1676924012.4947836,30.76171875,-87.40234375,50.29296875,108.88671875,0.0
1676924012.498516,50.78125,-112.3046875,43.45703125,77.1484375,0.0
1676924012.5022488,53.7109375,-428.7109375,-186.5234375,36.1328125,0.0
1676924012.5059812,35.15625,-556.640625,-298.33984375,62.5,0.0
1676924012.5097136,35.64453125,67.3828125,119.62890625,91.796875,0.0
1676924012.5134463,49.31640625,59.5703125,121.09375,79.58984375,0.0
1676924012.5171788,50.78125,-316.40625,-148.92578125,37.59765625,0.0
1676924012.5209398,53.22265625,-137.20703125,-32.2265625,45.8984375,0.0
1676924012.5247009,33.69140625,279.296875,255.859375,89.35546875,0.0
1676924012.528462,24.4140625,145.01953125,151.3671875,104.4921875,0.0
1676924012.5322232,43.45703125,-48.828125,5.37109375,56.640625,0.0
1676924012.5359843,47.36328125,61.5234375,69.3359375,42.96875,0.0
1676924012.5397453,26.3671875,-61.5234375,-10.25390625,96.19140625,0.0
1676924012.5435064,7.8125,-166.9921875,-72.265625,105.46875,0.0
1676924012.5472674,2.9296875,-497.0703125,-303.22265625,69.3359375,0.0
1676924012.5510287,3.41796875,-303.7109375,-189.94140625,29.296875,0.0
1676924012.5547898,-1.46484375,303.7109375,222.65625,52.24609375,0.0
1676924012.5585508,-13.671875,57.12890625,62.5,100.5859375,0.0
1676924012.562312,-12.20703125,-80.078125,-33.203125,87.890625,0.0
1676924012.5661652,18.5546875,125.48828125,105.46875,57.6171875,0.0
1676924012.5700185,17.578125,2.9296875,20.01953125,78.125,0.0
1676924012.5738716,-34.1796875,-331.54296875,-211.42578125,100.09765625,0.0
1676924012.577725,-20.99609375,-309.08203125,-187.5,104.00390625,0.0
1676924012.5815783,22.4609375,64.453125,67.87109375,74.21875,0.0
1676924012.5854316,23.4375,-18.06640625,-1.953125,78.125,0.0
1676924012.589285,-15.13671875,-418.9453125,-272.94921875,128.90625,0.0
1676924012.5931382,-14.6484375,-551.7578125,-356.93359375,143.06640625,0.0
1676924012.5969915,39.55078125,92.28515625,78.125,95.21484375,0.0
1676924012.6008446,53.7109375,266.6015625,202.63671875,69.3359375,0.0
1676924012.604698,36.1328125,3.90625,40.52734375,120.1171875,0.0
1676924012.6085513,29.296875,86.42578125,100.5859375,155.2734375,0.0
1676924012.6121902,54.6875,312.01171875,246.09375,110.3515625,0.0
1676924012.615829,75.1953125,216.30859375,187.01171875,73.73046875,0.0
1676924012.619468,63.96484375,30.2734375,58.59375,104.98046875,0.0
1676924012.623107,44.43359375,-32.2265625,11.23046875,137.6953125,0.0
1676924012.6267457,47.8515625,-81.0546875,-24.90234375,112.3046875,0.0
1676924012.6303847,67.3828125,-71.2890625,-9.27734375,55.6640625,0.0
1676924012.6340237,57.12890625,-641.11328125,-427.24609375,91.30859375,0.0
1676924012.6376624,38.57421875,-710.9375,-495.1171875,123.046875,0.0
1676924012.6413014,71.77734375,142.578125,142.08984375,104.4921875,0.0
1676924012.6449404,93.75,153.3203125,162.109375,64.453125,0.0
1676924012.6485791,80.078125,-19.04296875,51.26953125,54.6875,0.0
1676924012.652218,76.171875,221.19140625,220.703125,108.88671875,0.0
1676924012.655989,68.84765625,304.19921875,277.34375,123.53515625,0.0
1676924012.65976,78.61328125,0.0,62.01171875,93.26171875,0.0
1676924012.6635308,78.61328125,-120.60546875,-52.24609375,70.3125,0.0
1676924012.667302,61.5234375,154.296875,126.46484375,96.6796875,0.0
1676924012.6710727,51.7578125,246.58203125,223.6328125,129.39453125,0.0
1676924012.6748438,67.3828125,-300.29296875,-146.97265625,112.79296875,0.0
1676924012.6786146,72.75390625,-694.82421875,-432.6171875,67.3828125,0.0
1676924012.6823854,54.6875,-128.90625,-34.1796875,81.54296875,0.0
1676924012.6861565,43.45703125,299.31640625,261.71875,130.37109375,0.0
1676924012.6899273,46.875,-206.0546875,-94.7265625,130.859375,0.0
1676924012.6936984,55.6640625,-489.74609375,-304.6875,69.3359375,0.0
1676924012.6974692,68.84765625,65.4296875,84.9609375,59.08203125,0.0
1676924012.7024596,48.828125,200.1953125,190.91796875,123.53515625,0.0
1676924012.7074497,33.69140625,47.36328125,96.6796875,127.44140625,0.0
1676924012.71244,40.52734375,135.7421875,139.6484375,47.8515625,0.0
1676924012.71743,34.1796875,225.09765625,179.19921875,29.78515625,0.0
1676924012.7224205,19.04296875,114.2578125,105.95703125,96.6796875,0.0
1676924012.7274108,24.4140625,-191.89453125,-74.70703125,121.09375,0.0
1676924012.732401,40.0390625,-171.38671875,-54.6875,69.82421875,0.0
1676924012.7373912,42.96875,208.49609375,178.7109375,36.1328125,0.0
1676924012.7423813,38.57421875,102.5390625,117.1875,73.2421875,0.0
1676924012.7473717,9.765625,-452.63671875,-248.53515625,108.3984375,0.0
1676924012.7523618,28.80859375,-215.8203125,-89.35546875,96.6796875,0.0
1676924012.757352,45.41015625,300.78125,270.99609375,43.9453125,0.0
1676924012.7611365,17.578125,-6.34765625,77.63671875,59.5703125,0.0
1676924012.7649207,-10.7421875,-310.05859375,-112.79296875,119.140625,0.0
1676924012.7687051,10.7421875,78.125,142.578125,94.23828125,0.0
1676924012.7724895,42.96875,291.50390625,272.94921875,35.64453125,0.0
1676924012.776274,45.41015625,-5.37109375,59.5703125,32.2265625,0.0
1676924012.7800584,32.2265625,-290.0390625,-127.9296875,76.171875,0.0
1676924012.7838426,54.19921875,-111.81640625,7.32421875,87.40234375,0.0
1676924012.787627,92.7734375,258.7890625,263.18359375,50.78125,0.0
1676924012.7914114,92.7734375,-208.0078125,-41.9921875,63.4765625,0.0
1676924012.7951956,75.1953125,-578.125,-312.01171875,116.2109375,0.0
1676924012.79898,58.10546875,112.3046875,151.85546875,108.88671875,0.0
1676924012.8027644,60.546875,245.60546875,270.01953125,67.87109375,0.0
1676924012.8064785,63.96484375,-125.48828125,12.20703125,43.45703125,0.0
1676924012.8101926,48.828125,-48.828125,71.77734375,60.05859375,0.0
1676924012.8139067,40.0390625,251.46484375,297.36328125,96.19140625,0.0
1676924012.817621,55.6640625,171.38671875,250.0,77.1484375,0.0
1676924012.821335,52.24609375,-71.77734375,63.4765625,19.04296875,0.0
1676924012.8250492,31.25,-186.03515625,-21.484375,41.015625,0.0
1676924012.8287632,9.765625,-113.28125,48.828125,77.63671875,0.0
1676924012.8324773,17.08984375,79.58984375,198.73046875,62.5,0.0
1676924012.8361917,26.3671875,-525.390625,-241.69921875,19.53125,0.0
1676924012.8399057,17.08984375,-539.55078125,-273.92578125,12.6953125,0.0
1676924012.8436198,14.6484375,253.41796875,274.4140625,56.15234375,0.0
1676924012.847334,7.32421875,75.1953125,139.6484375,72.75390625,0.0
1676924012.851085,11.23046875,-89.84375,9.765625,21.97265625,0.0
1676924012.854836,20.5078125,167.96875,172.36328125,-10.7421875,0.0
1676924012.858587,15.625,237.3046875,231.4453125,26.3671875,0.0
1676924012.862338,0.48828125,-212.40234375,-83.0078125,68.359375,0.0
1676924012.866089,18.5546875,-382.32421875,-212.40234375,36.1328125,0.0
1676924012.8698401,49.31640625,-196.2890625,-98.14453125,-11.23046875,0.0
1676924012.8735912,34.66796875,14.16015625,52.24609375,32.2265625,0.0
1676924012.8773422,8.30078125,-211.9140625,-63.96484375,80.078125,0.0
1676924012.8810933,32.2265625,-542.96875,-284.66796875,61.03515625,0.0
1676924012.8848443,64.453125,134.765625,185.546875,-4.39453125,0.0
1676924012.8885953,55.17578125,293.45703125,293.9453125,9.27734375,0.0
1676924012.8923464,34.1796875,66.89453125,138.671875,68.84765625,0.0
1676924012.8960917,46.38671875,96.6796875,145.01953125,66.40625,0.0
1676924012.8998368,75.68359375,250.0,226.07421875,10.25390625,0.0
1676924012.903582,68.359375,169.43359375,180.17578125,-5.859375,0.0
1676924012.9073274,29.296875,8.30078125,70.3125,50.78125,0.0
1676924012.9110725,24.90234375,34.1796875,81.0546875,67.3828125,0.0
1676924012.9148178,46.38671875,-142.578125,-41.50390625,15.13671875,0.0
1676924012.9185631,55.17578125,-183.10546875,-63.4765625,-3.41796875,0.0
1676924012.9223082,27.34375,-662.109375,-416.9921875,62.01171875,0.0
1676924012.9260535,20.5078125,-650.390625,-421.875,103.515625,0.0
1676924012.9297988,52.734375,230.95703125,214.35546875,62.98828125,0.0
1676924012.933544,48.33984375,112.3046875,133.7890625,11.23046875,0.0
1676924012.9372892,31.25,-56.640625,5.859375,32.2265625,0.0
1676924012.9422948,22.4609375,251.46484375,223.14453125,86.42578125,0.0
1676924012.9473004,32.71484375,339.35546875,297.36328125,60.05859375,0.0
1676924012.9523063,42.48046875,14.6484375,65.4296875,-0.9765625,0.0
1676924012.9573119,17.578125,-112.79296875,-37.109375,1.46484375,0.0
1676924012.9623175,2.44140625,145.99609375,146.484375,50.29296875,0.0
1676924012.967323,12.6953125,55.6640625,95.21484375,62.98828125,0.0
1676924012.9723287,19.53125,-455.56640625,-266.11328125,16.6015625,0.0
1676924012.9773343,17.08984375,-589.84375,-391.11328125,11.71875,0.0
1676924012.9823399,17.08984375,-90.33203125,-52.734375,53.22265625,0.0
1676924012.9873457,20.99609375,-82.03125,-25.87890625,65.4296875,0.0
1676924012.9923513,34.1796875,-304.6875,-177.734375,33.69140625,0.0
1676924012.997357,39.0625,-125.9765625,-78.61328125,2.9296875,0.0
1676924012.9998868,35.15625,254.8828125,193.359375,54.6875,0.0
1676924013.0024166,23.92578125,205.078125,175.78125,106.93359375,0.0
1676924013.0049462,23.92578125,-21.97265625,12.20703125,65.4296875,0.0
1676924013.007476,31.73828125,64.453125,40.52734375,6.34765625,0.0
1676924013.010006,32.2265625,220.703125,149.90234375,20.99609375,0.0
1676924013.0125356,5.859375,-101.5625,-61.03515625,73.2421875,0.0
1676924013.0150654,11.71875,-282.71484375,-185.546875,69.82421875,0.0
1676924013.0175953,44.921875,61.03515625,58.59375,13.671875,0.0
1676924013.0201252,37.109375,289.0625,204.1015625,16.11328125,0.0
1676924013.022655,25.87890625,126.46484375,104.4921875,83.0078125,0.0
1676924013.0251846,20.99609375,-444.3359375,-282.2265625,97.65625,0.0
1676924013.0277145,36.62109375,-395.01953125,-253.41796875,30.76171875,0.0
1676924013.031534,45.8984375,59.5703125,52.24609375,8.30078125,0.0
1676924013.0353532,23.92578125,-61.5234375,-21.97265625,65.91796875,0.0
1676924013.0391726,7.8125,-216.796875,-109.86328125,88.8671875,0.0
1676924013.042992,31.73828125,135.25390625,130.37109375,41.50390625,0.0
1676924013.0468116,44.43359375,285.64453125,241.2109375,6.8359375,0.0
1676924013.050631,35.15625,-239.2578125,-126.46484375,62.98828125,0.0
1676924013.0544503,28.3203125,-569.3359375,-354.98046875,117.1875,0.0
1676924013.0582697,45.8984375,105.95703125,130.37109375,68.359375,0.0
1676924013.0620892,73.73046875,308.10546875,266.11328125,24.4140625,0.0
1676924013.0659084,68.359375,-67.3828125,0.48828125,54.19921875,0.0
1676924013.069728,43.9453125,8.7890625,52.24609375,102.05078125,0.0
1676924013.0735474,63.4765625,288.0859375,227.05078125,77.1484375,0.0
1676924013.078447,93.26171875,188.4765625,143.06640625,10.7421875,0.0
1676924013.0833468,87.40234375,-89.35546875,-46.875,12.6953125,0.0
1676924013.0882463,68.84765625,-182.6171875,-101.07421875,78.125,0.0
1676924013.093146,76.171875,26.3671875,47.36328125,94.7265625,0.0
1676924013.0980458,82.51953125,261.23046875,221.6796875,41.015625,0.0
1676924013.1029453,64.453125,-472.65625,-309.5703125,36.62109375,0.0
1676924013.107845,36.1328125,-652.83203125,-459.9609375,76.66015625,0.0
1676924013.1127448,43.45703125,235.3515625,171.38671875,93.75,0.0
1676924013.1176445,64.453125,186.5234375,156.73828125,68.84765625,0.0
1676924013.1225443,59.08203125,-29.78515625,8.30078125,22.94921875,0.0
1676924013.1274438,41.9921875,138.671875,101.5625,38.0859375,0.0
1676924013.1323435,26.85546875,156.73828125,122.0703125,78.61328125,0.0
1676924013.1360931,53.22265625,-12.20703125,12.20703125,64.94140625,0.0
1676924013.1398427,72.265625,-46.38671875,-29.296875,15.625,0.0
1676924013.1435924,60.05859375,200.1953125,135.25390625,28.3203125,0.0
1676924013.147342,44.921875,266.11328125,193.84765625,90.8203125,0.0
1676924013.1510916,45.41015625,-39.0625,-8.30078125,87.890625,0.0
1676924013.1548412,47.8515625,-320.3125,-210.9375,27.34375,0.0
1676924013.1585908,43.9453125,-288.57421875,-208.0078125,34.66796875,0.0
1676924013.1623404,36.1328125,-44.921875,-18.5546875,75.1953125,0.0
1676924013.16609,33.69140625,-270.99609375,-159.1796875,88.8671875,0.0
1676924013.1698396,50.29296875,-847.65625,-590.33203125,46.38671875,0.0
1676924013.1735892,66.40625,-202.63671875,-158.203125,-1.46484375,0.0
1676924013.1773388,44.43359375,222.65625,151.3671875,47.8515625,0.0
1676924013.1810899,21.484375,-23.92578125,-10.7421875,95.21484375,0.0
1676924013.184841,48.33984375,99.609375,89.35546875,73.73046875,0.0
1676924013.188592,50.78125,242.1875,192.87109375,24.4140625,0.0
1676924013.192343,14.6484375,94.7265625,80.56640625,42.96875,0.0
1676924013.196094,20.5078125,-79.1015625,-28.80859375,91.30859375,0.0
1676924013.1998453,41.9921875,-227.5390625,-112.3046875,91.30859375,0.0
1676924013.2035964,47.8515625,-143.06640625,-81.54296875,46.38671875,0.0
1676924013.2073474,34.1796875,64.94140625,58.59375,46.875,0.0
1676924013.2110984,15.13671875,-634.27734375,-433.59375,121.58203125,0.0
1676924013.2148495,33.203125,-657.2265625,-472.16796875,109.86328125,0.0
1676924013.2186005,52.734375,229.00390625,167.96875,19.04296875,0.0
1676924013.2223516,42.96875,92.28515625,80.56640625,18.5546875,0.0
1676924013.2273507,29.78515625,-92.7734375,-56.15234375,79.58984375,0.0
1676924013.2323499,41.50390625,174.31640625,115.72265625,107.421875,0.0
1676924013.237349,57.6171875,248.046875,158.203125,69.82421875,0.0
1676924013.2423482,44.43359375,-12.20703125,-29.296875,56.15234375,0.0
1676924013.2473474,29.78515625,-123.046875,-94.7265625,99.12109375,0.0
1676924013.2523465,16.6015625,-142.578125,-94.7265625,134.765625,0.0
1676924013.257346,14.16015625,-132.8125,-63.4765625,119.62890625,0.0
1676924013.262345,15.625,-406.73828125,-229.00390625,67.87109375,0.0
1676924013.2673442,4.39453125,-607.91015625,-389.6484375,88.37890625,0.0
1676924013.2723434,-0.9765625,57.6171875,63.96484375,140.13671875,0.0
1676924013.2773426,6.34765625,241.69921875,226.07421875,126.46484375,0.0
1676924013.2823417,4.8828125,-100.5859375,-10.7421875,69.3359375,0.0
1676924013.2848396,0.9765625,-33.69140625,27.83203125,74.21875,0.0
1676924013.2873375,-20.5078125,280.2734375,252.44140625,120.1171875,0.0
1676924013.2898355,-28.80859375,190.4296875,193.359375,125.9765625,0.0
1676924013.2923336,-3.90625,-81.54296875,10.7421875,78.125,0.0
1676924013.2948315,2.44140625,-4.8828125,44.921875,60.05859375,0.0
1676924013.2973294,-9.765625,-26.85546875,23.92578125,103.515625,0.0
1676924013.2998273,-4.39453125,-234.86328125,-94.7265625,132.8125,0.0
1676924013.3023252,14.16015625,-234.86328125,-88.8671875,110.83984375,0.0
1676924013.3048234,27.34375,-20.99609375,40.0390625,76.66015625,0.0
1676924013.3073213,17.578125,212.890625,194.82421875,108.3984375,0.0
1676924013.3098192,3.90625,122.55859375,165.0390625,148.92578125,0.0
1676924013.3123171,5.37109375,-446.77734375,-213.8671875,125.9765625,0.0
1676924013.31617,35.15625,-211.9140625,-82.03125,73.2421875,0.0
1676924013.3200226,44.43359375,272.94921875,257.8125,79.58984375,0.0
1676924013.3238754,12.6953125,-153.3203125,-26.3671875,129.39453125,0.0
1676924013.3277283,29.78515625,-284.66796875,-126.46484375,126.46484375,0.0
1676924013.331581,56.640625,136.23046875,170.8984375,57.12890625,0.0
1676924013.335434,49.8046875,40.0390625,103.515625,41.9921875,0.0
1676924013.3392866,29.78515625,-452.1484375,-238.76953125,110.83984375,0.0
1676924013.3431394,37.59765625,-541.9921875,-308.10546875,131.34765625,0.0
1676924013.3469923,69.3359375,138.671875,158.69140625,81.0546875,0.0
1676924013.3508449,86.42578125,305.17578125,294.921875,63.96484375,0.0
1676924013.3546977,63.96484375,35.15625,119.140625,95.21484375,0.0
1676924013.3585505,46.38671875,72.75390625,153.80859375,116.2109375,0.0
1676924013.3621845,75.1953125,291.50390625,302.24609375,91.30859375,0.0
1676924013.3658185,84.47265625,214.35546875,220.703125,56.640625,0.0
1676924013.3694525,70.3125,18.06640625,98.14453125,77.63671875,0.0
1676924013.3730867,60.05859375,107.421875,184.5703125,102.5390625,0.0
1676924013.3767207,77.63671875,94.23828125,161.1328125,90.8203125,0.0
1676924013.3803546,101.07421875,-49.31640625,64.94140625,47.8515625,0.0
1676924013.3839886,73.2421875,-638.18359375,-374.0234375,77.63671875,0.0
1676924013.3876226,32.71484375,-681.640625,-420.8984375,119.140625,0.0
1676924013.3912568,57.6171875,202.1484375,239.2578125,83.49609375,0.0
1676924013.3948908,66.40625,134.765625,196.2890625,30.76171875,0.0
1676924013.3985248,47.36328125,-49.31640625,68.84765625,20.99609375,0.0
1676924013.4021587,33.203125,231.4453125,274.4140625,52.734375,0.0
1676924013.4059308,34.1796875,358.88671875,374.51171875,54.19921875,0.0
1676924013.4097028,50.78125,105.46875,201.171875,18.5546875,0.0
1676924013.413475,41.50390625,-36.1328125,82.51953125,-9.765625,0.0
1676924013.417247,26.85546875,239.74609375,267.08984375,23.4375,0.0
1676924013.421019,17.08984375,346.19140625,365.234375,40.52734375,0.0
1676924013.4247913,23.92578125,-197.75390625,-13.671875,5.37109375,0.0
1676924013.4285634,37.109375,-433.59375,-183.10546875,-41.50390625,0.0
1676924013.4323354,28.80859375,25.390625,132.8125,-32.71484375,0.0
1676924013.4361074,9.27734375,57.12890625,171.875,-0.9765625,0.0
1676924013.4398794,31.25,-324.70703125,-73.2421875,-4.8828125,0.0
1676924013.4436517,64.94140625,-364.74609375,-113.28125,-59.08203125,0.0
1676924013.4474237,54.6875,250.48828125,299.31640625,-87.40234375,0.0
1676924013.45241,19.53125,315.91796875,340.8203125,-46.38671875,0.0
1676924013.4573963,36.1328125,-85.44921875,54.6875,-44.43359375,0.0
1676924013.4623826,46.875,-42.96875,73.2421875,-116.2109375,0.0
1676924013.4673688,41.015625,335.44921875,334.9609375,-141.6015625,0.0
1676924013.4723551,26.3671875,214.35546875,249.0234375,-88.37890625,0.0
1676924013.4773412,27.34375,-158.203125,-22.4609375,-67.87109375,0.0
1676924013.4823275,60.05859375,-126.953125,-9.765625,-117.1875,0.0
1676924013.4873137,61.03515625,252.9296875,260.7421875,-156.73828125,0.0
1676924013.4923,46.38671875,199.70703125,234.86328125,-106.4453125,0.0
1676924013.4972863,35.64453125,-237.3046875,-72.265625,-51.26953125,0.0
1676924013.5022726,54.19921875,-229.00390625,-73.73046875,-62.98828125,0.0
1676924013.507259,75.68359375,145.99609375,185.546875,-99.609375,0.0
1676924013.511006,58.10546875,75.1953125,131.8359375,-81.0546875,0.0
1676924013.5147533,32.2265625,-233.3984375,-92.7734375,-43.9453125,0.0
1676924013.5185006,37.109375,92.28515625,118.1640625,-51.7578125,0.0
1676924013.5222478,55.17578125,281.73828125,267.578125,-89.84375,0.0
1676924013.525995,33.69140625,54.6875,105.46875,-75.1953125,0.0
1676924013.5297422,9.27734375,-239.2578125,-97.65625,-4.39453125,0.0
1676924013.5334895,25.87890625,-83.0078125,2.44140625,15.625,0.0
1676924013.5372367,50.29296875,319.3359375,276.3671875,-31.25,0.0
1676924013.540984,38.57421875,-167.48046875,-49.31640625,-31.25,0.0
1676924013.5447311,12.20703125,-483.3984375,-280.76171875,17.08984375,0.0
1676924013.5484784,11.23046875,124.51171875,129.8828125,33.203125,0.0
1676924013.5522256,30.76171875,160.64453125,164.0625,8.30078125,0.0
1676924013.5561113,50.29296875,43.9453125,92.28515625,-6.34765625,0.0
1676924013.5599968,50.29296875,-34.66796875,41.015625,54.6875,0.0
1676924013.5638824,26.85546875,54.6875,106.93359375,90.33203125,0.0
1676924013.567768,44.43359375,178.22265625,192.87109375,75.1953125,0.0
1676924013.5716538,38.0859375,-163.57421875,-56.15234375,46.875,0.0
1676924013.5755394,0.48828125,-378.41796875,-226.5625,63.4765625,0.0
1676924013.5794249,4.8828125,-46.38671875,3.90625,112.3046875,0.0
1676924013.5833106,24.90234375,181.15234375,176.7578125,99.12109375,0.0
1676924013.5871964,8.7890625,-403.3203125,-232.91015625,51.26953125,0.0
1676924013.5910819,8.30078125,-256.8359375,-145.01953125,59.08203125,0.0
1676924013.5949674,7.32421875,343.75,291.9921875,106.93359375,0.0
1676924013.598853,3.41796875,104.98046875,131.8359375,129.8828125,0.0
1676924013.6024845,36.62109375,-20.5078125,31.25,93.26171875,0.0
1676924013.6061158,48.33984375,210.44921875,173.828125,78.61328125,0.0
1676924013.6097474,15.625,299.8046875,250.0,124.0234375,0.0
1676924013.6133788,17.578125,38.57421875,90.33203125,155.2734375,0.0
1676924013.61701,51.26953125,-233.3984375,-120.1171875,133.30078125,0.0
1676924013.6206417,62.01171875,-167.96875,-85.9375,99.609375,0.0
1676924013.624273,57.12890625,-46.875,23.4375,139.6484375,0.0
1676924013.6279044,30.76171875,-318.84765625,-139.6484375,183.59375,0.0
1676924013.6315358,31.25,-474.609375,-259.765625,140.625,0.0
1676924013.6351671,56.640625,109.86328125,130.859375,79.1015625,0.0
1676924013.6387987,59.5703125,355.46875,307.6171875,98.14453125,0.0
1676924013.64243,32.2265625,-218.26171875,-82.03125,156.73828125,0.0
1676924013.6474228,36.62109375,-315.4296875,-158.69140625,172.36328125,0.0
1676924013.6524155,68.84765625,278.3203125,237.79296875,112.3046875,0.0
1676924013.6574082,64.453125,224.609375,208.0078125,97.16796875,0.0
1676924013.662401,28.80859375,75.1953125,93.75,131.34765625,0.0
1676924013.6673937,18.5546875,134.765625,120.60546875,144.04296875,0.0
1676924013.6723866,43.45703125,-58.10546875,-28.80859375,106.4453125,0.0
1676924013.6773794,50.78125,-124.0234375,-64.453125,80.078125,0.0
1676924013.682372,23.4375,-596.6796875,-374.51171875,132.8125,0.0
1676924013.6873648,17.08984375,-667.48046875,-453.125,165.0390625,0.0
1676924013.6923575,55.6640625,243.65234375,191.89453125,115.72265625,0.0
1676924013.6973503,65.4296875,210.44921875,176.26953125,76.171875,0.0
1676924013.702343,41.50390625,-35.15625,7.32421875,113.28125,0.0
1676924013.7048464,26.3671875,206.54296875,169.43359375,145.5078125,0.0
1676924013.70735,33.69140625,359.375,274.4140625,127.44140625,0.0
1676924013.7098534,39.0625,114.74609375,117.1875,83.984375,0.0
1676924013.7123568,36.62109375,18.06640625,39.55078125,84.47265625,0.0
1676924013.7148604,26.85546875,204.1015625,158.69140625,133.30078125,0.0
1676924013.7173638,39.0625,26.3671875,51.7578125,141.6015625,0.0
1676924013.7198672,44.43359375,-336.9140625,-208.49609375,104.00390625,0.0
1676924013.7223709,46.875,-182.6171875,-104.98046875,97.16796875,0.0
1676924013.7248743,39.0625,209.47265625,163.0859375,134.27734375,0.0
1676924013.7273777,31.73828125,242.1875,188.96484375,146.97265625,0.0
1676924013.7298813,37.109375,-354.4921875,-216.30859375,109.375,0.0
1676924013.7323847,32.2265625,-817.87109375,-565.91796875,70.80078125,0.0
1676924013.7361484,29.78515625,-26.3671875,-4.39453125,99.609375,0.0
1676924013.739912,23.4375,283.203125,242.67578125,146.484375,0.0
1676924013.7436757,38.0859375,-9.765625,46.38671875,113.76953125,0.0
1676924013.7474396,51.7578125,108.3984375,110.83984375,62.98828125,0.0
1676924013.7512033,39.55078125,223.14453125,163.57421875,90.8203125,0.0
1676924013.754967,8.7890625,-20.99609375,-3.41796875,124.51171875,0.0
1676924013.7587306,0.9765625,-561.03515625,-381.34765625,111.328125,0.0
1676924013.7624943,36.62109375,-391.6015625,-259.27734375,61.03515625,0.0
1676924013.7662582,42.48046875,273.4375,215.8203125,62.01171875,0.0
1676924013.770022,17.08984375,163.57421875,167.48046875,121.58203125,0.0
1676924013.7737856,29.296875,4.39453125,61.03515625,125.0,0.0
1676924013.7775493,42.96875,222.16796875,188.96484375,68.84765625,0.0
1676924013.7813864,43.9453125,255.859375,213.8671875,45.41015625,0.0
1676924013.7852235,41.9921875,-123.046875,-33.203125,107.91015625,0.0
1676924013.7890606,25.87890625,-250.48828125,-102.5390625,140.625,0.0
1676924013.7928977,41.015625,176.26953125,164.55078125,78.125,0.0
1676924013.7967348,59.5703125,266.11328125,204.1015625,40.0390625,0.0
1676924013.800572,36.1328125,-328.125,-194.82421875,102.5390625,0.0
1676924013.8044088,10.7421875,-533.203125,-333.0078125,142.08984375,0.0
1676924013.808246,48.33984375,137.6953125,126.953125,107.91015625,0.0
1676924013.812083,75.68359375,281.25,208.0078125,56.15234375,0.0
1676924013.81592,64.453125,-67.87109375,-34.66796875,77.63671875,0.0
1676924013.8197572,47.36328125,-51.7578125,-5.37109375,126.953125,0.0
1676924013.8235943,50.78125,262.20703125,225.09765625,108.3984375,0.0
1676924013.8284907,82.51953125,211.42578125,166.015625,62.5,0.0
1676924013.8333871,104.98046875,-2.9296875,12.20703125,83.49609375,0.0
1676924013.8382835,72.75390625,63.96484375,66.89453125,129.8828125,0.0
1676924013.84318,35.64453125,40.0390625,36.1328125,104.98046875,0.0
1676924013.8480763,68.359375,-72.265625,-38.57421875,52.734375,0.0
1676924013.8529727,69.82421875,-608.3984375,-426.26953125,59.08203125,0.0
1676924013.8578691,23.4375,-654.296875,-471.6796875,106.4453125,0.0
1676924013.8627656,33.69140625,190.4296875,138.18359375,126.953125,0.0
1676924013.867662,45.8984375,107.421875,96.6796875,83.0078125,0.0
1676924013.8725584,37.109375,-127.44140625,-84.47265625,37.109375,0.0
1676924013.8774548,37.109375,121.58203125,59.5703125,88.37890625,0.0
1676924013.8823512,22.94921875,310.546875,202.1484375,125.48828125,0.0
1676924013.8861024,23.4375,39.55078125,15.625,95.703125,0.0
1676924013.889854,40.52734375,-152.83203125,-128.90625,58.10546875,0.0
1676924013.8936052,46.38671875,130.859375,57.6171875,78.61328125,0.0
1676924013.8973567,36.1328125,247.0703125,133.7890625,124.0234375,0.0
1676924013.901108,40.52734375,17.578125,-13.18359375,126.46484375,0.0
1676924013.9048595,58.10546875,-283.69140625,-219.23828125,77.1484375,0.0
1676924013.9086108,73.2421875,-292.96875,-233.88671875,68.359375,0.0
1676924013.912362,48.828125,12.20703125,-20.99609375,115.234375,0.0
1676924013.9161136,29.296875,-198.73046875,-141.11328125,122.0703125,0.0
1676924013.919865,36.1328125,-752.9296875,-520.99609375,77.1484375,0.0
1676924013.9236164,37.109375,-138.18359375,-113.76953125,47.36328125,0.0
1676924013.9273677,33.69140625,232.421875,155.2734375,87.40234375,0.0
1676924013.9311213,24.4140625,33.203125,21.484375,116.2109375,0.0
1676924013.934875,43.9453125,146.484375,88.37890625,83.49609375,0.0
1676924013.9386287,58.10546875,289.55078125,176.26953125,45.41015625,0.0
1676924013.9423823,36.1328125,156.25,87.40234375,73.73046875,0.0
1676924013.946136,18.06640625,3.90625,-3.90625,119.62890625,0.0
1676924013.9498897,41.015625,-98.6328125,-93.26171875,113.28125,0.0
1676924013.953643,62.01171875,-106.4453125,-109.375,58.59375,0.0
1676924013.9573967,63.4765625,140.625,82.03125,63.4765625,0.0
1676924013.9611504,38.57421875,-463.37890625,-332.51953125,131.8359375,0.0
1676924013.964904,28.80859375,-682.6171875,-519.04296875,124.51171875,0.0
1676924013.9686577,67.3828125,24.90234375,-51.26953125,55.17578125,0.0
1676924013.9724114,58.59375,-85.44921875,-100.5859375,62.01171875,0.0
1676924013.9761605,27.34375,-185.05859375,-145.01953125,114.2578125,0.0
1676924013.97991,42.96875,147.4609375,69.3359375,120.60546875,0.0
1676924013.983659,56.15234375,273.92578125,160.64453125,82.03125,0.0
1676924013.9874082,49.31640625,12.6953125,-8.30078125,60.05859375,0.0
1676924013.9911573,33.203125,-143.5546875,-126.46484375,102.5390625,0.0
1676924013.9949064,7.8125,-92.28515625,-87.890625,137.6953125,0.0
1676924013.9986558,28.3203125,16.11328125,7.8125,97.65625,0.0
1676924014.002405,32.2265625,-227.05078125,-155.76171875,59.5703125,0.0
1676924014.006154,1.953125,-511.71875,-350.5859375,85.44921875,0.0
1676924014.0099034,-9.765625,159.66796875,137.20703125,115.72265625,0.0
1676924014.0136526,-3.90625,322.75390625,256.34765625,107.91015625,0.0
1676924014.0174017,14.16015625,18.06640625,33.203125,70.3125,0.0
1676924014.02125,8.7890625,-135.7421875,-72.75390625,72.265625,0.0
1676924014.0250983,-18.5546875,86.9140625,72.75390625,107.91015625,0.0
1676924014.0289466,-27.34375,237.79296875,181.15234375,114.74609375,0.0
1676924014.032795,-5.859375,-137.6953125,-77.1484375,78.61328125,0.0
1676924014.0366433,5.859375,-167.96875,-126.953125,64.453125,0.0
1676924014.0404916,-17.578125,-68.84765625,-62.01171875,104.4921875,0.0
1676924014.0443401,-20.01953125,-126.46484375,-68.84765625,131.34765625,0.0
1676924014.0481884,9.27734375,-477.5390625,-321.77734375,92.28515625,0.0
1676924014.0520368,19.53125,-311.03515625,-229.4921875,63.96484375,0.0
1676924014.055885,4.8828125,259.765625,168.9453125,105.46875,0.0
1676924014.0597334,3.90625,82.51953125,54.6875,143.5546875,0.0
1676924014.0635817,35.64453125,-8.30078125,-15.625,107.91015625,0.0
1676924014.0672357,47.36328125,199.70703125,115.72265625,52.24609375,0.0
1676924014.07089,24.90234375,327.63671875,214.35546875,78.61328125,0.0
1676924014.074544,10.7421875,51.7578125,39.0625,121.58203125,0.0
1676924014.0781982,33.203125,-251.46484375,-174.8046875,114.74609375,0.0
1676924014.0818522,72.265625,25.87890625,0.9765625,73.73046875,0.0
1676924014.0855064,72.265625,36.1328125,14.6484375,86.9140625,0.0
1676924014.0891604,44.921875,-387.20703125,-281.73828125,139.16015625,0.0
1676924014.0928144,37.109375,-816.89453125,-593.75,133.7890625,0.0
1676924014.0964687,70.3125,-221.6796875,-172.8515625,64.94140625,0.0
1676924014.1001227,82.03125,348.14453125,216.796875,33.69140625,0.0
1676924014.103777,53.7109375,40.52734375,0.48828125,87.890625,0.0
1676924014.107431,46.38671875,63.96484375,25.87890625,117.1875,0.0
1676924014.1111796,75.1953125,313.4765625,209.9609375,78.61328125,0.0
1676924014.1149282,83.0078125,252.44140625,174.8046875,43.9453125,0.0
1676924014.1186767,62.98828125,80.56640625,62.5,68.84765625,0.0
1676924014.1224253,52.734375,171.875,118.65234375,105.95703125,0.0
1676924014.126174,69.82421875,266.11328125,179.6875,88.37890625,0.0
1676924014.1299226,71.77734375,47.8515625,34.1796875,43.9453125,0.0
1676924014.1336713,67.87109375,-617.1875,-434.08203125,87.890625,0.0
1676924014.13742,48.828125,-563.96484375,-405.2734375,123.53515625,0.0
1676924014.1411686,35.15625,294.921875,187.5,83.0078125,0.0
1676924014.144917,53.7109375,172.8515625,101.07421875,36.62109375,0.0
1676924014.1486657,56.640625,-107.421875,-102.5390625,42.48046875,0.0
1676924014.1524143,36.1328125,154.78515625,79.58984375,84.47265625,0.0
1676924014.156253,41.50390625,336.9140625,236.81640625,89.84375,0.0
1676924014.1600919,47.36328125,78.125,62.01171875,48.33984375,0.0
1676924014.1639307,47.36328125,-48.33984375,-40.52734375,24.4140625,0.0
1676924014.1677694,34.66796875,164.55078125,101.5625,62.5,0.0
1676924014.1716082,32.2265625,255.37109375,171.38671875,93.75,0.0
1676924014.175447,56.640625,-191.89453125,-129.8828125,72.75390625,0.0
1676924014.1792855,51.7578125,-547.8515625,-388.18359375,26.85546875,0.0
1676924014.1831243,53.22265625,-44.921875,-51.7578125,56.640625,0.0
1676924014.186963,43.9453125,159.1796875,95.703125,111.328125,0.0
1676924014.1908019,41.015625,-409.66796875,-287.109375,110.3515625,0.0
1676924014.1946406,59.08203125,-600.09765625,-427.24609375,50.78125,0.0
1676924014.1984794,65.4296875,131.34765625,79.58984375,37.59765625,0.0
1676924014.2033942,50.29296875,235.3515625,156.25,97.65625,0.0
1676924014.208309,68.84765625,4.8828125,18.5546875,104.4921875,0.0
1676924014.2132237,91.30859375,104.98046875,89.84375,63.96484375,0.0
1676924014.2181385,79.58984375,244.140625,164.55078125,58.10546875,0.0
1676924014.2230532,55.6640625,181.640625,127.9296875,98.6328125,0.0
1676924014.2279682,41.9921875,-181.640625,-119.62890625,127.9296875,0.0
1676924014.232883,60.05859375,-164.55078125,-112.79296875,73.2421875,0.0
1676924014.2377977,78.125,253.41796875,166.50390625,35.15625,0.0
1676924014.2427125,60.05859375,162.109375,114.2578125,89.35546875,0.0
1676924014.2476273,42.96875,-125.0,-69.82421875,125.9765625,0.0
1676924014.252542,64.453125,112.79296875,65.91796875,95.21484375,0.0
1676924014.2574568,63.96484375,174.31640625,101.07421875,45.8984375,0.0
1676924014.2611783,53.7109375,-154.296875,-104.00390625,77.1484375,0.0
1676924014.2648997,38.0859375,-488.28125,-348.6328125,138.18359375,0.0
1676924014.2686214,34.1796875,-80.56640625,-76.66015625,114.2578125,0.0
1676924014.272343,58.10546875,336.42578125,221.6796875,53.22265625,0.0
1676924014.2760644,47.8515625,8.30078125,-2.44140625,60.05859375,0.0
1676924014.279786,28.3203125,-284.66796875,-202.1484375,111.328125,0.0
1676924014.2835076,45.8984375,-90.33203125,-81.54296875,121.09375,0.0
1676924014.287229,64.453125,302.24609375,190.4296875,69.3359375,0.0
1676924014.2909505,50.29296875,-212.890625,-144.04296875,58.59375,0.0
1676924014.294672,23.92578125,-627.9296875,-441.89453125,91.30859375,0.0
1676924014.2983937,34.66796875,111.328125,66.40625,94.23828125,0.0
1676924014.3021152,67.87109375,282.2265625,208.0078125,81.54296875,0.0
1676924014.305896,68.84765625,36.1328125,41.50390625,53.22265625,0.0
1676924014.309677,50.29296875,109.86328125,104.4921875,81.0546875,0.0
1676924014.3134577,36.1328125,101.07421875,97.16796875,129.8828125,0.0
1676924014.3172386,53.22265625,-59.5703125,-5.859375,116.69921875,0.0
1676924014.3210194,63.96484375,-216.796875,-119.62890625,64.94140625,0.0
1676924014.3248003,45.41015625,-307.6171875,-195.3125,75.1953125,0.0
1676924014.328581,27.83203125,-106.4453125,-61.03515625,122.0703125,0.0
1676924014.332362,47.36328125,80.078125,79.58984375,104.98046875,0.0
1676924014.3361428,46.38671875,-412.109375,-260.25390625,42.96875,0.0
1676924014.3399236,42.96875,-326.171875,-224.12109375,45.8984375,0.0
1676924014.3437045,41.50390625,308.59375,224.609375,103.515625,0.0
1676924014.3474853,39.55078125,120.1171875,122.55859375,124.0234375,0.0
1676924014.35123,58.10546875,-29.296875,18.5546875,75.1953125,0.0
1676924014.3549745,74.70703125,203.61328125,138.18359375,55.6640625,0.0
1676924014.358719,59.5703125,295.8984375,195.80078125,108.3984375,0.0
1676924014.3624637,41.50390625,59.08203125,41.9921875,135.25390625,0.0
1676924014.3662083,51.26953125,-106.4453125,-68.359375,106.4453125,0.0
1676924014.3699527,52.734375,-88.8671875,-57.12890625,69.3359375,0.0
1676924014.3736973,45.41015625,-115.72265625,-95.21484375,81.0546875,0.0
1676924014.377442,29.78515625,-345.703125,-235.83984375,121.58203125,0.0
1676924014.3811865,40.52734375,-742.1875,-496.09375,114.74609375,0.0
1676924014.384931,76.66015625,-163.57421875,-118.1640625,52.24609375,0.0
1676924014.3886757,78.125,245.1171875,166.015625,58.10546875,0.0
1676924014.3924203,38.0859375,17.578125,4.39453125,98.6328125,0.0
1676924014.396155,43.45703125,107.421875,56.640625,89.35546875,0.0
1676924014.39989,59.08203125,279.296875,163.57421875,40.0390625,0.0
1676924014.403625,49.31640625,193.359375,109.375,35.64453125,0.0
1676924014.4073598,41.9921875,7.8125,8.7890625,84.47265625,0.0
1676924014.4110947,53.7109375,105.46875,75.1953125,104.98046875,0.0
1676924014.4148297,80.078125,5.859375,-9.765625,62.01171875,0.0
1676924014.4185646,78.61328125,-120.60546875,-97.65625,18.06640625,0.0
1676924014.4222994,51.26953125,-489.2578125,-365.72265625,72.75390625,0.0
1676924014.4260342,39.0625,-568.84765625,-419.921875,103.02734375,0.0
1676924014.429769,65.91796875,121.09375,69.82421875,52.734375,0.0
1676924014.433504,73.73046875,158.69140625,91.796875,16.6015625,0.0
1676924014.437239,51.26953125,-150.390625,-134.27734375,38.57421875,0.0
1676924014.441003,39.0625,125.9765625,43.45703125,77.1484375,0.0
1676924014.4447675,61.03515625,377.44140625,229.4921875,67.87109375,0.0
1676924014.4485316,61.03515625,49.8046875,21.484375,1.953125,0.0
1676924014.4522958,50.78125,-126.953125,-125.9765625,18.5546875,0.0
1676924014.4560602,44.921875,139.16015625,43.9453125,76.66015625,0.0
1676924014.4598243,43.9453125,-31.73828125,-64.453125,71.77734375,0.0
1676924014.4635885,56.15234375,-426.7578125,-343.26171875,20.01953125,0.0
1676924014.4673529,55.17578125,-450.1953125,-369.140625,0.48828125,0.0
1676924014.471117,47.36328125,142.578125,40.0390625,45.8984375,0.0
1676924014.4748812,44.43359375,335.9375,199.70703125,74.21875,0.0
1676924014.4786456,52.24609375,-77.63671875,-54.6875,41.015625,0.0
1676924014.4824097,60.05859375,-279.296875,-221.6796875,20.01953125,0.0
1676924014.4862566,51.7578125,93.26171875,11.23046875,47.8515625,0.0
1676924014.4901037,47.36328125,359.86328125,220.21484375,63.96484375,0.0
1676924014.4939506,50.29296875,-298.33984375,-222.65625,69.3359375,0.0
1676924014.4977977,33.69140625,-599.609375,-437.01171875,15.625,0.0
1676924014.5016446,10.25390625,144.04296875,90.33203125,7.8125,0.0
1676924014.5054917,7.8125,122.55859375,90.33203125,80.078125,0.0
1676924014.5093386,12.20703125,-486.81640625,-338.8671875,67.3828125,0.0
1676924014.5131855,20.99609375,-342.28515625,-251.953125,-7.8125,0.0
1676924014.5170326,38.57421875,324.70703125,214.84375,-4.8828125,0.0
1676924014.5208795,7.8125,131.34765625,91.796875,56.15234375,0.0
1676924014.5247266,4.39453125,-30.2734375,-38.0859375,60.546875,0.0
1676924014.5285735,37.109375,196.77734375,108.88671875,18.06640625,0.0
1676924014.5335052,35.64453125,324.21875,190.4296875,4.39453125,0.0
1676924014.5384367,11.71875,16.6015625,-7.32421875,59.08203125,0.0
1676924014.5433683,0.9765625,-315.4296875,-207.03125,82.51953125,0.0
1676924014.5482998,21.484375,94.23828125,56.640625,31.73828125,0.0
1676924014.5532315,30.76171875,331.54296875,223.14453125,-2.9296875,0.0
1676924014.5581632,7.32421875,-137.6953125,-81.54296875,43.45703125,0.0
1676924014.5630946,-11.23046875,-802.24609375,-579.1015625,91.30859375,0.0
1676924014.5680263,23.4375,-254.39453125,-213.8671875,53.7109375,0.0
1676924014.5729578,44.43359375,318.84765625,195.3125,1.953125,0.0
1676924014.5778894,31.73828125,67.87109375,46.38671875,36.1328125,0.0
1676924014.582821,25.390625,110.83984375,79.58984375,89.84375,0.0
1676924014.5877526,42.48046875,296.38671875,211.42578125,73.73046875,0.0
1676924014.591529,40.52734375,237.79296875,180.17578125,18.5546875,0.0
1676924014.5953054,27.34375,22.4609375,2.44140625,13.671875,0.0
1676924014.5990818,13.671875,52.734375,23.92578125,67.87109375,0.0
1676924014.6028583,26.85546875,252.44140625,174.8046875,91.796875,0.0
1676924014.6066346,41.50390625,134.765625,96.6796875,47.36328125,0.0
1676924014.6104112,40.52734375,-208.984375,-145.01953125,28.80859375,0.0
1676924014.6141875,27.83203125,-262.20703125,-178.7109375,77.1484375,0.0
1676924014.6179638,27.34375,-72.75390625,-38.57421875,102.5390625,0.0
1676924014.6217403,54.19921875,92.7734375,79.58984375,56.640625,0.0
1676924014.6255167,41.50390625,-553.7109375,-371.58203125,36.1328125,0.0
1676924014.6292932,28.80859375,-518.06640625,-380.37109375,66.40625,0.0
1676924014.6330695,28.3203125,295.8984375,186.5234375,88.8671875,0.0
1676924014.636771,25.390625,101.5625,66.40625,85.44921875,0.0
1676924014.6404727,24.90234375,-47.8515625,-51.7578125,41.015625,0.0
1676924014.644174,29.78515625,174.8046875,85.9375,52.734375,0.0
1676924014.6478758,19.53125,273.92578125,169.921875,105.95703125,0.0
1676924014.6515772,19.04296875,62.5,41.9921875,100.09765625,0.0
1676924014.6552787,28.80859375,-277.34375,-193.84765625,46.875,0.0
1676924014.6589804,25.390625,-94.23828125,-60.05859375,45.8984375,0.0
1676924014.6626818,15.625,138.671875,128.90625,103.02734375,0.0
1676924014.6663835,7.32421875,-308.10546875,-169.43359375,133.7890625,0.0
1676924014.670085,24.90234375,-788.57421875,-528.3203125,87.40234375,0.0
1676924014.6737866,43.9453125,-123.53515625,-92.7734375,38.57421875,0.0
1676924014.677488,17.08984375,339.35546875,247.55859375,76.171875,0.0
1676924014.6812367,0.0,46.875,46.875,97.65625,0.0
1676924014.6849852,33.203125,109.86328125,69.82421875,61.03515625,0.0
1676924014.6887338,34.1796875,270.99609375,170.41015625,32.2265625,0.0
1676924014.6924825,18.5546875,195.3125,120.60546875,60.05859375,0.0
1676924014.6962311,3.41796875,-36.1328125,-23.92578125,102.5390625,0.0
1676924014.6999798,11.71875,-220.21484375,-137.20703125,92.7734375,0.0
1676924014.7037282,39.0625,-43.45703125,-7.8125,41.015625,0.0
1676924014.7074769,34.66796875,165.52734375,135.7421875,42.96875,0.0
1676924014.7112255,4.8828125,-407.71484375,-284.1796875,100.09765625,0.0
1676924014.714974,20.01953125,-292.48046875,-210.9375,107.421875,0.0
1676924014.7187226,44.43359375,147.94921875,108.3984375,58.59375,0.0
1676924014.7224712,36.62109375,-188.96484375,-110.3515625,53.22265625,0.0
1676924014.7262375,18.06640625,-225.09765625,-135.7421875,100.5859375,0.0
1676924014.7300038,36.1328125,165.0390625,131.8359375,116.2109375,0.0
1676924014.7337701,60.05859375,296.38671875,208.0078125,67.87109375,0.0
1676924014.7375364,46.38671875,-23.92578125,-25.87890625,41.50390625,0.0
1676924014.7413027,24.90234375,-82.03125,-76.66015625,80.078125,0.0
1676924014.745069,8.7890625,-28.3203125,-37.59765625,104.4921875,0.0
1676924014.7488353,23.92578125,-77.63671875,-62.01171875,63.4765625,0.0
1676924014.7526016,33.203125,-366.69921875,-261.71875,22.94921875,0.0
1676924014.756368,18.5546875,-566.89453125,-412.59765625,57.6171875,0.0
1676924014.7601342,17.578125,89.84375,30.76171875,96.6796875,0.0
1676924014.7639005,39.55078125,342.7734375,220.703125,86.9140625,0.0
1676924014.7676668,37.59765625,84.47265625,31.25,44.43359375,0.0
1676924014.7714922,21.97265625,75.68359375,21.484375,51.7578125,0.0
1676924014.775318,6.8359375,89.35546875,65.91796875,91.796875,0.0
1676924014.7791433,10.25390625,36.62109375,31.73828125,88.8671875,0.0
1676924014.782969,23.4375,-138.671875,-102.05078125,44.921875,0.0
1676924014.7867944,18.06640625,-66.89453125,-49.31640625,31.25,0.0
1676924014.7906199,-0.9765625,-7.32421875,18.5546875,77.63671875,0.0
1676924014.7944455,-11.23046875,-117.67578125,-41.9921875,99.12109375,0.0
1676924014.798271,-5.37109375,-435.546875,-287.109375,67.3828125,0.0
1676924014.8020966,5.37109375,-318.84765625,-228.515625,37.59765625,0.0
1676924014.805922,1.46484375,334.9609375,244.140625,61.03515625,0.0
1676924014.8097477,-16.11328125,107.91015625,116.2109375,99.12109375,0.0
1676924014.8135731,5.859375,-101.5625,-46.38671875,83.49609375,0.0
1676924014.8172069,17.578125,166.9921875,97.16796875,41.9921875,0.0
1676924014.8208408,1.46484375,293.9453125,186.5234375,64.94140625,0.0
1676924014.8244746,-18.06640625,57.12890625,37.109375,112.79296875,0.0
1676924014.8281085,-10.25390625,-39.0625,-23.4375,109.375,0.0
1676924014.8317423,-0.9765625,4.39453125,7.32421875,45.8984375,0.0
1676924014.8353763,-6.34765625,-68.84765625,-45.41015625,42.48046875,0.0
1676924014.83901,-22.94921875,-270.5078125,-171.875,99.609375,0.0
1676924014.8426437,-12.6953125,-750.48828125,-508.7890625,119.140625,0.0
1676924014.8462777,22.94921875,-229.4921875,-158.69140625,62.5,0.0
1676924014.8499115,34.66796875,295.8984375,220.21484375,28.80859375,0.0
1676924014.8535454,20.01953125,49.8046875,65.91796875,71.2890625,0.0
1676924014.8571792,25.390625,90.33203125,92.7734375,102.5390625,0.0
1676924014.8609426,52.734375,313.96484375,231.4453125,62.5,0.0
1676924014.864706,53.7109375,196.77734375,142.578125,19.04296875,0.0
1676924014.8684695,30.2734375,-12.20703125,-5.859375,42.48046875,0.0
1676924014.872233,19.04296875,101.5625,63.96484375,73.73046875,0.0
1676924014.8759964,40.0390625,222.65625,147.94921875,54.19921875,0.0
1676924014.8797598,54.19921875,9.27734375,2.44140625,2.44140625,0.0
1676924014.883523,43.9453125,-586.42578125,-406.73828125,33.203125,0.0
1676924014.8872864,28.80859375,-612.3046875,-424.8046875,86.42578125,0.0
1676924014.8910499,53.22265625,156.25,118.1640625,64.94140625,0.0
1676924014.8948133,66.40625,184.08203125,146.484375,9.765625,0.0
1676924014.8985767,49.31640625,-147.94921875,-86.9140625,24.90234375,0.0
1676924014.9023402,27.83203125,62.5,71.2890625,75.68359375,0.0
1676924014.9073362,35.15625,308.10546875,241.69921875,81.0546875,0.0
1676924014.912332,54.19921875,87.890625,82.03125,41.50390625,0.0
1676924014.9173281,53.7109375,-45.41015625,-13.671875,16.11328125,0.0
1676924014.9223242,55.6640625,215.8203125,166.9921875,62.5,0.0
1676924014.9273202,40.52734375,293.9453125,246.09375,100.5859375,0.0
1676924014.9323163,41.50390625,-185.546875,-87.40234375,80.56640625,0.0
1676924014.9373121,49.8046875,-401.3671875,-253.90625,41.9921875,0.0
1676924014.9423082,42.48046875,142.08984375,122.55859375,64.453125,0.0
1676924014.9473042,53.22265625,344.23828125,271.97265625,116.69921875,0.0
1676924014.9523,57.12890625,-174.31640625,-72.75390625,116.69921875,0.0
1676924014.9572961,49.31640625,-427.24609375,-278.80859375,72.265625,0.0
1676924014.9622922,51.7578125,140.13671875,92.28515625,70.3125,0.0
1676924014.9660532,33.69140625,284.1796875,209.47265625,101.07421875,0.0
1676924014.9698143,29.296875,-154.78515625,-77.63671875,87.40234375,0.0
1676924014.9735754,41.50390625,-161.1328125,-90.8203125,47.36328125,0.0
1676924014.9773364,54.6875,245.60546875,171.38671875,59.08203125,0.0
1676924014.9810975,42.96875,217.28515625,160.15625,109.86328125,0.0
1676924014.9848585,40.52734375,-178.7109375,-112.3046875,126.46484375,0.0
1676924014.9886196,76.66015625,-183.10546875,-109.86328125,90.33203125,0.0
1676924014.9923806,86.9140625,176.26953125,134.765625,58.10546875,0.0
1676924014.9961417,69.82421875,154.296875,122.0703125,100.5859375,0.0
1676924014.9999027,48.33984375,-452.63671875,-302.24609375,140.625,0.0
1676924015.0036638,53.7109375,-349.12109375,-249.51171875,81.0546875,0.0
1676924015.0074248,81.0546875,253.41796875,158.203125,12.6953125,0.0
1676924015.0112011,62.5,-6.34765625,-19.04296875,46.875,0.0
1676924015.0149777,38.57421875,-193.84765625,-139.6484375,118.1640625,0.0
1676924015.018754,68.84765625,112.3046875,51.26953125,102.05078125,0.0
1676924015.0225303,80.078125,290.52734375,166.50390625,43.45703125,0.0
1676924015.0263069,42.96875,-76.171875,-66.89453125,77.63671875,0.0
1676924015.0300832,14.16015625,-468.26171875,-325.1953125,134.765625,0.0
1676924015.0338595,46.875,-191.40625,-132.8125,128.90625,0.0
1676924015.037636,56.15234375,163.0859375,106.4453125,69.3359375,0.0
1676924015.0414124,30.2734375,-216.30859375,-144.04296875,51.26953125,0.0
1676924015.0451887,13.671875,-587.890625,-403.80859375,92.7734375,0.0
1676924015.0489652,19.53125,62.01171875,30.76171875,102.05078125,0.0
1676924015.0527415,33.203125,218.75,139.6484375,66.40625,0.0
1676924015.0564625,35.15625,-30.2734375,-42.48046875,41.015625,0.0
1676924015.0601835,29.78515625,7.32421875,-32.71484375,73.73046875,0.0
1676924015.0639045,28.80859375,121.09375,39.0625,96.19140625,0.0
1676924015.0676255,50.78125,21.97265625,-11.71875,62.98828125,0.0
1676924015.0713465,59.08203125,-153.3203125,-127.44140625,35.64453125,0.0
1676924015.0750675,47.36328125,-229.00390625,-168.9453125,63.4765625,0.0
1676924015.0787885,41.015625,-45.8984375,-51.26953125,101.5625,0.0
1676924015.0825095,56.15234375,179.6875,127.44140625,92.7734375,0.0
1676924015.0862305,44.43359375,-514.16015625,-324.70703125,55.17578125,0.0
1676924015.0899515,24.4140625,-559.5703125,-400.390625,54.6875,0.0
1676924015.0936725,14.6484375,192.87109375,94.7265625,86.9140625,0.0
1676924015.0973935,18.06640625,42.96875,6.8359375,97.65625,0.0
1676924015.1011448,41.50390625,-88.37890625,-72.265625,50.78125,0.0
1676924015.1048963,47.8515625,134.27734375,73.73046875,27.83203125,0.0
1676924015.1086476,28.3203125,259.27734375,166.9921875,69.82421875,0.0
1676924015.112399,24.90234375,30.2734375,11.23046875,100.09765625,0.0
1676924015.1161504,52.24609375,-81.54296875,-78.125,64.94140625,0.0
1676924015.1199017,46.875,-97.16796875,-106.93359375,27.83203125,0.0
1676924015.1236532,22.94921875,-182.12890625,-163.0859375,65.4296875,0.0
1676924015.1274045,2.44140625,-366.69921875,-268.5546875,110.83984375,0.0
1676924015.131156,20.99609375,-801.7578125,-583.0078125,92.7734375,0.0
1676924015.1349072,41.015625,-195.3125,-164.0625,24.90234375,0.0
1676924015.1386588,25.87890625,279.296875,192.3828125,34.1796875,0.0
1676924015.14241,3.90625,-31.25,-21.484375,75.68359375,0.0
1676924015.146157,21.97265625,52.24609375,32.2265625,69.3359375,0.0
1676924015.1499043,36.62109375,297.36328125,207.51953125,31.73828125,0.0
1676924015.1536512,34.1796875,189.94140625,120.60546875,27.83203125,0.0
1676924015.1573982,15.625,-38.57421875,-29.78515625,76.66015625,0.0
1676924015.1611454,14.6484375,18.5546875,20.01953125,98.6328125,0.0
1676924015.1648924,30.2734375,-79.1015625,-59.08203125,49.31640625,0.0
1676924015.1686394,20.99609375,-168.9453125,-122.55859375,18.06640625,0.0
1676924015.1723866,12.6953125,-527.83203125,-357.91015625,63.96484375,0.0
1676924015.1761336,15.625,-359.375,-234.375,98.6328125,0.0
1676924015.1798806,39.55078125,131.8359375,98.6328125,65.4296875,0.0
1676924015.1836278,41.015625,-144.53125,-90.33203125,18.06640625,0.0
1676924015.1873748,26.85546875,-209.47265625,-123.046875,48.828125,0.0
1676924015.1911218,19.53125,130.859375,94.23828125,69.3359375,0.0
1676924015.1948688,24.4140625,324.70703125,234.375,36.1328125,0.0
1676924015.1986158,40.0390625,19.53125,23.92578125,7.8125,0.0
1676924015.2023628,42.48046875,-61.03515625,-43.9453125,31.25,0.0
1676924015.2061098,24.4140625,190.91796875,132.32421875,68.359375,0.0
1676924015.2098565,19.04296875,65.4296875,38.0859375,65.4296875,0.0
1676924015.2136035,17.578125,-410.15625,-296.38671875,24.4140625,0.0
1676924015.2173505,11.23046875,-584.9609375,-429.6875,20.5078125,0.0
1676924015.2210975,13.671875,49.31640625,0.9765625,54.6875,0.0
1676924015.2248445,10.7421875,298.33984375,198.73046875,60.546875,0.0
1676924015.2285914,24.4140625,-46.875,-31.25,17.578125,0.0
1676924015.2323384,37.59765625,-102.05078125,-71.2890625,-9.27734375,0.0
1676924015.2361934,17.578125,22.94921875,14.6484375,28.3203125,0.0
1676924015.2400486,5.859375,42.48046875,26.85546875,55.6640625,0.0
1676924015.2439036,9.765625,-172.36328125,-119.62890625,20.01953125,0.0
1676924015.2477589,24.4140625,-99.609375,-57.6171875,-20.5078125,0.0
1676924015.2516139,18.5546875,205.078125,177.734375,5.859375,0.0
1676924015.2554688,-9.765625,10.25390625,54.6875,43.9453125,0.0
1676924015.259324,8.7890625,-507.32421875,-314.94140625,32.2265625,0.0
1676924015.263179,35.64453125,-360.83984375,-238.76953125,-31.25,0.0
1676924015.2670343,28.80859375,312.98828125,226.07421875,-21.97265625,0.0
1676924015.2708893,9.765625,109.375,90.8203125,36.62109375,0.0
1676924015.2747445,13.18359375,-83.0078125,-51.7578125,38.57421875,0.0
1676924015.2785995,28.80859375,159.66796875,94.23828125,-12.6953125,0.0
1676924015.2822523,29.78515625,280.2734375,165.0390625,-28.80859375,0.0
1676924015.285905,17.578125,33.203125,-1.953125,24.90234375,0.0
1676924015.2895577,20.01953125,-116.69921875,-96.6796875,45.8984375,0.0
1676924015.2932103,41.015625,-91.796875,-83.49609375,4.39453125,0.0
1676924015.296863,43.45703125,21.484375,-20.99609375,-27.34375,0.0
1676924015.3005157,36.1328125,-153.80859375,-136.23046875,33.69140625,0.0
1676924015.3041685,13.671875,-836.9140625,-610.3515625,102.05078125,0.0
1676924015.3078213,21.97265625,-285.64453125,-206.54296875,54.6875,0.0
1676924015.3114738,39.55078125,323.2421875,224.12109375,-3.41796875,0.0
1676924015.3151267,29.78515625,15.13671875,-2.44140625,20.99609375,0.0
1676924015.3187792,15.625,52.734375,67.3828125,60.546875,0.0
1676924015.322432,26.3671875,312.98828125,253.41796875,60.05859375,0.0
1676924015.3274174,33.203125,222.65625,173.828125,17.08984375,0.0
1676924015.3324027,20.01953125,13.671875,27.83203125,13.18359375,0.0
1676924015.3373883,11.71875,88.8671875,82.51953125,54.19921875,0.0
1676924015.3423736,20.5078125,250.48828125,206.54296875,60.546875,0.0
1676924015.347359,24.90234375,140.625,133.30078125,18.06640625,0.0
1676924015.3523445,26.3671875,-242.1875,-145.99609375,-2.44140625,0.0
1676924015.3573298,4.39453125,-357.91015625,-225.5859375,47.36328125,0.0
1676924015.3623152,0.9765625,-94.23828125,-37.109375,67.87109375,0.0
1676924015.3673005,28.80859375,94.23828125,88.37890625,13.671875,0.0
1676924015.3722858,26.3671875,-598.14453125,-416.50390625,-14.6484375,0.0
1676924015.3772714,17.08984375,-595.703125,-422.36328125,16.11328125,0.0
1676924015.3822567,22.4609375,225.09765625,161.62109375,42.48046875,0.0
1676924015.3860157,46.875,55.6640625,53.22265625,32.71484375,0.0
1676924015.3897746,57.12890625,-104.98046875,-54.6875,9.27734375,0.0
1676924015.3935332,36.1328125,172.36328125,112.3046875,30.2734375,0.0
1676924015.3972921,19.04296875,262.20703125,184.08203125,60.546875,0.0
1676924015.401051,24.90234375,21.484375,30.76171875,42.96875,0.0
1676924015.40481,23.4375,-279.296875,-192.3828125,-7.8125,0.0
1676924015.4085689,17.578125,-95.703125,-78.61328125,1.953125,0.0
1676924015.4123278,18.06640625,253.41796875,179.19921875,52.734375,0.0
1676924015.4160867,2.44140625,-209.9609375,-116.69921875,70.80078125,0.0
1676924015.4198453,3.90625,-470.21484375,-328.61328125,28.3203125,0.0
1676924015.4236042,22.4609375,109.86328125,31.25,-14.16015625,0.0
1676924015.4273632,14.6484375,315.4296875,205.56640625,15.625,0.0
1676924015.431109,-1.953125,-313.96484375,-207.51953125,53.7109375,0.0
1676924015.4348545,17.08984375,-697.75390625,-498.046875,34.1796875,0.0
1676924015.4386,43.9453125,7.8125,-15.13671875,-15.13671875,0.0
1676924015.4423459,29.296875,147.4609375,102.5390625,30.76171875,0.0
1676924015.4460917,-2.44140625,-33.69140625,-14.6484375,77.63671875,0.0
1676924015.4498372,11.23046875,-129.8828125,-68.84765625,53.7109375,0.0
1676924015.4535828,28.3203125,-201.66015625,-126.953125,-6.34765625,0.0
1676924015.4573286,10.25390625,-21.484375,-2.44140625,-4.39453125,0.0
1676924015.4610744,-9.27734375,-403.80859375,-237.79296875,62.98828125,0.0
1676924015.46482,4.39453125,-333.0078125,-200.68359375,53.7109375,0.0
1676924015.4685655,34.66796875,293.45703125,219.7265625,-8.30078125,0.0
1676924015.4723113,26.3671875,27.83203125,47.36328125,-6.34765625,0.0
1676924015.4760673,7.32421875,-165.52734375,-81.54296875,49.31640625,0.0
1676924015.4798236,22.4609375,169.43359375,145.01953125,70.3125,0.0
1676924015.4835796,28.3203125,304.6875,243.1640625,18.5546875,0.0
1676924015.4873357,10.25390625,-28.80859375,4.39453125,-21.97265625,0.0
1676924015.491092,-4.8828125,-202.63671875,-116.69921875,21.484375,0.0
1676924015.494848,-11.23046875,-121.58203125,-43.45703125,54.19921875,0.0
1676924015.498604,8.30078125,30.76171875,68.359375,19.53125,0.0
1676924015.5023603,39.0625,-186.03515625,-93.75,-13.18359375,0.0
1676924015.5061164,19.04296875,-609.375,-425.78125,21.484375,0.0
1676924015.5098724,0.0,-11.23046875,-14.16015625,64.453125,0.0
1676924015.5136287,31.73828125,292.48046875,224.12109375,86.42578125,0.0
1676924015.5173848,48.33984375,48.828125,56.640625,51.26953125,0.0
1676924015.5224214,22.4609375,19.04296875,11.23046875,41.9921875,0.0
1676924015.5274577,4.39453125,223.14453125,158.203125,98.14453125,0.0
1676924015.5324943,13.18359375,73.2421875,83.0078125,99.609375,0.0
1676924015.537531,23.92578125,-347.65625,-214.35546875,57.6171875,0.0
1676924015.5425675,33.203125,-143.06640625,-68.84765625,55.6640625,0.0
1676924015.547604,15.13671875,24.4140625,76.171875,83.49609375,0.0
1676924015.5526404,0.48828125,-132.8125,-16.11328125,101.5625,0.0
1676924015.557677,-2.44140625,-565.91796875,-342.28515625,78.125,0.0
1676924015.5627136,16.11328125,-416.015625,-270.5078125,47.36328125,0.0
1676924015.56775,19.04296875,292.96875,238.28125,81.54296875,0.0
1676924015.5727866,-3.41796875,100.5859375,124.51171875,118.1640625,0.0
1676924015.5778232,10.25390625,-97.65625,-14.6484375,98.6328125,0.0
1676924015.5802739,11.71875,115.72265625,124.51171875,53.22265625,0.0
1676924015.5827246,-10.25390625,247.55859375,212.40234375,72.265625,0.0
1676924015.5851755,-28.80859375,-11.23046875,32.71484375,123.53515625,0.0
1676924015.5876262,-13.671875,-66.89453125,12.6953125,122.0703125,0.0
1676924015.590077,12.6953125,174.8046875,183.10546875,99.609375,0.0
1676924015.5925279,20.5078125,-29.78515625,40.0390625,109.86328125,0.0
1676924015.5949786,-16.6015625,-297.36328125,-150.87890625,155.76171875,0.0
1676924015.5974293,-5.37109375,-174.31640625,-48.828125,161.62109375,0.0
1676924015.59988,34.1796875,141.6015625,177.734375,103.02734375,0.0
1676924015.6023307,21.484375,229.98046875,215.8203125,75.68359375,0.0
1676924015.6047816,-7.32421875,-276.3671875,-123.53515625,120.60546875,0.0
1676924015.6072323,-14.6484375,-892.578125,-576.66015625,153.80859375,0.0
1676924015.610974,18.5546875,-224.609375,-116.2109375,105.95703125,0.0
1676924015.6147156,32.2265625,251.46484375,242.1875,57.6171875,0.0
1676924015.6184573,22.94921875,-23.4375,39.55078125,79.1015625,0.0
1676924015.622199,16.6015625,72.265625,110.83984375,118.1640625,0.0
1676924015.6259408,24.90234375,212.40234375,235.83984375,107.91015625,0.0
1676924015.6296825,24.90234375,1.953125,91.796875,61.5234375,0.0
1676924015.633424,-0.48828125,-530.2734375,-286.62109375,83.0078125,0.0
1676924015.6371658,-2.44140625,-397.4609375,-205.56640625,119.140625,0.0
1676924015.6409075,26.85546875,27.83203125,83.49609375,93.26171875,0.0
1676924015.644649,42.96875,-152.34375,-31.25,43.45703125,0.0
1676924015.6483908,31.73828125,-290.52734375,-128.90625,45.8984375,0.0
1676924015.6521325,20.01953125,-86.9140625,-12.20703125,106.93359375,0.0
1676924015.6559134,39.0625,262.6953125,223.6328125,119.140625,0.0
1676924015.659694,54.19921875,55.6640625,83.49609375,65.91796875,0.0
1676924015.6634746,67.87109375,-58.59375,4.8828125,45.41015625,0.0
1676924015.6672554,39.55078125,194.82421875,179.6875,84.47265625,0.0
1676924015.6710362,26.3671875,256.34765625,242.67578125,98.14453125,0.0
1676924015.6748168,53.7109375,-270.01953125,-122.0703125,81.54296875,0.0
1676924015.6785975,56.15234375,-575.1953125,-358.88671875,60.05859375,0.0
1676924015.6823783,54.19921875,57.12890625,67.3828125,72.75390625,0.0
1676924015.6861591,44.921875,267.08984375,225.5859375,99.609375,0.0
1676924015.6899397,53.22265625,-88.8671875,-21.97265625,85.9375,0.0
1676924015.6937203,67.87109375,-102.5390625,-51.26953125,38.0859375,0.0
1676924015.6975012,53.22265625,1.953125,34.66796875,52.734375,0.0
1676924015.7024896,44.921875,77.1484375,111.81640625,111.81640625,0.0
1676924015.707478,48.828125,-125.0,-8.30078125,119.62890625,0.0
1676924015.7124667,46.875,-170.8984375,-48.828125,72.265625,0.0
1676924015.7174551,52.734375,188.4765625,176.26953125,62.5,0.0
1676924015.7224436,40.0390625,142.08984375,149.90234375,104.00390625,0.0
1676924015.7274323,22.94921875,-205.078125,-78.125,116.69921875,0.0
1676924015.7324207,35.15625,-223.14453125,-95.703125,70.80078125,0.0
1676924015.737409,48.828125,176.7578125,167.96875,53.22265625,0.0
1676924015.7423975,38.57421875,116.69921875,137.20703125,96.6796875,0.0
1676924015.747386,20.5078125,-376.46484375,-201.66015625,134.27734375,0.0
1676924015.7523746,43.9453125,-174.31640625,-81.54296875,96.19140625,0.0
1676924015.757363,57.12890625,228.515625,179.19921875,42.96875,0.0
1676924015.761242,29.78515625,22.94921875,53.22265625,73.73046875,0.0
1676924015.7651205,13.18359375,-172.36328125,-62.01171875,112.79296875,0.0
1676924015.7689993,48.828125,-146.97265625,-53.22265625,101.5625,0.0
1676924015.7728782,73.2421875,98.6328125,96.6796875,52.24609375,0.0
1676924015.7767568,43.45703125,-53.22265625,-13.18359375,70.80078125,0.0
1676924015.7806356,22.94921875,-524.90234375,-332.51953125,142.578125,0.0
1676924015.7845144,34.66796875,-285.15625,-188.4765625,120.1171875,0.0
1676924015.788393,47.8515625,182.12890625,120.1171875,39.55078125,0.0
1676924015.7922719,34.66796875,-208.49609375,-129.8828125,38.57421875,0.0
1676924015.7961507,19.04296875,-599.609375,-397.4609375,83.49609375,0.0
1676924015.8000293,41.015625,67.87109375,58.59375,88.8671875,0.0
1676924015.803908,46.38671875,218.75,177.734375,55.6640625,0.0
1676924015.8075361,31.73828125,-46.875,-10.7421875,19.04296875,0.0
1676924015.811164,33.203125,46.38671875,45.8984375,55.6640625,0.0
1676924015.8147917,27.83203125,258.7890625,199.21875,98.6328125,0.0
1676924015.8184197,27.83203125,207.03125,165.52734375,75.68359375,0.0
1676924015.8220477,31.25,-74.21875,-43.9453125,27.83203125,0.0
1676924015.8256755,21.97265625,-230.46875,-148.4375,38.57421875,0.0
1676924015.8293033,1.46484375,-205.078125,-125.48828125,75.68359375,0.0
1676924015.8329313,12.20703125,-142.578125,-67.3828125,69.3359375,0.0
1676924015.8365593,19.53125,-422.8515625,-247.55859375,29.296875,0.0
1676924015.840187,16.6015625,-266.11328125,-150.87890625,35.64453125,0.0
1676924015.8438148,3.41796875,270.01953125,222.16796875,74.70703125,0.0
1676924015.8474429,11.23046875,95.21484375,93.26171875,85.44921875,0.0
1676924015.85119,41.9921875,-337.890625,-226.07421875,47.8515625,0.0
1676924015.8549373,32.2265625,-99.609375,-71.2890625,23.92578125,0.0
1676924015.8586845,14.6484375,220.703125,156.25,56.15234375,0.0
1676924015.862432,9.765625,45.41015625,59.5703125,67.87109375,0.0
1676924015.8661792,30.2734375,-72.75390625,-34.66796875,23.92578125,0.0
1676924015.8699265,38.57421875,-120.1171875,-99.609375,4.8828125,0.0
1676924015.8736737,8.30078125,-143.06640625,-88.37890625,45.8984375,0.0
1676924015.877421,-4.39453125,-356.4453125,-204.1015625,73.73046875,0.0
1676924015.8811684,19.04296875,-808.59375,-532.2265625,61.5234375,0.0
1676924015.8849156,46.875,-190.91796875,-108.88671875,8.30078125,0.0
1676924015.8886628,23.92578125,346.6796875,263.671875,19.04296875,0.0
1676924015.89241,-14.16015625,62.98828125,70.3125,64.94140625,0.0
1676924015.896135,15.13671875,65.4296875,71.77734375,56.15234375,0.0
1676924015.89986,44.43359375,282.2265625,198.73046875,4.39453125,0.0
1676924015.903585,23.92578125,210.44921875,128.90625,2.44140625,0.0
1676924015.90731,6.8359375,59.08203125,57.12890625,57.12890625,0.0
1676924015.911035,13.671875,99.12109375,93.26171875,70.3125,0.0
1676924015.91476,39.55078125,-23.4375,1.46484375,31.73828125,0.0
1676924015.918485,39.0625,-120.1171875,-57.12890625,7.8125,0.0
1676924015.92221,0.9765625,-496.09375,-324.21875,38.57421875,0.0
1676924015.925935,-7.32421875,-349.609375,-235.3515625,61.03515625,0.0
1676924015.9296598,18.5546875,279.296875,197.75390625,16.6015625,0.0
1676924015.933385,41.50390625,53.7109375,47.8515625,-20.5078125,0.0
1676924015.93711,34.1796875,-160.15625,-96.19140625,19.04296875,0.0
1676924015.9408827,10.25390625,108.3984375,96.6796875,50.78125,0.0
1676924015.9446552,15.13671875,334.9609375,254.39453125,29.296875,0.0
1676924015.948428,27.34375,11.71875,27.34375,-14.16015625,0.0
1676924015.9522007,17.578125,-217.7734375,-131.34765625,-4.39453125,0.0
1676924015.9559731,13.18359375,115.234375,109.86328125,43.9453125,0.0
1676924015.959746,25.87890625,12.20703125,45.8984375,47.36328125,0.0
1676924015.9635186,26.85546875,-395.5078125,-242.67578125,-7.32421875,0.0
1676924015.967291,30.2734375,-593.75,-374.51171875,-5.37109375,0.0
1676924015.9710639,33.203125,-18.5546875,40.52734375,39.0625,0.0
1676924015.9748366,23.92578125,270.99609375,241.69921875,41.50390625,0.0
1676924015.978609,40.0390625,-9.765625,37.59765625,-4.39453125,0.0
1676924015.9823818,53.22265625,21.484375,66.89453125,-22.94921875,0.0
1676924015.9862309,32.2265625,252.44140625,234.86328125,23.4375,0.0
1676924015.9900799,21.97265625,120.1171875,145.5078125,53.7109375,0.0
1676924015.993929,32.2265625,-320.3125,-167.96875,27.34375,0.0
1676924015.997778,34.66796875,-138.18359375,-51.26953125,-19.04296875,0.0
1676924016.001627,21.97265625,256.8359375,230.46875,14.6484375,0.0
1676924016.005476,5.37109375,30.2734375,100.09765625,58.59375,0.0
1676924016.0093248,1.46484375,-601.07421875,-360.3515625,41.50390625,0.0
1676924016.0131738,23.4375,-446.77734375,-280.76171875,-12.6953125,0.0
1676924016.0170228,30.2734375,275.390625,233.3984375,-12.6953125,0.0
1676924016.0208719,5.859375,177.24609375,186.5234375,53.22265625,0.0
1676924016.024721,3.90625,-44.43359375,33.203125,68.84765625,0.0
1676924016.02857,19.04296875,99.12109375,103.02734375,9.27734375,0.0
1676924016.0322225,21.97265625,236.328125,173.828125,-18.5546875,0.0
1676924016.035875,5.859375,5.859375,13.671875,35.64453125,0.0
1676924016.0395277,6.8359375,-121.09375,-69.3359375,60.05859375,0.0
1676924016.0431802,35.15625,75.68359375,57.12890625,10.7421875,0.0
1676924016.0468328,36.62109375,-20.5078125,-1.46484375,-34.1796875,0.0
1676924016.0504854,13.671875,-348.6328125,-220.21484375,26.3671875,0.0
1676924016.054138,1.46484375,-841.796875,-572.75390625,83.0078125,0.0
1676924016.0577905,31.73828125,-322.265625,-202.63671875,24.90234375,0.0
1676924016.061443,47.36328125,273.92578125,217.28515625,-26.3671875,0.0
1676924016.0650957,18.5546875,21.97265625,49.31640625,11.23046875,0.0
1676924016.0687482,4.8828125,22.94921875,56.15234375,56.640625,0.0
1676924016.0724008,17.578125,151.85546875,135.7421875,49.31640625,0.0
1676924016.0774016,23.92578125,167.48046875,151.3671875,1.46484375,0.0
1676924016.0824022,20.01953125,-33.69140625,-1.46484375,-2.44140625,0.0
1676924016.087403,10.7421875,-8.30078125,-9.765625,58.10546875,0.0
1676924016.092404,21.97265625,225.09765625,168.9453125,76.171875,0.0
1676924016.0974047,38.0859375,163.57421875,146.97265625,22.94921875,0.0
1676924016.1024055,31.73828125,-216.30859375,-141.6015625,6.8359375,0.0
1676924016.1074061,13.18359375,-236.328125,-177.24609375,44.921875,0.0
1676924016.112407,3.41796875,-83.984375,-55.6640625,55.17578125,0.0
1676924016.1174078,26.3671875,-36.1328125,-24.4140625,16.11328125,0.0
1676924016.1224084,33.69140625,-548.33984375,-378.90625,-2.9296875,0.0
1676924016.1274092,21.97265625,-535.64453125,-381.34765625,17.08984375,0.0
1676924016.13241,28.3203125,221.6796875,144.53125,32.71484375,0.0
1676924016.1361563,47.36328125,65.4296875,70.80078125,31.73828125,0.0
1676924016.1399026,47.36328125,-56.15234375,-23.4375,9.765625,0.0
1676924016.1436486,27.83203125,157.71484375,87.890625,28.80859375,0.0
1676924016.147395,17.08984375,244.140625,149.4140625,68.84765625,0.0
1676924016.1511412,25.87890625,16.6015625,18.5546875,55.17578125,0.0
1676924016.1548874,24.90234375,-315.4296875,-222.16796875,-0.48828125,0.0
1676924016.1586337,27.83203125,-151.3671875,-124.0234375,-19.04296875,0.0
1676924016.16238,14.16015625,238.76953125,141.6015625,26.3671875,0.0
1676924016.1661263,-2.44140625,-161.62109375,-140.13671875,63.96484375,0.0
1676924016.1698723,18.06640625,-638.671875,-459.47265625,24.4140625,0.0
1676924016.1736186,18.06640625,-192.87109375,-173.828125,-1.953125,0.0
1676924016.1773648,8.7890625,147.94921875,60.05859375,41.9921875,0.0
1676924016.1811123,3.41796875,-196.2890625,-150.87890625,70.3125,0.0
1676924016.18486,24.4140625,-208.984375,-163.57421875,49.8046875,0.0
1676924016.1886075,29.78515625,212.890625,122.0703125,14.16015625,0.0
1676924016.1923552,3.41796875,144.04296875,84.9609375,24.4140625,0.0
1676924016.1961026,-10.25390625,-39.0625,-29.296875,62.5,0.0
1676924016.19985,-2.9296875,-257.32421875,-187.01171875,46.875,0.0
1676924016.2035978,11.71875,-145.99609375,-124.51171875,-11.71875,0.0
1676924016.2073452,4.8828125,57.6171875,34.66796875,-1.46484375,0.0
1676924016.211093,-15.13671875,-497.55859375,-344.23828125,62.01171875,0.0
1676924016.2148404,0.0,-406.73828125,-280.2734375,62.98828125,0.0
1676924016.218588,16.6015625,226.5625,161.62109375,3.41796875,0.0
1676924016.2223356,13.18359375,83.49609375,76.171875,9.765625,0.0
1676924016.2261572,4.8828125,-138.18359375,-77.1484375,55.17578125,0.0
1676924016.2299786,1.46484375,-94.23828125,-47.8515625,56.15234375,0.0
1676924016.2338002,17.08984375,192.87109375,146.484375,1.46484375,0.0
1676924016.2376215,22.4609375,14.16015625,12.20703125,-12.6953125,0.0
1676924016.2414432,6.34765625,-342.28515625,-220.703125,40.52734375,0.0
1676924016.2452645,0.0,-181.640625,-119.62890625,78.125,0.0
1676924016.2490861,25.390625,-112.3046875,-67.3828125,53.22265625,0.0
1676924016.2529078,34.1796875,-387.6953125,-248.53515625,12.20703125,0.0
1676924016.2567291,6.8359375,-601.07421875,-422.36328125,53.22265625,0.0
1676924016.2605507,0.0,15.625,17.08984375,83.984375,0.0
1676924016.264372,20.5078125,246.58203125,199.70703125,57.12890625,0.0
1676924016.2681937,20.01953125,-22.4609375,-3.90625,2.44140625,0.0
1676924016.271877,24.90234375,30.76171875,29.296875,14.16015625,0.0
1676924016.2755604,11.23046875,213.37890625,149.4140625,71.2890625,0.0
1676924016.2792437,16.11328125,185.546875,132.32421875,65.91796875,0.0
1676924016.282927,35.15625,-120.1171875,-61.5234375,16.6015625,0.0
1676924016.2866104,10.7421875,-225.09765625,-141.11328125,19.04296875,0.0
1676924016.2902937,-21.484375,-174.31640625,-108.3984375,70.80078125,0.0
1676924016.293977,-22.94921875,-125.48828125,-42.96875,90.33203125,0.0
1676924016.2976604,-13.18359375,-591.30859375,-393.5546875,60.05859375,0.0
1676924016.3013437,-12.6953125,-720.21484375,-524.90234375,33.203125,0.0
1676924016.305027,-15.13671875,131.8359375,127.9296875,50.29296875,0.0
1676924016.3087103,-25.87890625,127.44140625,137.6953125,72.75390625,0.0
1676924016.3123937,-6.34765625,-58.10546875,0.9765625,52.24609375,0.0
1676924016.3161407,3.90625,144.53125,133.30078125,28.3203125,0.0
1676924016.3198879,-9.27734375,252.9296875,207.03125,58.10546875,0.0
1676924016.323635,-20.01953125,45.8984375,91.796875,105.46875,0.0
1676924016.327382,-5.37109375,-44.921875,29.296875,90.33203125,0.0
1676924016.331129,0.0,139.16015625,141.11328125,29.296875,0.0
1676924016.3348763,-12.20703125,-51.7578125,15.13671875,48.828125,0.0
1676924016.3386235,-32.71484375,-429.6875,-255.859375,113.28125,0.0
1676924016.3423705,-29.296875,-845.21484375,-552.734375,111.81640625,0.0
1676924016.3461175,9.27734375,-291.50390625,-164.55078125,47.36328125,0.0
1676924016.3498647,29.78515625,266.11328125,228.02734375,31.25,0.0
1676924016.353612,12.20703125,-12.20703125,35.15625,75.68359375,0.0
1676924016.357359,12.20703125,0.9765625,34.1796875,88.8671875,0.0
1676924016.3611147,37.59765625,260.7421875,204.58984375,48.33984375,0.0
1676924016.3648705,34.1796875,204.58984375,174.31640625,20.01953125,0.0
1676924016.368626,18.06640625,-20.01953125,25.87890625,54.19921875,0.0
1676924016.372382,11.71875,48.828125,77.63671875,86.42578125,0.0
1676924016.3761377,33.69140625,153.80859375,155.76171875,65.91796875,0.0
1676924016.3798933,41.50390625,-10.7421875,52.734375,31.25,0.0
1676924016.383649,23.92578125,-579.58984375,-335.9375,64.94140625,0.0
1676924016.387405,29.78515625,-431.15234375,-243.65234375,101.07421875,0.0
1676924016.3911607,49.8046875,274.90234375,251.46484375,86.42578125,0.0
1676924016.3949165,57.12890625,69.82421875,125.0,47.36328125,0.0
1676924016.398672,46.875,-222.65625,-76.171875,41.9921875,0.0
1676924016.402428,28.3203125,69.82421875,124.0234375,61.5234375,0.0
1676924016.4061816,30.76171875,331.0546875,302.734375,68.84765625,0.0
1676924016.4099352,39.55078125,41.50390625,105.95703125,44.43359375,0.0
1676924016.413689,40.52734375,-109.86328125,13.18359375,26.3671875,0.0
1676924016.4174426,22.94921875,175.78125,192.87109375,46.875,0.0
1676924016.4211962,17.08984375,252.44140625,244.62890625,69.82421875,0.0
1676924016.4249496,36.62109375,-232.421875,-78.125,61.5234375,0.0
1676924016.4287033,38.57421875,-568.84765625,-340.33203125,35.64453125,0.0
1676924016.432457,24.90234375,-12.20703125,40.0390625,42.96875,0.0
1676924016.4362106,16.11328125,266.11328125,269.53125,72.265625,0.0
1676924016.4399643,40.0390625,-76.171875,45.41015625,57.12890625,0.0
1676924016.443718,47.36328125,-112.3046875,0.9765625,15.625,0.0
1676924016.4474716,31.25,179.19921875,191.89453125,26.85546875,0.0
1676924016.451341,15.625,0.9765625,72.75390625,69.3359375,0.0
1676924016.4552104,18.06640625,-403.3203125,-203.61328125,76.66015625,0.0
1676924016.4590797,40.52734375,-218.75,-89.35546875,20.99609375,0.0
1676924016.462949,47.36328125,213.37890625,205.56640625,-1.46484375,0.0
1676924016.4668186,23.92578125,145.5078125,150.87890625,56.15234375,0.0
1676924016.4706879,22.94921875,-209.9609375,-86.42578125,83.0078125,0.0
1676924016.4745572,29.296875,-218.75,-88.8671875,29.78515625,0.0
1676924016.4784267,30.2734375,179.19921875,182.12890625,3.90625,0.0
1676924016.482296,15.625,131.8359375,172.36328125,46.38671875,0.0
1676924016.4861653,-2.9296875,-367.1875,-178.7109375,80.56640625,0.0
1676924016.4900348,20.99609375,-278.3203125,-138.18359375,43.45703125,0.0
1676924016.493904,32.71484375,65.91796875,87.890625,-2.9296875,0.0
1676924016.498765,16.11328125,-45.41015625,4.39453125,27.83203125,0.0
1676924016.5036259,19.04296875,-137.20703125,-44.921875,61.03515625,0.0
1676924016.5084867,39.55078125,50.78125,77.63671875,39.0625,0.0
1676924016.5133476,48.828125,-57.6171875,-0.48828125,2.44140625,0.0
1676924016.5182085,43.45703125,-354.00390625,-192.87109375,23.92578125,0.0
1676924016.5230694,23.92578125,-603.02734375,-356.93359375,79.58984375,0.0
1676924016.52793,42.96875,-217.28515625,-76.171875,78.125,0.0
1676924016.532791,53.22265625,274.4140625,264.6484375,21.484375,0.0
1676924016.5376518,27.34375,-213.8671875,-83.984375,13.18359375,0.0
1676924016.5425127,1.46484375,-511.23046875,-296.875,64.94140625,0.0
1676924016.5473735,20.99609375,137.6953125,156.73828125,78.125,0.0
1676924016.5522344,43.45703125,266.11328125,245.60546875,29.296875,0.0
1676924016.557253,38.0859375,-96.19140625,-10.25390625,17.08984375,0.0
1676924016.5622714,39.55078125,-51.26953125,9.27734375,67.87109375,0.0
1676924016.5672898,38.0859375,239.74609375,205.078125,77.63671875,0.0
1676924016.5723083,32.71484375,171.38671875,162.109375,32.2265625,0.0
1676924016.5773268,31.73828125,-36.1328125,31.25,-7.32421875,0.0
1676924016.5823452,10.25390625,-204.1015625,-90.33203125,20.01953125,0.0
1676924016.5873637,-4.8828125,-195.80078125,-74.70703125,61.03515625,0.0
1676924016.5923822,14.6484375,-41.9921875,61.03515625,47.8515625,0.0
1676924016.5974007,26.85546875,-565.91796875,-324.21875,4.8828125,0.0
1676924016.6024191,20.5078125,-677.734375,-428.7109375,9.765625,0.0
1676924016.6074376,6.34765625,186.5234375,207.03125,39.0625,0.0
1676924016.612456,14.16015625,157.71484375,195.80078125,40.0390625,0.0
1676924016.614959,35.64453125,-18.06640625,54.6875,1.46484375,0.0
1676924016.6174622,38.0859375,228.515625,221.6796875,-5.859375,0.0
1676924016.619965,28.3203125,340.8203125,296.875,49.31640625,0.0
1676924016.622468,10.25390625,54.6875,102.5390625,77.63671875,0.0
1676924016.6249712,19.04296875,-42.48046875,47.36328125,29.78515625,0.0
1676924016.627474,27.34375,-28.3203125,38.57421875,-6.8359375,0.0
1676924016.629977,15.625,-34.66796875,38.0859375,26.3671875,0.0
1676924016.6324801,0.9765625,-120.60546875,0.0,55.6640625,0.0
1676924016.634983,17.578125,-230.46875,-101.5625,34.1796875,0.0
1676924016.637486,25.87890625,-22.94921875,34.1796875,0.0,0.0
1676924016.6399891,2.44140625,230.46875,225.5859375,8.30078125,0.0
1676924016.642492,-3.90625,-186.5234375,-59.5703125,57.6171875,0.0
1676924016.6462362,9.765625,-786.62109375,-498.53515625,63.96484375,0.0
1676924016.6499805,18.06640625,-127.44140625,-61.03515625,-0.48828125,0.0
1676924016.6537247,12.20703125,191.89453125,163.57421875,-8.7890625,0.0
1676924016.657469,6.8359375,3.90625,41.9921875,41.50390625,0.0
1676924016.6612132,24.4140625,86.9140625,123.046875,63.96484375,0.0
1676924016.6649575,32.2265625,-64.94140625,0.0,18.06640625,0.0
1676924016.6687016,17.578125,-204.58984375,-126.46484375,-15.625,0.0
1676924016.6724458,-2.9296875,-525.390625,-328.61328125,37.109375,0.0
1676924016.6761901,5.859375,-392.08984375,-232.421875,65.4296875,0.0
1676924016.6799343,39.55078125,249.0234375,203.61328125,19.53125,0.0
1676924016.6836786,29.78515625,128.41796875,124.0234375,-19.04296875,0.0
1676924016.6874228,4.39453125,-159.66796875,-69.3359375,21.97265625,0.0
1676924016.691271,0.0,-67.87109375,-1.953125,66.89453125,0.0
1676924016.6951194,39.0625,252.44140625,212.40234375,45.41015625,0.0
1676924016.6989677,58.10546875,-4.39453125,30.2734375,9.27734375,0.0
1676924016.702816,29.78515625,-294.43359375,-181.15234375,33.69140625,0.0
1676924016.7066643,15.13671875,98.14453125,110.3515625,59.08203125,0.0
1676924016.7105126,26.3671875,108.88671875,140.13671875,46.38671875,0.0
1676924016.7143607,52.24609375,-363.28125,-202.1484375,19.53125,0.0
1676924016.718209,41.9921875,-556.640625,-352.5390625,16.11328125,0.0
1676924016.7220573,18.06640625,63.4765625,92.7734375,52.734375,0.0
1676924016.7259057,20.5078125,308.10546875,271.97265625,77.63671875,0.0
1676924016.729754,32.71484375,19.04296875,57.12890625,42.48046875,0.0
1676924016.7336023,40.0390625,44.43359375,71.2890625,12.6953125,0.0
1676924016.7372317,24.4140625,262.6953125,207.03125,72.75390625,0.0
1676924016.7408612,23.4375,208.984375,173.33984375,105.46875,0.0
1676924016.7444906,41.9921875,-170.41015625,-74.21875,57.6171875,0.0
1676924016.7481198,42.48046875,-168.45703125,-81.0546875,20.99609375,0.0
1676924016.7517493,31.73828125,127.9296875,117.1875,42.96875,0.0
1676924016.7553787,4.8828125,-2.44140625,55.6640625,76.66015625,0.0
1676924016.7590082,17.578125,-638.18359375,-427.734375,79.58984375,0.0
1676924016.7626376,37.59765625,-722.65625,-540.52734375,37.109375,0.0
1676924016.7662668,18.06640625,166.50390625,149.4140625,29.296875,0.0
1676924016.7698963,2.9296875,226.07421875,236.81640625,82.51953125,0.0
1676924016.7735257,15.625,17.578125,108.3984375,81.0546875,0.0
1676924016.7771552,22.94921875,151.85546875,177.734375,31.73828125,0.0
1676924016.7809162,18.06640625,229.98046875,209.47265625,37.59765625,0.0
1676924016.784677,17.08984375,38.57421875,106.93359375,85.44921875,0.0
1676924016.788438,6.8359375,-72.265625,38.57421875,98.6328125,0.0
1676924016.792199,20.99609375,203.61328125,227.05078125,68.84765625,0.0
1676924016.79596,41.015625,231.4453125,231.93359375,36.62109375,0.0
1676924016.7997208,20.99609375,-241.2109375,-95.703125,74.21875,0.0
1676924016.8034818,7.32421875,-632.32421875,-365.234375,111.328125,0.0
1676924016.8072429,27.83203125,-191.40625,-72.265625,63.96484375,0.0
1676924016.8110037,32.2265625,300.29296875,264.16015625,8.30078125,0.0
1676924016.8147647,15.13671875,-196.2890625,-78.125,42.48046875,0.0
1676924016.8185256,3.90625,-478.515625,-276.85546875,87.40234375,0.0
1676924016.8222866,25.390625,176.26953125,170.8984375,59.08203125,0.0
1676924016.8272972,31.73828125,245.1171875,209.9609375,23.92578125,0.0
1676924016.8323076,18.06640625,-10.25390625,20.01953125,44.43359375,0.0
1676924016.8373182,20.99609375,-10.7421875,13.671875,83.984375,0.0
1676924016.8423288,20.99609375,168.45703125,143.5546875,86.42578125,0.0
1676924016.8473392,33.203125,161.1328125,132.8125,41.50390625,0.0
1676924016.8523498,35.64453125,-212.40234375,-127.9296875,24.4140625,0.0
1676924016.8573604,19.53125,-251.953125,-151.85546875,65.91796875,0.0
1676924016.8623707,32.71484375,110.3515625,97.65625,90.33203125,0.0
1676924016.8673813,57.6171875,69.82421875,69.82421875,60.05859375,0.0
1676924016.872392,62.98828125,-640.13671875,-448.2421875,38.0859375,0.0
1676924016.8774023,47.36328125,-587.890625,-422.8515625,66.40625,0.0
1676924016.882413,32.71484375,206.54296875,123.046875,80.56640625,0.0
1676924016.8861592,45.41015625,37.109375,5.859375,62.01171875,0.0
1676924016.8899057,46.38671875,-124.51171875,-83.49609375,20.01953125,0.0
1676924016.893652,27.34375,171.875,125.0,43.45703125,0.0
1676924016.8973985,17.08984375,277.34375,195.3125,97.16796875,0.0
1676924016.9011447,30.76171875,47.36328125,47.8515625,88.8671875,0.0
1676924016.904891,28.3203125,-336.9140625,-221.6796875,46.38671875,0.0
1676924016.9086375,21.484375,-208.0078125,-144.53125,46.875,0.0
1676924016.9123838,11.71875,219.23828125,144.53125,83.0078125,0.0
1676924016.9161303,11.71875,-151.3671875,-84.9609375,106.4453125,0.0
1676924016.9198766,21.97265625,-575.1953125,-386.71875,61.5234375,0.0
1676924016.923623,33.203125,-58.59375,-51.26953125,23.4375,0.0
1676924016.9273694,17.08984375,-11.23046875,12.6953125,75.68359375,0.0
1676924016.9311237,7.8125,-384.27734375,-244.140625,113.28125,0.0
1676924016.934878,22.4609375,-199.21875,-106.93359375,66.89453125,0.0
1676924016.9386325,31.25,245.60546875,191.40625,18.06640625,0.0
1676924016.9423869,32.2265625,161.62109375,120.60546875,54.19921875,0.0
1676924016.9461412,8.7890625,-49.31640625,-5.859375,78.125,0.0
1676924016.9498956,24.4140625,-166.50390625,-81.54296875,60.546875,0.0
1676924016.95365,43.9453125,-119.62890625,-63.4765625,24.90234375,0.0
1676924016.9574044,27.34375,89.35546875,96.6796875,27.34375,0.0
1676924016.9611588,3.41796875,-441.89453125,-260.25390625,71.2890625,0.0
1676924016.9649131,17.578125,-399.90234375,-244.140625,65.4296875,0.0
1676924016.9686675,39.55078125,291.9921875,223.6328125,8.30078125,0.0
1676924016.972422,25.390625,103.515625,102.05078125,-1.953125,0.0
1676924016.97627,8.7890625,-51.26953125,9.27734375,49.8046875,0.0
1676924016.980118,20.01953125,104.98046875,103.515625,59.08203125,0.0
1676924016.983966,49.8046875,-44.921875,2.44140625,12.20703125,0.0
1676924016.9878142,37.109375,-318.84765625,-172.8515625,-9.27734375,0.0
1676924016.9916623,6.8359375,-342.7734375,-189.453125,36.1328125,0.0
1676924016.9955103,-0.9765625,-232.421875,-129.8828125,60.05859375,0.0
1676924016.9993584,3.41796875,-33.69140625,0.9765625,19.53125,0.0
1676924017.0032065,16.11328125,-208.0078125,-129.8828125,-12.6953125,0.0
1676924017.0070546,9.27734375,-591.30859375,-394.04296875,20.5078125,0.0
1676924017.0109026,-3.90625,10.25390625,38.0859375,59.5703125,0.0
1676924017.0147507,18.5546875,274.4140625,215.33203125,62.01171875,0.0
1676924017.0185988,21.484375,-36.1328125,-10.7421875,19.53125,0.0
1676924017.0222495,12.20703125,0.9765625,7.8125,26.85546875,0.0
1676924017.0259004,-2.9296875,259.765625,182.12890625,60.546875,0.0
1676924017.029551,-5.859375,205.56640625,163.0859375,46.875,0.0
1676924017.033202,20.99609375,1.953125,11.23046875,-3.90625,0.0
1676924017.0368526,14.16015625,5.37109375,9.27734375,-16.11328125,0.0
1676924017.0405035,-22.94921875,-72.265625,-33.203125,52.24609375,0.0
1676924017.0441542,-29.296875,-138.671875,-64.453125,71.2890625,0.0
1676924017.0478048,-19.04296875,-620.1171875,-407.71484375,27.83203125,0.0
1676924017.0514557,-23.4375,-720.21484375,-501.953125,6.34765625,0.0
1676924017.0551064,-29.296875,106.4453125,117.1875,30.2734375,0.0
1676924017.0587573,-30.76171875,125.0,159.1796875,62.98828125,0.0
1676924017.062408,-11.71875,-43.45703125,29.78515625,39.55078125,0.0
1676924017.0661526,-5.859375,167.96875,165.52734375,3.41796875,0.0
1676924017.0698972,-19.53125,299.8046875,254.39453125,37.109375,0.0
1676924017.0736418,-29.78515625,75.1953125,111.328125,86.42578125,0.0
1676924017.0773864,-14.16015625,-42.48046875,46.875,90.8203125,0.0
1676924017.081131,8.30078125,139.6484375,140.13671875,44.921875,0.0
1676924017.0848756,-9.27734375,-46.875,-7.8125,38.57421875,0.0
1676924017.08862,-32.71484375,-368.1640625,-208.0078125,88.8671875,0.0
1676924017.0923645,-13.18359375,-628.90625,-371.09375,109.375,0.0
1676924017.0961092,4.8828125,-212.890625,-112.3046875,51.26953125,0.0
