timestamps,TP9,Fp1,Fp2,TP10,stim
1676925205.301077,145.01953125,103.515625,-8.7890625,13.18359375,0.0
1676925205.304818,166.50390625,82.03125,-8.7890625,30.76171875,0.0
1676925205.308559,173.828125,36.1328125,-14.6484375,47.36328125,0.0
1676925205.3123,141.11328125,51.26953125,-17.578125,43.9453125,0.0
1676925205.3161645,99.12109375,43.9453125,-13.671875,46.875,0.0
1676925205.320029,125.48828125,14.16015625,-19.04296875,55.17578125,0.0
1676925205.3238935,179.19921875,5.37109375,-18.06640625,53.7109375,0.0
1676925205.327758,191.89453125,45.41015625,-18.5546875,42.48046875,0.0
1676925205.3316226,156.25,55.6640625,-21.484375,25.87890625,0.0
1676925205.3354871,131.8359375,-13.671875,-17.08984375,28.3203125,0.0
1676925205.3393517,138.671875,-68.359375,-15.13671875,49.8046875,0.0
1676925205.3432162,156.73828125,16.6015625,-14.16015625,34.66796875,0.0
1676925205.3470807,127.44140625,72.265625,-15.625,2.9296875,0.0
1676925205.3509452,77.63671875,-4.8828125,-18.5546875,5.859375,0.0
1676925205.3548098,115.234375,-6.8359375,-15.625,22.94921875,0.0
1676925205.3586743,162.109375,42.96875,-14.6484375,28.80859375,0.0
1676925205.3623273,127.9296875,26.85546875,-21.484375,16.11328125,0.0
1676925205.3659801,93.26171875,-20.99609375,-23.92578125,20.99609375,0.0
1676925205.3696332,128.90625,-14.16015625,-24.4140625,34.66796875,0.0
1676925205.373286,171.875,17.578125,-33.203125,22.94921875,0.0
1676925205.376939,150.87890625,0.0,-38.57421875,17.578125,0.0
1676925205.3805919,94.23828125,-86.42578125,-36.62109375,28.3203125,0.0
1676925205.384245,92.28515625,-106.4453125,-36.1328125,48.33984375,0.0
1676925205.387898,178.7109375,47.36328125,-31.25,41.015625,0.0
1676925205.3915508,199.70703125,57.12890625,-31.25,19.53125,0.0
1676925205.3952038,143.06640625,2.44140625,-33.69140625,12.20703125,0.0
1676925205.3988566,148.92578125,28.80859375,-36.1328125,7.8125,0.0
1676925205.4025097,195.3125,46.38671875,-40.52734375,15.625,0.0
1676925205.4075017,196.77734375,12.20703125,-38.57421875,20.5078125,0.0
1676925205.4124937,138.671875,-16.6015625,-41.9921875,1.953125,0.0
1676925205.4174857,117.1875,5.37109375,-46.875,3.90625,0.0
1676925205.4224777,164.0625,23.4375,-37.109375,28.80859375,0.0
1676925205.4274697,190.91796875,-8.7890625,-41.015625,33.69140625,0.0
1676925205.4324617,138.18359375,-62.01171875,-47.8515625,19.04296875,0.0
1676925205.4374537,102.5390625,-24.90234375,-37.59765625,15.13671875,0.0
1676925205.4424458,137.20703125,13.671875,-30.76171875,26.3671875,0.0
1676925205.4474378,171.38671875,-24.90234375,-32.2265625,31.73828125,0.0
1676925205.4524298,120.1171875,-101.07421875,-39.0625,37.109375,0.0
1676925205.4574218,84.47265625,-15.625,-38.57421875,30.76171875,0.0
1676925205.4624138,125.0,69.82421875,-33.203125,21.484375,0.0
1676925205.4661639,148.4375,-6.8359375,-36.62109375,23.92578125,0.0
1676925205.469914,148.92578125,-15.625,-41.9921875,11.71875,0.0
1676925205.4736643,116.69921875,24.4140625,-40.52734375,-1.953125,0.0
1676925205.4774144,107.421875,11.23046875,-37.109375,10.7421875,0.0
1676925205.4811645,136.71875,-31.73828125,-36.62109375,25.390625,0.0
1676925205.4849145,145.01953125,-54.6875,-34.66796875,28.3203125,0.0
1676925205.4886646,121.58203125,-3.90625,-30.2734375,14.16015625,0.0
1676925205.4924147,115.72265625,46.875,-32.2265625,-3.90625,0.0
1676925205.4961648,128.41796875,-58.10546875,-35.64453125,22.94921875,0.0
1676925205.4999151,155.2734375,-73.2421875,-32.71484375,34.66796875,0.0
1676925205.5036652,161.1328125,44.921875,-27.34375,12.20703125,0.0
1676925205.5074153,118.65234375,2.9296875,-27.83203125,14.6484375,0.0
1676925205.5111651,125.48828125,-49.31640625,-33.203125,28.3203125,0.0
1676925205.514915,187.5,0.48828125,-34.1796875,25.390625,0.0
1676925205.5186646,197.265625,35.15625,-29.296875,3.41796875,0.0
1676925205.5224144,141.11328125,-8.7890625,-28.80859375,3.41796875,0.0
1676925205.5261643,134.765625,-44.43359375,-39.55078125,12.20703125,0.0
1676925205.529914,184.08203125,-48.33984375,-39.0625,19.53125,0.0
1676925205.5336637,199.21875,-9.765625,-30.2734375,15.13671875,0.0
1676925205.5374136,152.34375,-20.5078125,-30.76171875,-2.9296875,0.0
1676925205.5411634,117.1875,-109.86328125,-33.69140625,14.6484375,0.0
1676925205.5449133,165.0390625,-42.96875,-36.62109375,20.99609375,0.0
1676925205.548663,211.42578125,4.8828125,-39.55078125,14.16015625,0.0
1676925205.5524127,153.3203125,-66.89453125,-43.9453125,7.8125,0.0
1676925205.5561616,122.0703125,-50.29296875,-49.8046875,-5.859375,0.0
1676925205.5599103,175.78125,-1.953125,-46.875,4.8828125,0.0
1676925205.5636592,223.6328125,-24.90234375,-36.62109375,25.87890625,0.0
1676925205.5674078,171.38671875,-107.91015625,-33.203125,33.69140625,0.0
1676925205.5711567,117.67578125,-106.4453125,-36.1328125,23.4375,0.0
1676925205.5749054,154.78515625,-54.19921875,-35.15625,27.34375,0.0
1676925205.5786543,199.70703125,-23.92578125,-32.71484375,35.15625,0.0
1676925205.5824032,161.1328125,-93.75,-41.015625,31.25,0.0
1676925205.5861518,104.98046875,-112.3046875,-44.43359375,25.87890625,0.0
1676925205.5899007,139.6484375,16.11328125,-39.0625,26.85546875,0.0
1676925205.5936494,187.98828125,-7.32421875,-41.015625,41.9921875,0.0
1676925205.5973983,198.2421875,-44.43359375,-40.0390625,39.0625,0.0
1676925205.6011496,146.484375,-30.2734375,-37.59765625,21.484375,0.0
1676925205.6049008,132.8125,-19.53125,-39.0625,14.6484375,0.0
1676925205.6086524,173.828125,-51.7578125,-36.62109375,30.76171875,0.0
1676925205.6124036,192.87109375,-78.125,-34.1796875,39.55078125,0.0
1676925205.616155,157.71484375,-63.4765625,-36.62109375,20.99609375,0.0
1676925205.6199064,114.2578125,-89.35546875,-36.62109375,13.671875,0.0
1676925205.6236577,131.8359375,-92.28515625,-29.78515625,24.90234375,0.0
1676925205.627409,141.11328125,-165.0390625,-34.66796875,44.921875,0.0
1676925205.6311603,134.765625,-101.5625,-31.25,38.0859375,0.0
1676925205.6349115,139.16015625,30.76171875,-24.90234375,15.13671875,0.0
1676925205.638663,145.99609375,-48.828125,-30.2734375,23.92578125,0.0
1676925205.6424143,178.22265625,-71.2890625,-32.2265625,36.62109375,0.0
1676925205.6461437,193.84765625,-36.1328125,-28.3203125,35.64453125,0.0
1676925205.6498728,158.203125,-60.546875,-34.1796875,20.99609375,0.0
1676925205.6536021,135.25390625,-129.39453125,-43.9453125,21.97265625,0.0
1676925205.6573315,176.26953125,-145.01953125,-40.0390625,36.1328125,0.0
1676925205.6610606,201.171875,-129.39453125,-33.203125,38.57421875,0.0
1676925205.66479,147.94921875,-162.59765625,-35.64453125,20.01953125,0.0
1676925205.6685193,102.05078125,-254.8828125,-37.109375,22.4609375,0.0
1676925205.6722484,131.34765625,-283.203125,-40.52734375,35.15625,0.0
1676925205.6759777,198.2421875,-213.37890625,-37.59765625,20.5078125,0.0
1676925205.679707,166.015625,-288.57421875,-34.1796875,10.7421875,0.0
1676925205.6834362,118.65234375,-374.0234375,-36.62109375,14.6484375,0.0
1676925205.6871655,161.1328125,-358.88671875,-36.62109375,31.25,0.0
1676925205.6909697,226.5625,-347.16796875,-32.71484375,42.48046875,0.0
1676925205.6947742,206.54296875,-395.01953125,-38.57421875,35.64453125,0.0
1676925205.6985784,125.0,-427.24609375,-47.8515625,23.92578125,0.0
1676925205.7023826,118.65234375,-394.04296875,-43.45703125,15.13671875,0.0
1676925205.706187,164.55078125,-387.20703125,-44.43359375,8.30078125,0.0
1676925205.7099912,145.5078125,-435.05859375,-46.38671875,9.27734375,0.0
1676925205.7137954,71.77734375,-467.28515625,-42.96875,14.16015625,0.0
1676925205.7175999,71.77734375,-370.1171875,-42.48046875,1.953125,0.0
1676925205.721404,135.7421875,-281.73828125,-38.57421875,1.46484375,0.0
1676925205.7252083,155.76171875,-315.91796875,-33.203125,19.04296875,0.0
1676925205.7290127,114.2578125,-307.6171875,-38.57421875,11.71875,0.0
1676925205.732817,93.26171875,-238.76953125,-40.0390625,5.859375,0.0
1676925205.7365432,135.25390625,-215.33203125,-33.203125,23.92578125,0.0
1676925205.7402697,155.76171875,-260.25390625,-32.2265625,33.69140625,0.0
1676925205.7439961,114.74609375,-247.0703125,-39.0625,11.71875,0.0
1676925205.7477224,89.84375,-160.64453125,-38.0859375,-1.46484375,0.0
1676925205.7514486,111.81640625,-146.97265625,-36.1328125,6.8359375,0.0
1676925205.755175,127.9296875,-241.69921875,-38.0859375,29.296875,0.0
1676925205.7589016,102.05078125,-251.46484375,-35.64453125,33.69140625,0.0
1676925205.7626278,99.609375,-86.42578125,-32.71484375,6.34765625,0.0
1676925205.766354,128.41796875,-79.1015625,-33.69140625,5.37109375,0.0
1676925205.7700806,165.0390625,-133.30078125,-33.203125,12.6953125,0.0
1676925205.773807,173.33984375,-119.62890625,-32.2265625,15.625,0.0
1676925205.7775333,136.23046875,-114.74609375,-41.50390625,7.32421875,0.0
1676925205.782508,121.09375,-136.23046875,-40.0390625,11.71875,0.0
1676925205.7874823,156.73828125,-133.7890625,-29.78515625,21.97265625,0.0
1676925205.7924566,192.87109375,-120.1171875,-24.90234375,27.34375,0.0
1676925205.7974312,159.1796875,-112.3046875,-22.4609375,23.4375,0.0
1676925205.8024058,106.93359375,-148.4375,-26.85546875,16.11328125,0.0
1676925205.8073802,118.65234375,-201.66015625,-33.69140625,29.296875,0.0
1676925205.8123546,162.59765625,-194.3359375,-36.62109375,26.85546875,0.0
1676925205.8173292,150.390625,-163.0859375,-35.15625,20.5078125,0.0
1676925205.8223038,111.81640625,-165.0390625,-34.66796875,16.6015625,0.0
1676925205.8272781,106.93359375,-272.94921875,-43.9453125,32.71484375,0.0
1676925205.8322525,168.45703125,-209.47265625,-47.36328125,37.59765625,0.0
1676925205.837227,183.59375,-133.30078125,-43.45703125,16.11328125,0.0
1676925205.8409922,101.5625,-221.6796875,-41.015625,10.25390625,0.0
1676925205.8447576,102.5390625,-229.4921875,-43.45703125,21.97265625,0.0
1676925205.8485227,167.96875,-185.05859375,-41.50390625,26.3671875,0.0
1676925205.852288,179.6875,-191.40625,-40.0390625,16.11328125,0.0
1676925205.856053,125.48828125,-254.8828125,-46.875,7.8125,0.0
1676925205.8598185,97.16796875,-317.3828125,-46.875,13.671875,0.0
1676925205.8635836,141.6015625,-297.36328125,-43.45703125,18.5546875,0.0
1676925205.8673487,177.734375,-275.390625,-44.43359375,9.27734375,0.0
1676925205.871114,118.65234375,-413.0859375,-43.45703125,23.92578125,0.0
1676925205.8748791,63.4765625,-461.9140625,-46.38671875,31.25,0.0
1676925205.8786445,129.39453125,-314.453125,-44.43359375,16.11328125,0.0
1676925205.8824096,181.15234375,-322.75390625,-37.59765625,22.94921875,0.0
1676925205.8861575,145.99609375,-368.65234375,-38.0859375,19.04296875,0.0
1676925205.8899055,102.5390625,-356.4453125,-39.0625,5.859375,0.0
1676925205.8936534,112.3046875,-345.703125,-40.0390625,4.39453125,0.0
1676925205.8974013,151.3671875,-353.515625,-34.1796875,18.5546875,0.0
1676925205.9011493,145.99609375,-376.46484375,-34.1796875,27.83203125,0.0
1676925205.9048972,84.9609375,-397.4609375,-33.69140625,12.6953125,0.0
1676925205.9086452,77.1484375,-360.83984375,-23.92578125,10.25390625,0.0
1676925205.912393,126.953125,-349.609375,-25.390625,17.08984375,0.0
1676925205.916141,118.1640625,-396.484375,-30.76171875,23.92578125,0.0
1676925205.919889,75.68359375,-318.84765625,-32.2265625,21.484375,0.0
1676925205.923637,73.73046875,-255.37109375,-34.1796875,16.11328125,0.0
1676925205.9273849,98.14453125,-314.453125,-37.59765625,24.90234375,0.0
1676925205.9324682,103.515625,-349.609375,-41.9921875,27.34375,0.0
1676925205.9375517,76.171875,-259.27734375,-45.8984375,2.9296875,0.0
1676925205.942635,46.875,-217.28515625,-43.45703125,-2.9296875,0.0
1676925205.9477186,56.640625,-279.78515625,-40.0390625,25.87890625,0.0
1676925205.952802,89.35546875,-277.34375,-38.0859375,38.0859375,0.0
1676925205.9578853,82.03125,-215.8203125,-37.109375,29.296875,0.0
1676925205.9629688,46.38671875,-205.078125,-36.1328125,24.4140625,0.0
1676925205.9680521,38.0859375,-250.0,-40.52734375,35.64453125,0.0
1676925205.9731357,77.1484375,-227.05078125,-45.41015625,37.59765625,0.0
1676925205.978219,100.09765625,-142.578125,-47.36328125,20.01953125,0.0
1676925205.9833026,36.1328125,-162.59765625,-51.26953125,6.34765625,0.0
1676925205.988386,-9.765625,-242.1875,-50.29296875,20.01953125,0.0
1676925205.9907956,38.57421875,-210.44921875,-46.875,28.3203125,0.0
1676925205.993205,98.6328125,-116.2109375,-41.9921875,8.30078125,0.0
1676925205.9956145,50.78125,-145.99609375,-40.0390625,-1.953125,0.0
1676925205.9980242,7.8125,-170.8984375,-41.015625,5.859375,0.0
1676925206.000434,60.05859375,-151.3671875,-38.0859375,23.92578125,0.0
1676925206.0028434,116.2109375,-118.1640625,-36.62109375,29.78515625,0.0
1676925206.0052528,97.65625,-99.12109375,-36.62109375,20.99609375,0.0
1676925206.0076625,53.22265625,-78.61328125,-36.1328125,14.16015625,0.0
1676925206.0100722,82.03125,-31.25,-36.1328125,19.04296875,0.0
1676925206.0124817,145.5078125,-12.20703125,-34.1796875,25.390625,0.0
1676925206.0148911,143.06640625,-46.875,-36.1328125,21.484375,0.0
1676925206.0173008,57.6171875,-163.57421875,-41.50390625,32.2265625,0.0
1676925206.0210607,74.70703125,-73.73046875,-39.55078125,27.83203125,0.0
1676925206.0248206,175.29296875,33.69140625,-31.25,25.87890625,0.0
1676925206.0285804,183.10546875,-33.203125,-29.296875,34.1796875,0.0
1676925206.0323403,138.18359375,-30.2734375,-34.1796875,10.7421875,0.0
1676925206.0361001,125.48828125,-21.484375,-32.71484375,-3.41796875,0.0
1676925206.0398598,151.85546875,-48.828125,-36.1328125,0.0,0.0
1676925206.0436196,166.9921875,-118.1640625,-41.015625,19.53125,0.0
1676925206.0473795,120.60546875,-135.7421875,-37.109375,12.20703125,0.0
1676925206.0511394,111.81640625,-1.46484375,-32.2265625,-10.25390625,0.0
1676925206.0548992,150.390625,19.04296875,-32.71484375,8.7890625,0.0
1676925206.058659,168.45703125,-55.6640625,-33.69140625,29.296875,0.0
1676925206.062419,147.4609375,-30.76171875,-29.78515625,24.4140625,0.0
1676925206.0661764,115.234375,17.578125,-26.85546875,15.13671875,0.0
1676925206.0699337,124.51171875,-16.11328125,-28.3203125,24.4140625,0.0
1676925206.0736911,154.296875,-38.0859375,-34.66796875,31.73828125,0.0
1676925206.0774486,149.4140625,-9.765625,-36.62109375,18.06640625,0.0
1676925206.0812058,106.4453125,-15.625,-33.203125,2.9296875,0.0
1676925206.0849633,87.890625,-60.05859375,-37.109375,2.44140625,0.0
1676925206.0887208,112.3046875,-101.07421875,-43.9453125,21.484375,0.0
1676925206.092478,135.25390625,-23.92578125,-45.8984375,20.01953125,0.0
1676925206.0962355,111.328125,40.52734375,-44.921875,-8.30078125,0.0
1676925206.099993,76.171875,-15.13671875,-46.38671875,-7.8125,0.0
1676925206.1037502,104.4921875,-31.73828125,-48.33984375,11.71875,0.0
1676925206.1075077,125.9765625,-29.78515625,-49.31640625,14.6484375,0.0
1676925206.1113322,96.19140625,-10.7421875,-52.24609375,0.9765625,0.0
1676925206.1151567,57.6171875,-63.96484375,-44.921875,16.11328125,0.0
1676925206.118981,70.80078125,-95.703125,-39.0625,41.9921875,0.0
1676925206.1228054,126.953125,-9.27734375,-38.57421875,34.1796875,0.0
1676925206.1266298,111.328125,-20.5078125,-36.1328125,22.4609375,0.0
1676925206.1304543,42.48046875,-102.5390625,-40.0390625,28.3203125,0.0
1676925206.1342788,49.8046875,-80.078125,-46.875,28.80859375,0.0
1676925206.1381032,128.41796875,12.20703125,-48.33984375,27.34375,0.0
1676925206.1419277,143.5546875,-2.44140625,-46.875,31.25,0.0
1676925206.145752,59.5703125,-104.98046875,-51.26953125,23.4375,0.0
1676925206.1495764,41.015625,-80.56640625,-56.640625,7.32421875,0.0
1676925206.153401,119.140625,21.97265625,-54.6875,-0.9765625,0.0
1676925206.158299,124.0234375,-6.34765625,-53.22265625,2.44140625,0.0
1676925206.163197,48.828125,-32.2265625,-58.10546875,-6.34765625,0.0
1676925206.168095,1.953125,-46.875,-57.12890625,-0.48828125,0.0
1676925206.1729932,43.9453125,-29.296875,-51.7578125,18.5546875,0.0
1676925206.1778913,104.4921875,-6.34765625,-48.33984375,28.3203125,0.0
1676925206.1827893,62.5,-105.95703125,-47.36328125,32.2265625,0.0
1676925206.1876872,33.69140625,-74.21875,-42.96875,25.390625,0.0
1676925206.1925852,103.515625,37.109375,-38.57421875,13.671875,0.0
1676925206.1974833,138.18359375,-14.16015625,-42.48046875,19.53125,0.0
1676925206.2023814,97.65625,-64.453125,-41.9921875,14.6484375,0.0
1676925206.2072794,52.734375,-8.30078125,-44.43359375,-9.27734375,0.0
1676925206.2121775,52.24609375,4.39453125,-54.6875,-13.18359375,0.0
1676925206.2159457,71.2890625,-52.24609375,-54.6875,7.32421875,0.0
1676925206.2197137,64.94140625,-53.22265625,-60.546875,6.8359375,0.0
1676925206.223482,27.34375,-21.97265625,-67.87109375,-13.671875,0.0
1676925206.22725,27.34375,-29.78515625,-67.3828125,-9.27734375,0.0
1676925206.231018,68.359375,-79.58984375,-66.40625,6.8359375,0.0
1676925206.2347863,94.7265625,-120.60546875,-63.4765625,14.6484375,0.0
1676925206.2385545,68.84765625,-105.46875,-63.4765625,5.37109375,0.0
1676925206.2423224,60.05859375,-64.94140625,-61.5234375,-7.32421875,0.0
1676925206.2460907,93.75,-127.9296875,-57.12890625,8.7890625,0.0
1676925206.2498589,113.76953125,-227.05078125,-57.6171875,24.90234375,0.0
1676925206.2536268,109.375,-240.234375,-58.59375,-4.8828125,0.0
1676925206.257395,66.89453125,-361.81640625,-62.5,-24.90234375,0.0
1676925206.2611477,80.56640625,-473.6328125,-66.40625,-20.99609375,0.0
1676925206.2649007,133.30078125,-527.34375,-64.453125,-14.16015625,0.0
1676925206.2686534,137.6953125,-562.98828125,-54.6875,-7.32421875,0.0
1676925206.272406,94.7265625,-618.65234375,-49.8046875,-5.859375,0.0
1676925206.276159,92.7734375,-669.921875,-53.22265625,5.37109375,0.0
1676925206.2799118,142.08984375,-681.15234375,-53.22265625,29.78515625,0.0
1676925206.2836645,171.38671875,-655.2734375,-48.828125,29.296875,0.0
1676925206.2874174,134.27734375,-659.66796875,-46.38671875,2.9296875,0.0
1676925206.2911701,83.984375,-721.19140625,-52.24609375,7.8125,0.0
1676925206.2949228,123.046875,-668.45703125,-62.01171875,10.7421875,0.0
1676925206.2986758,159.66796875,-619.140625,-60.546875,-3.90625,0.0
1676925206.3024285,90.33203125,-654.296875,-60.05859375,-15.13671875,0.0
1676925206.3061774,45.8984375,-668.9453125,-63.4765625,-15.13671875,0.0
1676925206.3099265,96.6796875,-582.51953125,-57.12890625,-6.8359375,0.0
1676925206.3136754,137.6953125,-577.63671875,-52.734375,1.46484375,0.0
1676925206.3174245,104.98046875,-618.65234375,-53.22265625,3.41796875,0.0
1676925206.3211734,68.84765625,-597.65625,-50.29296875,5.859375,0.0
1676925206.3249226,90.33203125,-579.1015625,-45.8984375,19.53125,0.0
1676925206.3286715,128.90625,-543.9453125,-40.0390625,33.203125,0.0
1676925206.3324203,101.5625,-589.84375,-45.41015625,29.78515625,0.0
1676925206.3361695,32.71484375,-587.890625,-57.12890625,13.671875,0.0
1676925206.3399184,71.77734375,-445.3125,-57.12890625,-3.90625,0.0
1676925206.3436675,133.7890625,-451.66015625,-53.7109375,-0.9765625,0.0
1676925206.3474164,148.92578125,-480.95703125,-50.78125,0.48828125,0.0
1676925206.351167,121.58203125,-466.796875,-50.29296875,-7.8125,0.0
1676925206.3549178,104.00390625,-488.76953125,-50.78125,-7.8125,0.0
1676925206.3586683,134.27734375,-511.23046875,-49.8046875,-1.46484375,0.0
1676925206.362419,161.1328125,-488.76953125,-47.36328125,7.8125,0.0
1676925206.3661697,146.484375,-449.70703125,-45.41015625,-1.46484375,0.0
1676925206.3699203,114.74609375,-458.49609375,-46.38671875,-12.6953125,0.0
1676925206.3736708,140.13671875,-451.171875,-45.8984375,2.9296875,0.0
1676925206.3774216,176.7578125,-444.82421875,-41.9921875,19.53125,0.0
1676925206.3811722,171.38671875,-384.27734375,-39.0625,-1.953125,0.0
1676925206.3849227,147.94921875,-325.1953125,-40.52734375,-30.76171875,0.0
1676925206.3886735,124.51171875,-397.4609375,-51.26953125,-22.94921875,0.0
1676925206.392424,137.6953125,-425.29296875,-49.8046875,-8.30078125,0.0
1676925206.396181,154.78515625,-323.73046875,-39.55078125,-18.5546875,0.0
1676925206.399938,115.72265625,-304.6875,-37.109375,-27.83203125,0.0
1676925206.403695,91.796875,-348.6328125,-36.62109375,-8.7890625,0.0
1676925206.407452,137.6953125,-321.77734375,-38.0859375,10.25390625,0.0
1676925206.411209,174.8046875,-282.71484375,-41.50390625,20.01953125,0.0
1676925206.414966,137.20703125,-295.8984375,-43.9453125,19.04296875,0.0
1676925206.418723,88.8671875,-349.12109375,-45.41015625,27.34375,0.0
1676925206.42248,109.86328125,-353.02734375,-50.29296875,41.9921875,0.0
1676925206.426237,187.5,-200.1953125,-50.78125,28.80859375,0.0
1676925206.429994,170.8984375,-185.546875,-45.8984375,21.97265625,0.0
1676925206.433751,106.4453125,-229.00390625,-46.38671875,12.20703125,0.0
1676925206.437508,129.39453125,-199.70703125,-48.33984375,9.765625,0.0
1676925206.4412506,171.38671875,-189.453125,-49.8046875,16.11328125,0.0
1676925206.444993,136.23046875,-208.49609375,-52.734375,10.7421875,0.0
1676925206.4487355,72.265625,-232.91015625,-53.7109375,-4.39453125,0.0
1676925206.452478,79.58984375,-209.47265625,-51.7578125,-11.23046875,0.0
1676925206.4562204,131.34765625,-187.01171875,-57.6171875,-0.48828125,0.0
1676925206.4599628,121.58203125,-224.12109375,-62.98828125,8.30078125,0.0
1676925206.4637053,42.96875,-270.99609375,-59.5703125,9.27734375,0.0
1676925206.4674478,54.6875,-180.6640625,-59.5703125,-4.39453125,0.0
1676925206.4711902,134.27734375,-122.55859375,-61.5234375,-8.7890625,0.0
1676925206.4749327,136.71875,-187.5,-59.5703125,0.9765625,0.0
1676925206.4786751,87.40234375,-183.10546875,-55.17578125,-7.32421875,0.0
1676925206.4824176,75.68359375,-113.76953125,-50.78125,-16.6015625,0.0
1676925206.4861734,117.67578125,-99.12109375,-47.8515625,-4.8828125,0.0
1676925206.4899292,134.765625,-155.2734375,-51.26953125,0.9765625,0.0
1676925206.493685,106.4453125,-153.3203125,-53.22265625,-6.8359375,0.0
1676925206.4974408,85.44921875,-111.81640625,-49.8046875,-3.90625,0.0
1676925206.5011966,100.09765625,-115.72265625,-52.734375,1.953125,0.0
1676925206.5049524,111.81640625,-200.68359375,-60.546875,28.3203125,0.0
1676925206.5087085,113.28125,-192.3828125,-60.05859375,38.0859375,0.0
1676925206.5124643,98.6328125,-83.0078125,-55.6640625,5.859375,0.0
1676925206.51622,93.26171875,-91.796875,-55.6640625,7.32421875,0.0
1676925206.519976,115.234375,-159.66796875,-56.640625,33.203125,0.0
1676925206.5237317,133.30078125,-126.46484375,-54.19921875,28.3203125,0.0
1676925206.5274875,111.81640625,-71.77734375,-53.22265625,7.8125,0.0
1676925206.532487,80.56640625,-120.1171875,-55.17578125,6.34765625,0.0
1676925206.537486,110.3515625,-132.32421875,-58.10546875,20.99609375,0.0
1676925206.5424855,162.109375,-72.75390625,-56.640625,28.80859375,0.0
1676925206.5474849,148.92578125,-40.0390625,-57.12890625,13.671875,0.0
1676925206.5524843,94.7265625,-88.8671875,-62.01171875,4.8828125,0.0
1676925206.5574837,84.9609375,-137.6953125,-66.40625,19.04296875,0.0
1676925206.5624828,119.140625,-85.44921875,-70.80078125,23.92578125,0.0
1676925206.5674822,116.2109375,-22.4609375,-68.359375,5.859375,0.0
1676925206.5724816,74.70703125,-62.01171875,-61.03515625,5.859375,0.0
1676925206.5774808,79.58984375,-118.1640625,-59.5703125,21.484375,0.0
1676925206.5824802,135.7421875,-50.78125,-62.98828125,18.5546875,0.0
1676925206.5874796,142.578125,-11.71875,-62.98828125,3.41796875,0.0
1676925206.591227,82.03125,-75.1953125,-58.59375,-5.37109375,0.0
1676925206.5949743,66.89453125,-73.2421875,-61.5234375,-4.8828125,0.0
1676925206.5987217,111.328125,-29.296875,-67.3828125,-6.34765625,0.0
1676925206.602469,126.953125,-64.453125,-61.03515625,-1.953125,0.0
1676925206.6062164,64.94140625,-147.4609375,-56.640625,8.30078125,0.0
1676925206.609964,37.59765625,-151.85546875,-57.6171875,13.671875,0.0
1676925206.613711,92.7734375,-69.82421875,-52.24609375,15.625,0.0
1676925206.6174586,134.765625,-28.3203125,-49.8046875,15.625,0.0
1676925206.6212058,85.44921875,-106.93359375,-59.5703125,7.32421875,0.0
1676925206.6249533,54.6875,-99.12109375,-60.05859375,3.90625,0.0
1676925206.6287005,114.2578125,-5.37109375,-53.22265625,10.7421875,0.0
1676925206.632448,151.3671875,-46.38671875,-52.24609375,20.99609375,0.0
1676925206.6361942,106.4453125,-112.3046875,-50.29296875,16.6015625,0.0
1676925206.6399407,55.6640625,-81.0546875,-49.31640625,-1.46484375,0.0
1676925206.643687,88.37890625,-34.66796875,-51.26953125,-11.23046875,0.0
1676925206.6474333,140.13671875,-55.17578125,-51.26953125,-6.8359375,0.0
1676925206.6511798,137.6953125,-73.73046875,-52.24609375,-4.39453125,0.0
1676925206.654926,88.37890625,-84.47265625,-53.7109375,-12.6953125,0.0
1676925206.6586723,85.9375,-45.41015625,-54.6875,-15.13671875,0.0
1676925206.6624188,125.48828125,-43.45703125,-58.10546875,2.9296875,0.0
1676925206.666165,140.625,-74.70703125,-54.6875,13.671875,0.0
1676925206.6699114,117.1875,-29.78515625,-53.22265625,-0.48828125,0.0
1676925206.673658,96.6796875,-3.41796875,-52.24609375,-5.37109375,0.0
1676925206.6774042,109.375,-63.96484375,-49.8046875,9.765625,0.0
1676925206.6811461,112.3046875,-144.04296875,-50.78125,25.390625,0.0
1676925206.684888,101.5625,-35.15625,-50.78125,2.44140625,0.0
1676925206.6886296,85.9375,0.48828125,-52.24609375,-7.32421875,0.0
1676925206.6923716,94.7265625,-55.17578125,-55.17578125,9.765625,0.0
1676925206.6961136,133.30078125,-48.828125,-52.24609375,27.34375,0.0
1676925206.6998553,120.1171875,-52.24609375,-50.29296875,35.15625,0.0
1676925206.703597,81.54296875,-39.55078125,-48.828125,20.5078125,0.0
1676925206.707339,90.8203125,-87.40234375,-49.31640625,38.0859375,0.0
1676925206.711081,127.44140625,-80.078125,-53.22265625,54.6875,0.0
1676925206.7148228,159.66796875,35.15625,-49.8046875,26.3671875,0.0
1676925206.7185645,118.65234375,3.90625,-46.875,15.625,0.0
1676925206.7223065,79.58984375,-45.41015625,-55.17578125,17.08984375,0.0
1676925206.7260985,113.76953125,-16.11328125,-58.10546875,15.625,0.0
1676925206.7298906,145.5078125,2.9296875,-54.6875,13.18359375,0.0
1676925206.7336826,98.14453125,-36.1328125,-52.734375,9.27734375,0.0
1676925206.7374747,55.17578125,-64.94140625,-47.8515625,9.765625,0.0
1676925206.7412667,92.28515625,-42.48046875,-41.015625,22.94921875,0.0
1676925206.7450588,134.765625,-55.6640625,-37.109375,38.0859375,0.0
1676925206.7488508,111.81640625,-73.2421875,-39.55078125,29.296875,0.0
1676925206.7526429,44.921875,-119.62890625,-43.9453125,22.4609375,0.0
1676925206.756435,55.6640625,-55.6640625,-49.31640625,26.85546875,0.0
1676925206.760227,120.60546875,9.765625,-46.875,17.578125,0.0
1676925206.764019,111.328125,-56.15234375,-44.43359375,11.71875,0.0
1676925206.767811,52.24609375,-73.73046875,-50.29296875,8.30078125,0.0
1676925206.771529,54.6875,-30.2734375,-52.734375,8.30078125,0.0
1676925206.7752466,98.14453125,-34.1796875,-52.734375,14.16015625,0.0
1676925206.7789645,92.28515625,-107.91015625,-54.6875,21.484375,0.0
1676925206.7826824,50.78125,-96.6796875,-45.41015625,15.625,0.0
1676925206.7864003,51.26953125,-33.69140625,-39.0625,17.578125,0.0
1676925206.7901182,80.078125,-62.01171875,-45.8984375,26.85546875,0.0
1676925206.7938359,85.44921875,-131.8359375,-47.36328125,41.015625,0.0
1676925206.7975538,41.9921875,-132.32421875,-47.8515625,33.69140625,0.0
1676925206.8012717,40.0390625,9.27734375,-44.43359375,10.7421875,0.0
1676925206.8049893,82.51953125,11.71875,-41.015625,17.08984375,0.0
1676925206.8087072,107.421875,-43.45703125,-44.921875,28.80859375,0.0
1676925206.8124251,81.0546875,-39.55078125,-47.36328125,20.99609375,0.0
1676925206.8161743,48.33984375,-10.25390625,-52.24609375,5.37109375,0.0
1676925206.8199232,50.78125,-24.90234375,-55.17578125,13.671875,0.0
1676925206.8236723,85.44921875,-46.38671875,-50.78125,21.97265625,0.0
1676925206.8274212,76.66015625,-20.01953125,-51.26953125,9.765625,0.0
1676925206.8311703,22.94921875,-18.5546875,-52.24609375,8.30078125,0.0
1676925206.8349195,19.53125,-68.359375,-54.6875,13.671875,0.0
1676925206.8386683,45.8984375,-138.671875,-58.10546875,33.69140625,0.0
1676925206.8424175,88.37890625,-80.56640625,-56.15234375,31.25,0.0
1676925206.8461664,82.03125,-16.6015625,-58.59375,-3.41796875,0.0
1676925206.8499155,42.48046875,-95.703125,-57.6171875,-0.9765625,0.0
1676925206.8536644,64.94140625,-131.34765625,-55.6640625,16.6015625,0.0
1676925206.8574135,121.58203125,-67.87109375,-53.7109375,18.06640625,0.0
1676925206.8611715,105.46875,-56.640625,-49.8046875,3.41796875,0.0
1676925206.8649294,56.640625,-112.79296875,-49.8046875,-1.953125,0.0
1676925206.8686872,87.890625,-108.3984375,-51.7578125,4.39453125,0.0
1676925206.872445,139.16015625,-62.98828125,-55.6640625,9.27734375,0.0
1676925206.876203,127.44140625,-65.4296875,-51.7578125,8.30078125,0.0
1676925206.879961,62.5,-146.97265625,-49.8046875,14.6484375,0.0
1676925206.883719,72.265625,-143.06640625,-50.78125,24.90234375,0.0
1676925206.887477,156.73828125,-27.34375,-49.8046875,13.18359375,0.0
1676925206.8912349,163.57421875,-38.0859375,-50.29296875,10.25390625,0.0
1676925206.8949926,98.6328125,-103.515625,-46.38671875,8.30078125,0.0
1676925206.8987505,92.28515625,-74.21875,-41.9921875,6.34765625,0.0
1676925206.9025085,148.92578125,-6.34765625,-40.0390625,13.18359375,0.0
1676925206.9074996,168.9453125,-32.2265625,-38.57421875,17.578125,0.0
1676925206.9124906,117.67578125,-89.84375,-40.52734375,8.30078125,0.0
1676925206.9174817,100.09765625,-60.546875,-35.64453125,11.23046875,0.0
1676925206.9224727,155.2734375,-27.83203125,-33.203125,29.296875,0.0
1676925206.9274638,187.98828125,-80.56640625,-38.57421875,31.25,0.0
1676925206.9324546,154.78515625,-141.6015625,-35.15625,26.3671875,0.0
1676925206.9374456,129.8828125,-110.3515625,-25.390625,19.53125,0.0
1676925206.9424367,164.0625,-71.2890625,-31.25,16.11328125,0.0
1676925206.9474277,183.10546875,-131.34765625,-40.0390625,23.4375,0.0
1676925206.9524188,166.9921875,-172.8515625,-35.64453125,28.80859375,0.0
1676925206.9574099,142.578125,-106.93359375,-41.50390625,13.671875,0.0
1676925206.962401,147.4609375,-83.984375,-48.33984375,10.7421875,0.0
1676925206.9662359,182.6171875,-137.20703125,-47.36328125,23.4375,0.0
1676925206.9700708,183.59375,-158.69140625,-40.52734375,28.3203125,0.0
1676925206.973906,138.671875,-106.4453125,-37.109375,16.6015625,0.0
1676925206.977741,128.90625,-80.56640625,-43.45703125,8.7890625,0.0
1676925206.981576,151.3671875,-144.53125,-45.41015625,32.2265625,0.0
1676925206.9854112,145.99609375,-180.6640625,-47.36328125,42.48046875,0.0
1676925206.9892461,114.2578125,-90.8203125,-48.828125,8.30078125,0.0
1676925206.993081,111.81640625,-23.92578125,-41.9921875,-4.39453125,0.0
1676925206.996916,125.0,-114.74609375,-45.8984375,20.99609375,0.0
1676925207.000751,133.7890625,-130.37109375,-52.24609375,24.90234375,0.0
1676925207.0045862,140.625,-6.8359375,-45.41015625,1.953125,0.0
1676925207.0084212,99.609375,-39.55078125,-46.875,-6.34765625,0.0
1676925207.0120878,99.12109375,-63.4765625,-50.78125,-3.90625,0.0
1676925207.0157545,145.5078125,-28.80859375,-52.734375,2.44140625,0.0
1676925207.019421,169.921875,-19.04296875,-49.8046875,4.8828125,0.0
1676925207.0230877,135.25390625,-46.38671875,-47.36328125,2.9296875,0.0
1676925207.0267544,125.9765625,-76.171875,-51.26953125,9.765625,0.0
1676925207.0304213,163.0859375,-66.40625,-49.8046875,20.01953125,0.0
1676925207.034088,153.3203125,-45.8984375,-49.31640625,13.18359375,0.0
1676925207.0377545,90.8203125,-31.25,-49.31640625,-1.953125,0.0
1676925207.0414212,32.71484375,-112.79296875,-47.36328125,13.671875,0.0
1676925207.0450878,75.1953125,-62.01171875,-49.8046875,25.390625,0.0
1676925207.0487545,160.64453125,69.82421875,-45.8984375,8.30078125,0.0
1676925207.052421,130.859375,4.8828125,-36.1328125,5.37109375,0.0
1676925207.0561712,100.5859375,-12.20703125,-34.66796875,-0.9765625,0.0
1676925207.0599213,145.5078125,31.73828125,-39.55078125,3.90625,0.0
1676925207.063671,176.7578125,15.13671875,-43.45703125,3.90625,0.0
1676925207.0674212,140.625,-28.3203125,-49.8046875,-4.39453125,0.0
1676925207.0711713,80.078125,-24.90234375,-52.734375,-8.30078125,0.0
1676925207.0749214,73.2421875,-20.01953125,-51.7578125,0.0,0.0
1676925207.0786715,125.0,16.6015625,-50.29296875,12.6953125,0.0
1676925207.0824215,106.4453125,-42.96875,-49.8046875,19.04296875,0.0
1676925207.0861716,34.1796875,-94.23828125,-51.7578125,16.11328125,0.0
1676925207.0899215,59.5703125,48.33984375,-47.8515625,0.48828125,0.0
1676925207.0936716,112.3046875,76.66015625,-38.57421875,4.39453125,0.0
1676925207.0974216,117.1875,29.78515625,-36.1328125,20.99609375,0.0
1676925207.1011715,89.35546875,70.3125,-40.0390625,12.20703125,0.0
1676925207.1049216,84.47265625,136.71875,-36.62109375,5.37109375,0.0
1676925207.1086714,108.88671875,145.99609375,-34.66796875,17.578125,0.0
1676925207.1124215,130.37109375,172.8515625,-39.55078125,10.25390625,0.0
1676925207.1161714,105.46875,220.703125,-38.57421875,-1.46484375,0.0
1676925207.1199212,75.68359375,242.1875,-35.15625,0.0,0.0
1676925207.1236713,96.19140625,305.17578125,-47.36328125,-0.9765625,0.0
1676925207.1274211,116.2109375,362.3046875,-56.640625,18.06640625,0.0
1676925207.1311712,117.1875,502.9296875,-46.875,17.578125,0.0
1676925207.134921,99.609375,627.9296875,-41.9921875,0.9765625,0.0
1676925207.1386712,94.23828125,633.7890625,-40.0390625,16.11328125,0.0
1676925207.142421,135.25390625,665.0390625,-31.73828125,31.73828125,0.0
1676925207.146253,144.04296875,712.890625,-29.78515625,33.203125,0.0
1676925207.1500852,107.421875,764.16015625,-34.1796875,13.18359375,0.0
1676925207.1539173,83.49609375,729.98046875,-38.0859375,13.671875,0.0
1676925207.1577497,104.4921875,720.703125,-43.9453125,23.92578125,0.0
1676925207.1615818,149.4140625,802.734375,-40.52734375,18.06640625,0.0
1676925207.1654139,129.8828125,793.45703125,-38.0859375,14.16015625,0.0
1676925207.169246,91.30859375,726.5625,-42.48046875,27.83203125,0.0
1676925207.173078,112.3046875,738.28125,-43.45703125,42.48046875,0.0
1676925207.1769104,178.7109375,845.703125,-38.0859375,36.62109375,0.0
1676925207.1807425,156.25,812.98828125,-36.1328125,28.80859375,0.0
1676925207.1845746,91.796875,770.99609375,-35.15625,24.4140625,0.0
1676925207.1884067,118.1640625,800.29296875,-36.1328125,28.80859375,0.0
1676925207.1920748,167.96875,809.5703125,-36.1328125,21.484375,0.0
1676925207.1957428,146.97265625,768.5546875,-36.62109375,17.578125,0.0
1676925207.199411,92.28515625,728.515625,-35.64453125,15.13671875,0.0
1676925207.203079,97.65625,717.28515625,-34.1796875,30.2734375,0.0
1676925207.206747,135.7421875,692.3828125,-38.0859375,40.0390625,0.0
1676925207.210415,138.18359375,662.109375,-44.43359375,20.99609375,0.0
1676925207.214083,70.3125,550.29296875,-45.41015625,22.4609375,0.0
1676925207.217751,70.3125,571.77734375,-36.1328125,42.48046875,0.0
1676925207.221419,162.109375,676.7578125,-30.2734375,35.64453125,0.0
1676925207.2250872,179.6875,627.44140625,-31.73828125,32.71484375,0.0
1676925207.2287552,135.7421875,582.03125,-33.203125,27.34375,0.0
1676925207.2324233,125.48828125,598.14453125,-34.66796875,15.625,0.0
1676925207.2361739,157.71484375,611.328125,-39.0625,18.06640625,0.0
1676925207.2399244,160.64453125,549.31640625,-45.41015625,27.83203125,0.0
1676925207.243675,135.7421875,530.76171875,-49.31640625,13.671875,0.0
1676925207.2474256,113.28125,560.546875,-48.33984375,-0.9765625,0.0
1676925207.251176,125.0,531.25,-46.38671875,8.7890625,0.0
1676925207.2549267,131.34765625,426.26953125,-48.828125,33.203125,0.0
1676925207.2586775,116.69921875,403.80859375,-44.43359375,36.1328125,0.0
1676925207.262428,96.19140625,472.16796875,-40.52734375,14.16015625,0.0
1676925207.2661786,108.3984375,479.98046875,-40.52734375,6.8359375,0.0
1676925207.2699292,127.44140625,393.5546875,-40.52734375,34.66796875,0.0
1676925207.2736797,124.51171875,379.39453125,-43.45703125,41.50390625,0.0
1676925207.2774303,114.2578125,448.2421875,-45.41015625,9.765625,0.0
1676925207.2824297,94.7265625,407.2265625,-43.45703125,19.04296875,0.0
1676925207.287429,115.72265625,379.39453125,-45.41015625,22.4609375,0.0
1676925207.2924285,141.6015625,381.8359375,-51.26953125,17.578125,0.0
1676925207.297428,114.74609375,381.8359375,-54.19921875,13.18359375,0.0
1676925207.3024273,74.70703125,345.703125,-56.15234375,14.16015625,0.0
1676925207.3074265,74.21875,284.1796875,-56.640625,27.34375,0.0
1676925207.3124259,116.69921875,310.546875,-50.78125,37.59765625,0.0
1676925207.3174253,125.0,361.328125,-48.33984375,26.3671875,0.0
1676925207.3224247,73.73046875,315.4296875,-54.19921875,8.7890625,0.0
1676925207.327424,78.61328125,260.7421875,-55.17578125,15.625,0.0
1676925207.3324234,145.01953125,296.38671875,-56.640625,18.06640625,0.0
1676925207.3374228,165.0390625,331.54296875,-55.17578125,19.53125,0.0
1676925207.3411727,110.3515625,278.80859375,-51.26953125,14.16015625,0.0
1676925207.3449223,98.14453125,237.79296875,-52.24609375,14.16015625,0.0
1676925207.348672,165.0390625,305.17578125,-48.33984375,24.90234375,0.0
1676925207.3524218,180.6640625,291.015625,-47.8515625,28.3203125,0.0
1676925207.3561716,121.58203125,226.5625,-46.875,24.90234375,0.0
1676925207.3599212,93.75,195.3125,-44.43359375,25.390625,0.0
1676925207.3636708,139.16015625,233.88671875,-41.9921875,30.76171875,0.0
1676925207.3674207,185.05859375,276.3671875,-42.48046875,35.64453125,0.0
1676925207.3711705,132.32421875,173.828125,-44.921875,41.50390625,0.0
1676925207.3749201,77.1484375,153.3203125,-42.48046875,44.921875,0.0
1676925207.3786697,128.41796875,281.73828125,-47.36328125,41.50390625,0.0
1676925207.3824196,164.0625,253.41796875,-53.22265625,38.57421875,0.0
1676925207.38617,137.6953125,206.54296875,-52.734375,14.16015625,0.0
1676925207.3899202,101.07421875,213.37890625,-52.24609375,-3.41796875,0.0
1676925207.3936706,109.86328125,194.82421875,-52.24609375,1.953125,0.0
1676925207.3974211,159.66796875,188.4765625,-49.8046875,16.6015625,0.0
1676925207.4011714,165.0390625,168.9453125,-43.9453125,28.80859375,0.0
1676925207.4049218,115.234375,154.296875,-43.45703125,20.5078125,0.0
1676925207.408672,124.0234375,197.75390625,-47.8515625,18.06640625,0.0
1676925207.4124224,173.828125,200.68359375,-43.9453125,29.78515625,0.0
1676925207.416173,163.0859375,144.53125,-46.38671875,34.66796875,0.0
1676925207.4199233,133.30078125,190.4296875,-51.7578125,10.25390625,0.0
1676925207.4236736,124.51171875,226.07421875,-49.31640625,-3.41796875,0.0
1676925207.427424,116.2109375,141.6015625,-55.17578125,6.8359375,0.0
1676925207.4311576,124.51171875,105.46875,-56.15234375,16.11328125,0.0
1676925207.4348912,120.60546875,174.31640625,-49.8046875,9.27734375,0.0
1676925207.438625,98.14453125,170.8984375,-47.36328125,-0.48828125,0.0
1676925207.4423587,128.90625,124.51171875,-46.875,21.97265625,0.0
1676925207.4460924,164.0625,109.375,-51.7578125,40.52734375,0.0
1676925207.4498262,153.3203125,94.7265625,-61.03515625,41.9921875,0.0
1676925207.4535599,120.1171875,93.75,-65.4296875,19.53125,0.0
1676925207.4572935,100.5859375,36.62109375,-61.03515625,21.484375,0.0
1676925207.4610271,122.0703125,12.6953125,-63.96484375,30.2734375,0.0
1676925207.4647608,156.73828125,135.7421875,-69.82421875,-8.30078125,0.0
1676925207.4684947,120.60546875,119.140625,-64.94140625,-19.53125,0.0
1676925207.4722283,94.23828125,62.98828125,-63.4765625,-5.37109375,0.0
1676925207.4759924,132.8125,84.47265625,-53.7109375,7.32421875,0.0
1676925207.4797568,162.109375,86.42578125,-46.875,10.25390625,0.0
1676925207.483521,128.90625,48.33984375,-56.640625,0.0,0.0
1676925207.4872851,97.16796875,19.04296875,-54.19921875,10.7421875,0.0
1676925207.4910495,136.23046875,43.45703125,-40.52734375,26.3671875,0.0
1676925207.4948137,167.48046875,35.15625,-42.48046875,23.4375,0.0
1676925207.4985778,132.8125,16.6015625,-48.828125,9.27734375,0.0
1676925207.5023422,72.75390625,-20.5078125,-52.734375,8.7890625,0.0
1676925207.5061064,108.3984375,40.52734375,-46.875,21.97265625,0.0
1676925207.5098705,168.45703125,82.03125,-44.43359375,21.484375,0.0
1676925207.513635,143.06640625,9.765625,-51.7578125,17.578125,0.0
1676925207.517399,107.421875,3.41796875,-54.6875,7.32421875,0.0
1676925207.5211508,127.9296875,70.80078125,-53.22265625,4.39453125,0.0
1676925207.5249026,171.38671875,77.63671875,-52.734375,17.08984375,0.0
1676925207.5286543,170.41015625,15.625,-53.22265625,28.3203125,0.0
1676925207.532406,135.7421875,20.99609375,-56.640625,15.13671875,0.0
1676925207.5361578,125.48828125,43.45703125,-62.5,1.46484375,0.0
1676925207.5399094,145.01953125,12.20703125,-63.96484375,11.71875,0.0
1676925207.543661,151.3671875,-47.36328125,-63.96484375,28.80859375,0.0
1676925207.5474129,117.67578125,-37.59765625,-58.10546875,25.390625,0.0
1676925207.5511646,112.79296875,74.21875,-53.7109375,2.44140625,0.0
1676925207.5549164,141.11328125,62.01171875,-49.31640625,10.25390625,0.0
1676925207.5586681,161.62109375,15.13671875,-42.96875,20.99609375,0.0
1676925207.56242,142.08984375,30.2734375,-47.8515625,3.41796875,0.0
1676925207.566254,104.98046875,38.57421875,-49.31640625,-7.8125,0.0
1676925207.570088,106.93359375,-5.37109375,-50.78125,2.44140625,0.0
1676925207.5739217,152.83203125,-16.6015625,-52.24609375,20.5078125,0.0
1676925207.5777557,167.96875,39.55078125,-52.734375,12.6953125,0.0
1676925207.5815897,132.32421875,55.17578125,-52.734375,-4.39453125,0.0
1676925207.5854235,106.4453125,-1.953125,-56.15234375,7.32421875,0.0
1676925207.5892575,119.140625,-42.48046875,-60.546875,27.34375,0.0
1676925207.5930915,157.71484375,32.2265625,-57.6171875,20.01953125,0.0
1676925207.5969255,148.92578125,94.23828125,-48.33984375,0.9765625,0.0
1676925207.6007595,107.91015625,25.87890625,-48.828125,5.37109375,0.0
1676925207.6045933,116.69921875,-6.34765625,-53.22265625,5.859375,0.0
1676925207.6084273,165.52734375,44.43359375,-44.921875,5.37109375,0.0
1676925207.6121032,155.2734375,53.22265625,-45.8984375,0.9765625,0.0
1676925207.6157792,104.98046875,9.27734375,-49.8046875,2.44140625,0.0
1676925207.619455,129.39453125,20.99609375,-48.828125,14.16015625,0.0
1676925207.623131,179.6875,59.08203125,-57.12890625,13.18359375,0.0
1676925207.626807,157.71484375,37.109375,-60.546875,0.48828125,0.0
1676925207.6304827,86.9140625,-45.8984375,-57.6171875,1.46484375,0.0
1676925207.6341586,66.40625,-53.7109375,-53.22265625,23.4375,0.0
1676925207.6378345,135.7421875,74.70703125,-47.36328125,18.5546875,0.0
1676925207.6415105,158.203125,79.1015625,-44.43359375,4.39453125,0.0
1676925207.6451864,89.35546875,-21.97265625,-50.78125,4.8828125,0.0
1676925207.6488624,68.359375,-6.8359375,-52.24609375,3.90625,0.0
1676925207.6525383,125.48828125,57.12890625,-45.8984375,7.8125,0.0
1676925207.6575687,152.34375,36.1328125,-50.78125,6.34765625,0.0
1676925207.662599,101.5625,17.08984375,-57.12890625,-6.8359375,0.0
1676925207.6676297,67.87109375,34.1796875,-60.05859375,-5.37109375,0.0
1676925207.67266,100.5859375,43.9453125,-58.59375,4.8828125,0.0
1676925207.6776905,119.62890625,10.7421875,-52.24609375,12.6953125,0.0
1676925207.6827211,61.5234375,-41.50390625,-55.6640625,18.06640625,0.0
1676925207.6877515,21.484375,-3.41796875,-56.640625,10.7421875,0.0
1676925207.692782,66.89453125,41.9921875,-49.8046875,15.625,0.0
1676925207.6978123,101.5625,12.6953125,-48.33984375,31.25,0.0
1676925207.7028427,65.91796875,-84.47265625,-49.31640625,57.6171875,0.0
1676925207.7078733,44.921875,-20.01953125,-46.875,47.36328125,0.0
1676925207.7129037,83.49609375,97.16796875,-46.875,22.4609375,0.0
1676925207.71661,108.88671875,20.5078125,-49.8046875,41.50390625,0.0
1676925207.7203162,113.76953125,3.90625,-56.640625,41.50390625,0.0
1676925207.7240224,74.70703125,48.828125,-63.4765625,6.8359375,0.0
1676925207.7277286,63.96484375,44.43359375,-56.640625,-5.859375,0.0
1676925207.7314348,99.609375,-5.859375,-54.6875,13.671875,0.0
1676925207.735141,111.81640625,-43.45703125,-58.59375,16.11328125,0.0
1676925207.7388473,104.98046875,13.671875,-51.7578125,1.953125,0.0
1676925207.7425535,104.98046875,57.12890625,-47.36328125,-5.37109375,0.0
1676925207.7462597,102.5390625,-59.08203125,-48.828125,16.11328125,0.0
1676925207.749966,122.55859375,-82.51953125,-48.33984375,36.62109375,0.0
1676925207.7536721,149.90234375,37.59765625,-47.36328125,16.11328125,0.0
1676925207.7573783,111.81640625,-6.34765625,-46.875,8.7890625,0.0
1676925207.7611682,100.09765625,-68.359375,-42.48046875,24.90234375,0.0
1676925207.7649581,152.83203125,-15.625,-45.41015625,33.203125,0.0
1676925207.7687483,161.1328125,15.625,-57.12890625,14.6484375,0.0
1676925207.7725382,112.3046875,-29.78515625,-58.59375,-1.953125,0.0
1676925207.776328,110.3515625,-54.19921875,-59.5703125,-1.953125,0.0
1676925207.780118,151.85546875,-49.8046875,-60.546875,10.25390625,0.0
1676925207.783908,184.08203125,-20.99609375,-58.59375,22.4609375,0.0
1676925207.7876978,153.80859375,-25.87890625,-61.03515625,6.8359375,0.0
1676925207.7914877,102.5390625,-104.4921875,-59.08203125,14.16015625,0.0
1676925207.7952778,143.5546875,-53.22265625,-57.6171875,32.2265625,0.0
1676925207.7990677,206.54296875,11.23046875,-60.546875,28.80859375,0.0
1676925207.8028576,167.48046875,-58.59375,-58.59375,20.5078125,0.0
1676925207.806572,117.67578125,-81.0546875,-58.10546875,14.16015625,0.0
1676925207.8102865,139.16015625,-26.3671875,-55.17578125,13.671875,0.0
1676925207.8140008,172.8515625,-24.90234375,-53.22265625,16.11328125,0.0
1676925207.8177152,142.578125,-72.265625,-58.10546875,13.18359375,0.0
1676925207.8214297,92.28515625,-56.640625,-60.546875,2.44140625,0.0
1676925207.825144,103.515625,-33.203125,-61.03515625,8.7890625,0.0
1676925207.8288584,143.5546875,-29.296875,-66.89453125,20.5078125,0.0
1676925207.832573,143.5546875,-89.84375,-67.3828125,32.2265625,0.0
1676925207.8362873,90.33203125,-106.4453125,-71.2890625,26.3671875,0.0
1676925207.8400016,108.88671875,31.25,-68.359375,3.90625,0.0
1676925207.8437161,153.80859375,17.08984375,-62.5,14.6484375,0.0
1676925207.8474305,176.7578125,-21.97265625,-57.6171875,25.390625,0.0
1676925207.85118,143.06640625,0.0,-58.10546875,8.7890625,0.0
1676925207.85493,100.09765625,13.671875,-67.87109375,-2.9296875,0.0
1676925207.8586795,113.76953125,-12.20703125,-68.84765625,0.9765625,0.0
1676925207.8624291,135.7421875,-20.99609375,-74.70703125,12.6953125,0.0
1676925207.8661788,109.86328125,-9.27734375,-85.44921875,-0.48828125,0.0
1676925207.8699284,65.91796875,-49.31640625,-80.078125,-7.8125,0.0
1676925207.8736782,90.8203125,-51.7578125,-82.03125,16.11328125,0.0
1676925207.8774278,122.55859375,-121.09375,-97.16796875,43.45703125,0.0
1676925207.8811774,146.97265625,-71.2890625,-87.40234375,41.9921875,0.0
1676925207.8849273,145.01953125,54.6875,-73.2421875,12.20703125,0.0
1676925207.888677,124.51171875,-11.71875,-77.63671875,14.6484375,0.0
1676925207.8924265,154.78515625,-38.57421875,-82.51953125,23.92578125,0.0
1676925207.8961847,158.69140625,-9.27734375,-76.66015625,19.04296875,0.0
1676925207.8999429,98.14453125,-7.32421875,-73.2421875,15.13671875,0.0
1676925207.9037008,71.77734375,-51.26953125,-81.0546875,11.71875,0.0
1676925207.907459,121.58203125,-42.48046875,-82.03125,14.6484375,0.0
1676925207.9112172,176.7578125,-9.765625,-76.66015625,25.390625,0.0
1676925207.9149754,154.296875,-31.25,-77.63671875,17.578125,0.0
1676925207.9187336,112.79296875,-104.00390625,-80.56640625,17.08984375,0.0
1676925207.9224918,140.13671875,-102.5390625,-76.171875,31.73828125,0.0
1676925207.92625,205.56640625,11.23046875,-74.21875,23.92578125,0.0
1676925207.930008,187.5,-19.53125,-77.1484375,11.71875,0.0
1676925207.9337661,121.58203125,-96.19140625,-73.73046875,8.30078125,0.0
1676925207.9375243,127.44140625,-82.51953125,-80.56640625,6.34765625,0.0
1676925207.9413667,167.96875,-48.33984375,-88.8671875,-1.46484375,0.0
1676925207.9452093,150.87890625,-80.56640625,-83.49609375,-8.30078125,0.0
1676925207.9490516,87.890625,-126.953125,-82.03125,-14.6484375,0.0
1676925207.952894,93.26171875,-94.23828125,-85.9375,-18.06640625,0.0
1676925207.9567366,160.15625,-58.10546875,-88.8671875,-13.671875,0.0
1676925207.960579,171.38671875,-103.515625,-88.8671875,-7.8125,0.0
1676925207.9644213,113.76953125,-164.0625,-84.9609375,2.9296875,0.0
1676925207.9682639,103.515625,-90.8203125,-83.49609375,6.34765625,0.0
1676925207.9721062,158.69140625,-23.92578125,-76.66015625,19.04296875,0.0
1676925207.9759486,176.26953125,-92.7734375,-75.1953125,23.92578125,0.0
1676925207.9797912,141.11328125,-105.95703125,-75.1953125,4.8828125,0.0
1676925207.9836335,116.2109375,-75.1953125,-78.61328125,-6.34765625,0.0
1676925207.987292,145.99609375,-80.56640625,-77.1484375,-5.859375,0.0
1676925207.9909503,161.62109375,-132.8125,-73.2421875,5.859375,0.0
1676925207.9946089,123.53515625,-162.59765625,-79.1015625,-7.32421875,0.0
1676925207.9982672,94.7265625,-105.46875,-66.40625,-8.30078125,0.0
1676925208.0019257,121.09375,-87.40234375,-53.7109375,11.23046875,0.0
1676925208.0055842,148.92578125,-197.265625,-58.10546875,31.25,0.0
1676925208.0092425,130.37109375,-257.8125,-61.5234375,49.31640625,0.0
1676925208.012901,123.53515625,-117.67578125,-56.640625,19.53125,0.0
1676925208.0165594,144.53125,-80.56640625,-49.31640625,15.13671875,0.0
1676925208.020218,179.19921875,-139.6484375,-40.0390625,41.9921875,0.0
1676925208.0238762,191.89453125,-140.13671875,-40.52734375,36.1328125,0.0
1676925208.0275347,152.34375,-134.27734375,-43.9453125,13.18359375,0.0
1676925208.0325255,109.86328125,-153.80859375,-45.8984375,2.9296875,0.0
1676925208.0375164,129.39453125,-157.2265625,-46.38671875,11.71875,0.0
1676925208.0425072,166.50390625,-143.06640625,-44.921875,16.11328125,0.0
1676925208.047498,136.23046875,-137.20703125,-46.875,1.953125,0.0
1676925208.0524888,81.0546875,-173.33984375,-42.96875,1.46484375,0.0
1676925208.0574796,83.984375,-219.7265625,-36.62109375,19.53125,0.0
1676925208.0624704,138.18359375,-200.68359375,-37.59765625,29.296875,0.0
1676925208.0674613,159.66796875,-152.83203125,-38.57421875,27.34375,0.0
1676925208.072452,130.37109375,-139.6484375,-34.66796875,26.85546875,0.0
1676925208.077443,110.3515625,-215.33203125,-34.66796875,57.12890625,0.0
1676925208.0824337,176.7578125,-141.6015625,-37.109375,67.87109375,0.0
1676925208.0874245,221.6796875,-35.64453125,-37.109375,46.38671875,0.0
1676925208.0911748,157.71484375,-70.80078125,-37.109375,34.1796875,0.0
1676925208.094925,128.90625,-69.3359375,-32.71484375,38.0859375,0.0
1676925208.0986753,168.45703125,-20.5078125,-32.2265625,38.57421875,0.0
1676925208.1024253,188.96484375,-19.53125,-37.59765625,23.92578125,0.0
1676925208.1061757,142.08984375,-57.6171875,-31.25,15.13671875,0.0
1676925208.1099257,94.7265625,-79.1015625,-28.3203125,20.01953125,0.0
1676925208.113676,128.90625,-19.53125,-33.203125,20.01953125,0.0
1676925208.1174264,198.73046875,33.69140625,-28.80859375,17.578125,0.0
1676925208.1211765,160.64453125,-81.0546875,-29.78515625,23.4375,0.0
1676925208.1249268,84.9609375,-118.1640625,-33.203125,18.5546875,0.0
1676925208.128677,125.9765625,38.0859375,-34.66796875,1.46484375,0.0
1676925208.1324272,178.22265625,44.921875,-40.0390625,2.9296875,0.0
1676925208.1361768,159.1796875,-23.92578125,-43.45703125,12.6953125,0.0
1676925208.1399264,104.4921875,0.0,-46.38671875,-0.48828125,0.0
1676925208.1436763,104.00390625,45.41015625,-45.41015625,-9.765625,0.0
1676925208.147426,148.4375,11.23046875,-42.96875,7.8125,0.0
1676925208.1511755,153.80859375,-27.83203125,-42.96875,6.8359375,0.0
1676925208.1549253,95.703125,-38.57421875,-43.9453125,4.8828125,0.0
1676925208.158675,83.984375,-38.0859375,-45.8984375,17.578125,0.0
1676925208.1624246,137.20703125,-78.125,-42.96875,23.92578125,0.0
1676925208.1661742,148.4375,-193.359375,-38.57421875,27.83203125,0.0
1676925208.1699238,124.51171875,-169.921875,-38.57421875,7.8125,0.0
1676925208.1736736,127.44140625,-128.90625,-37.59765625,-0.48828125,0.0
1676925208.1774232,148.4375,-201.66015625,-41.015625,17.578125,0.0
1676925208.1812522,166.015625,-248.53515625,-48.33984375,23.4375,0.0
1676925208.1850812,136.23046875,-241.69921875,-48.828125,16.11328125,0.0
1676925208.18891,90.33203125,-211.42578125,-44.43359375,3.41796875,0.0
1676925208.192739,84.9609375,-276.85546875,-43.9453125,18.06640625,0.0
1676925208.196568,128.90625,-307.12890625,-38.57421875,37.59765625,0.0
1676925208.200397,152.83203125,-255.859375,-37.109375,29.78515625,0.0
1676925208.204226,102.5390625,-253.41796875,-46.38671875,8.30078125,0.0
1676925208.208055,75.1953125,-324.70703125,-47.36328125,14.16015625,0.0
1676925208.211884,109.375,-351.07421875,-48.33984375,31.25,0.0
1676925208.2157128,163.57421875,-250.48828125,-46.875,19.53125,0.0
1676925208.2195418,125.48828125,-289.0625,-48.828125,0.0,0.0
1676925208.2233708,84.9609375,-338.8671875,-50.29296875,-8.30078125,0.0
1676925208.2270513,123.046875,-319.82421875,-49.8046875,4.39453125,0.0
1676925208.2307315,167.48046875,-303.22265625,-54.6875,5.859375,0.0
1676925208.234412,136.71875,-326.66015625,-60.05859375,-4.8828125,0.0
1676925208.2380922,83.0078125,-349.12109375,-64.94140625,-7.8125,0.0
1676925208.2417727,99.12109375,-347.65625,-66.40625,9.27734375,0.0
1676925208.245453,143.5546875,-367.67578125,-64.453125,28.80859375,0.0
1676925208.2491333,139.16015625,-350.5859375,-63.4765625,21.484375,0.0
1676925208.2528138,68.84765625,-415.0390625,-63.4765625,29.78515625,0.0
1676925208.256494,62.98828125,-383.30078125,-64.453125,31.73828125,0.0
1676925208.2601745,147.4609375,-250.48828125,-60.546875,22.4609375,0.0
1676925208.2638547,158.203125,-293.45703125,-61.03515625,25.87890625,0.0
1676925208.2675352,90.33203125,-316.40625,-64.453125,14.16015625,0.0
1676925208.2712526,76.66015625,-274.90234375,-66.89453125,14.16015625,0.0
1676925208.27497,130.37109375,-257.32421875,-60.05859375,32.2265625,0.0
1676925208.2786875,143.06640625,-300.29296875,-50.29296875,42.96875,0.0
1676925208.282405,102.05078125,-307.12890625,-56.640625,20.5078125,0.0
1676925208.2861223,93.26171875,-273.4375,-55.17578125,15.13671875,0.0
1676925208.2898397,117.67578125,-290.52734375,-53.7109375,28.3203125,0.0
1676925208.2935574,115.72265625,-352.05078125,-63.4765625,28.80859375,0.0
1676925208.2972748,82.03125,-354.4921875,-61.03515625,19.04296875,0.0
1676925208.3009923,72.75390625,-254.39453125,-59.08203125,-2.44140625,0.0
1676925208.3047097,108.3984375,-232.421875,-65.4296875,-10.25390625,0.0
1676925208.308427,135.25390625,-301.26953125,-64.453125,2.9296875,0.0
1676925208.3121445,129.8828125,-293.45703125,-67.3828125,7.32421875,0.0
1676925208.3159084,101.5625,-256.8359375,-71.2890625,-12.6953125,0.0
1676925208.3196726,97.16796875,-300.78125,-68.359375,-4.39453125,0.0
1676925208.3234365,134.765625,-330.078125,-62.01171875,11.23046875,0.0
1676925208.3272004,145.99609375,-331.0546875,-62.01171875,5.37109375,0.0
1676925208.3309646,109.375,-345.703125,-59.5703125,-1.46484375,0.0
1676925208.3347285,75.68359375,-408.203125,-61.03515625,-3.41796875,0.0
1676925208.3384924,88.37890625,-472.65625,-65.4296875,9.27734375,0.0
1676925208.3422565,147.94921875,-399.90234375,-61.03515625,10.7421875,0.0
1676925208.3460205,139.16015625,-329.1015625,-60.546875,-0.9765625,0.0
1676925208.3497844,79.1015625,-379.39453125,-66.89453125,10.25390625,0.0
1676925208.3535485,94.7265625,-388.671875,-70.3125,23.4375,0.0
1676925208.3573124,137.20703125,-380.859375,-71.2890625,30.76171875,0.0
1676925208.361149,130.37109375,-376.46484375,-72.265625,22.4609375,0.0
1676925208.3649857,81.54296875,-400.390625,-74.70703125,9.765625,0.0
1676925208.3688226,84.47265625,-418.9453125,-71.77734375,23.4375,0.0
1676925208.3726592,161.1328125,-347.16796875,-64.453125,31.73828125,0.0
1676925208.3764958,166.50390625,-350.09765625,-64.94140625,16.11328125,0.0
1676925208.3803325,84.47265625,-443.359375,-69.82421875,1.46484375,0.0
1676925208.384169,62.98828125,-437.01171875,-72.265625,0.0,0.0
1676925208.3880057,135.7421875,-312.5,-66.89453125,0.0,0.0
1676925208.3918424,166.50390625,-321.2890625,-62.5,1.46484375,0.0
1676925208.3956792,96.6796875,-372.0703125,-65.91796875,-11.71875,0.0
1676925208.3995159,59.08203125,-338.37890625,-67.87109375,-16.6015625,0.0
1676925208.4033525,112.3046875,-288.0859375,-66.89453125,-7.8125,0.0
1676925208.4082844,151.3671875,-297.36328125,-62.98828125,7.32421875,0.0
1676925208.413216,115.234375,-305.17578125,-57.6171875,8.30078125,0.0
1676925208.418148,77.63671875,-287.59765625,-54.6875,1.953125,0.0
1676925208.42308,101.07421875,-291.9921875,-56.640625,16.11328125,0.0
1676925208.428012,159.1796875,-270.5078125,-53.22265625,24.90234375,0.0
1676925208.4329438,128.41796875,-357.91015625,-52.734375,29.78515625,0.0
1676925208.4378755,72.75390625,-329.58984375,-61.5234375,5.859375,0.0
1676925208.4428074,116.2109375,-198.73046875,-60.05859375,-12.20703125,0.0
1676925208.4477394,151.85546875,-256.34765625,-61.03515625,5.859375,0.0
1676925208.452671,142.08984375,-293.45703125,-67.87109375,1.953125,0.0
1676925208.457603,100.5859375,-250.9765625,-60.05859375,-2.44140625,0.0
1676925208.462535,100.09765625,-229.98046875,-58.59375,16.6015625,0.0
1676925208.4662662,127.44140625,-281.25,-65.4296875,31.73828125,0.0
1676925208.4699972,140.13671875,-289.55078125,-62.98828125,35.15625,0.0
1676925208.4737284,121.09375,-237.79296875,-59.08203125,29.296875,0.0
1676925208.4774594,95.703125,-237.3046875,-59.08203125,29.296875,0.0
1676925208.4811907,120.1171875,-273.4375,-56.640625,41.50390625,0.0
1676925208.484922,145.5078125,-267.578125,-54.19921875,39.55078125,0.0
1676925208.488653,115.72265625,-192.3828125,-58.59375,8.30078125,0.0
1676925208.4923842,73.2421875,-117.1875,-59.5703125,-20.99609375,0.0
1676925208.4961152,71.2890625,-133.30078125,-61.5234375,-6.34765625,0.0
1676925208.4998465,97.65625,-114.74609375,-64.453125,11.71875,0.0
1676925208.5035775,110.3515625,48.828125,-66.89453125,-13.671875,0.0
1676925208.5073087,48.33984375,65.4296875,-64.94140625,-28.3203125,0.0
1676925208.5110803,34.66796875,74.21875,-63.96484375,-12.6953125,0.0
1676925208.5148516,83.984375,140.13671875,-64.453125,1.46484375,0.0
1676925208.518623,92.28515625,162.59765625,-66.40625,7.8125,0.0
1676925208.5223944,43.9453125,156.25,-70.3125,14.16015625,0.0
1676925208.526166,20.5078125,147.4609375,-71.2890625,23.4375,0.0
1676925208.5299373,61.5234375,153.80859375,-72.75390625,41.015625,0.0
1676925208.5337088,102.05078125,204.1015625,-75.1953125,35.64453125,0.0
1676925208.5374804,83.984375,232.421875,-70.80078125,16.6015625,0.0
1676925208.5412517,35.15625,163.57421875,-67.87109375,21.97265625,0.0
1676925208.5450232,83.0078125,230.46875,-67.87109375,24.90234375,0.0
1676925208.5487945,148.4375,286.1328125,-63.96484375,22.4609375,0.0
1676925208.552566,118.1640625,218.75,-59.5703125,14.16015625,0.0
1676925208.5562985,72.75390625,218.75,-59.08203125,4.8828125,0.0
1676925208.560031,94.7265625,277.83203125,-59.5703125,5.37109375,0.0
1676925208.5637634,137.6953125,287.109375,-55.6640625,7.8125,0.0
1676925208.5674958,124.51171875,256.8359375,-58.59375,0.48828125,0.0
1676925208.5712283,73.2421875,249.51171875,-70.80078125,-16.11328125,0.0
1676925208.5749607,72.75390625,263.18359375,-77.1484375,-9.27734375,0.0
1676925208.5786934,127.44140625,314.94140625,-81.0546875,-2.9296875,0.0
1676925208.5824258,133.30078125,256.8359375,-84.9609375,0.0,0.0
1676925208.5861583,88.37890625,232.421875,-82.03125,3.90625,0.0
1676925208.5898907,114.74609375,369.62890625,-72.75390625,0.0,0.0
1676925208.5936232,167.96875,356.4453125,-68.359375,5.37109375,0.0
1676925208.5973556,185.546875,317.3828125,-63.4765625,13.671875,0.0
1676925208.6011086,139.6484375,337.890625,-62.5,5.37109375,0.0
1676925208.6048615,112.79296875,340.8203125,-62.5,0.0,0.0
1676925208.6086144,134.27734375,302.734375,-62.5,16.6015625,0.0
1676925208.6123674,152.34375,276.85546875,-64.94140625,25.390625,0.0
1676925208.6161203,146.484375,296.38671875,-63.96484375,19.53125,0.0
1676925208.619873,102.05078125,270.99609375,-69.3359375,2.9296875,0.0
1676925208.623626,104.98046875,249.51171875,-74.21875,-2.44140625,0.0
1676925208.627379,121.58203125,187.98828125,-65.91796875,24.90234375,0.0
1676925208.631132,131.8359375,223.6328125,-64.453125,26.3671875,0.0
1676925208.6348848,125.0,316.89453125,-65.91796875,1.953125,0.0
1676925208.6386378,98.6328125,242.67578125,-66.89453125,9.27734375,0.0
1676925208.6423907,134.765625,207.03125,-67.3828125,15.625,0.0
1676925208.6461444,160.15625,242.67578125,-66.40625,6.8359375,0.0
1676925208.649898,123.046875,243.65234375,-63.96484375,0.48828125,0.0
1676925208.6536517,91.30859375,197.265625,-60.546875,8.7890625,0.0
1676925208.6574054,118.1640625,189.453125,-64.453125,16.11328125,0.0
1676925208.661159,147.94921875,197.75390625,-66.40625,18.5546875,0.0
1676925208.6649127,107.91015625,156.73828125,-69.3359375,6.34765625,0.0
1676925208.6686666,57.6171875,91.796875,-69.82421875,13.18359375,0.0
1676925208.6724203,72.265625,66.40625,-67.3828125,39.55078125,0.0
1676925208.676174,163.57421875,197.75390625,-62.01171875,29.78515625,0.0
1676925208.6799276,173.828125,206.0546875,-63.96484375,11.23046875,0.0
1676925208.6836812,100.5859375,143.5546875,-64.453125,10.7421875,0.0
1676925208.687435,99.12109375,164.0625,-63.96484375,18.5546875,0.0
1676925208.6911888,127.9296875,177.24609375,-71.2890625,15.625,0.0
1676925208.694943,108.88671875,140.625,-69.3359375,8.30078125,0.0
1676925208.6986969,47.8515625,109.86328125,-69.82421875,3.41796875,0.0
1676925208.7024508,54.19921875,131.34765625,-67.3828125,5.37109375,0.0
1676925208.7062047,126.953125,124.51171875,-68.359375,17.578125,0.0
1676925208.7099586,167.96875,86.42578125,-69.3359375,24.90234375,0.0
1676925208.7137127,113.76953125,25.87890625,-62.98828125,24.4140625,0.0
1676925208.7174666,98.14453125,87.890625,-61.03515625,9.765625,0.0
1676925208.7212205,161.62109375,158.203125,-63.96484375,0.48828125,0.0
1676925208.7249746,178.22265625,82.03125,-66.40625,14.16015625,0.0
1676925208.7287285,149.90234375,52.734375,-67.87109375,17.08984375,0.0
1676925208.7324824,125.0,90.8203125,-75.1953125,8.7890625,0.0
1676925208.7362373,139.6484375,80.078125,-76.66015625,7.8125,0.0
1676925208.7399921,152.34375,16.11328125,-72.75390625,20.01953125,0.0
1676925208.7437468,128.41796875,6.34765625,-71.77734375,13.18359375,0.0
1676925208.7475016,87.890625,39.0625,-69.82421875,-2.44140625,0.0
1676925208.7512565,83.49609375,24.90234375,-70.80078125,1.46484375,0.0
1676925208.7550113,104.98046875,-59.08203125,-70.3125,16.11328125,0.0
1676925208.7587662,106.93359375,-59.08203125,-66.40625,23.92578125,0.0
1676925208.762521,98.14453125,47.36328125,-64.94140625,-3.90625,0.0
1676925208.766276,99.609375,34.66796875,-68.359375,-17.08984375,0.0
1676925208.7700305,117.1875,-21.97265625,-73.2421875,3.41796875,0.0
1676925208.7737854,149.4140625,0.9765625,-67.3828125,15.13671875,0.0
1676925208.7775402,129.8828125,30.76171875,-63.4765625,5.37109375,0.0
1676925208.7825599,78.61328125,-7.8125,-66.89453125,4.8828125,0.0
1676925208.7875798,91.796875,-32.2265625,-64.453125,30.76171875,0.0
1676925208.7925997,146.484375,16.6015625,-62.5,47.36328125,0.0
1676925208.7976193,145.99609375,51.7578125,-62.01171875,35.64453125,0.0
1676925208.802639,91.30859375,12.20703125,-62.5,29.78515625,0.0
1676925208.807659,85.9375,-38.0859375,-64.453125,45.41015625,0.0
1676925208.8126788,141.11328125,3.90625,-58.59375,50.78125,0.0
1676925208.8176985,163.0859375,46.875,-63.4765625,29.296875,0.0
1676925208.8227181,102.5390625,-2.9296875,-75.1953125,14.6484375,0.0
1676925208.827738,68.84765625,-44.43359375,-72.75390625,25.390625,0.0
1676925208.832758,134.27734375,9.765625,-66.89453125,29.296875,0.0
1676925208.8377776,177.734375,40.52734375,-66.40625,19.04296875,0.0
1676925208.841498,126.46484375,-21.484375,-68.84765625,20.5078125,0.0
1676925208.8452184,104.00390625,-38.57421875,-67.87109375,24.4140625,0.0
1676925208.8489387,156.25,19.53125,-62.98828125,23.4375,0.0
1676925208.852659,194.3359375,14.6484375,-63.96484375,26.3671875,0.0
1676925208.8563795,154.296875,-49.31640625,-62.98828125,20.01953125,0.0
1676925208.8600998,97.65625,-71.77734375,-60.546875,6.8359375,0.0
1676925208.86382,121.09375,-22.94921875,-65.91796875,1.953125,0.0
1676925208.8675406,179.6875,25.390625,-70.3125,5.859375,0.0
1676925208.871261,148.92578125,-68.359375,-70.80078125,18.5546875,0.0
1676925208.8749812,94.7265625,-101.07421875,-71.77734375,23.4375,0.0
1676925208.8787017,147.4609375,41.9921875,-69.3359375,19.53125,0.0
1676925208.882422,203.61328125,26.85546875,-64.453125,36.62109375,0.0
1676925208.8861728,189.453125,-16.11328125,-63.96484375,36.1328125,0.0
1676925208.8899236,138.18359375,-6.34765625,-68.84765625,14.6484375,0.0
1676925208.8936741,130.859375,-1.953125,-69.3359375,9.27734375,0.0
1676925208.897425,172.36328125,-5.859375,-67.3828125,27.34375,0.0
1676925208.9011757,176.7578125,-26.85546875,-62.01171875,33.203125,0.0
1676925208.9049263,118.65234375,-41.50390625,-59.5703125,22.94921875,0.0
1676925208.908677,99.609375,-6.34765625,-59.08203125,17.578125,0.0
1676925208.912428,145.99609375,16.11328125,-56.640625,21.97265625,0.0
1676925208.9161787,150.390625,-89.35546875,-55.6640625,45.41015625,0.0
1676925208.9199295,130.37109375,-36.1328125,-58.59375,32.2265625,0.0
1676925208.92368,135.25390625,75.68359375,-60.546875,5.859375,0.0
1676925208.9274309,146.97265625,1.953125,-62.01171875,19.04296875,0.0
1676925208.9311714,185.546875,-9.765625,-63.4765625,30.2734375,0.0
1676925208.934912,185.05859375,26.3671875,-68.84765625,18.5546875,0.0
1676925208.9386525,138.671875,20.5078125,-73.2421875,5.37109375,0.0
1676925208.942393,129.8828125,-22.4609375,-72.265625,12.20703125,0.0
1676925208.9461336,169.43359375,-30.2734375,-67.3828125,20.5078125,0.0
1676925208.949874,173.33984375,-24.90234375,-66.89453125,24.4140625,0.0
1676925208.9536145,125.9765625,-6.34765625,-64.94140625,13.18359375,0.0
1676925208.957355,89.35546875,-53.22265625,-64.453125,8.7890625,0.0
1676925208.9610956,124.0234375,-56.15234375,-63.4765625,22.94921875,0.0
1676925208.9648361,184.08203125,67.87109375,-58.10546875,18.06640625,0.0
1676925208.9685767,153.3203125,46.875,-60.546875,3.41796875,0.0
1676925208.9723172,105.95703125,-21.484375,-62.01171875,3.41796875,0.0
1676925208.9761534,143.06640625,-0.9765625,-62.01171875,20.01953125,0.0
1676925208.9799895,201.66015625,47.8515625,-56.640625,29.296875,0.0
1676925208.9838257,172.8515625,9.27734375,-57.12890625,18.06640625,0.0
1676925208.9876618,109.375,-43.9453125,-60.05859375,10.7421875,0.0
1676925208.991498,127.9296875,-8.7890625,-59.5703125,21.484375,0.0
1676925208.9953341,179.6875,-1.953125,-59.08203125,29.296875,0.0
1676925208.9991703,176.26953125,-26.85546875,-56.640625,18.06640625,0.0
1676925209.0030065,113.76953125,-68.84765625,-57.6171875,12.6953125,0.0
1676925209.0068426,120.1171875,-14.16015625,-57.12890625,10.25390625,0.0
1676925209.0106788,187.98828125,54.6875,-55.6640625,8.30078125,0.0
1676925209.014515,180.6640625,-10.25390625,-56.15234375,19.04296875,0.0
1676925209.018351,123.53515625,-26.85546875,-63.96484375,1.953125,0.0
1676925209.0220242,119.62890625,9.765625,-72.265625,-8.7890625,0.0
1676925209.025697,164.55078125,16.11328125,-70.3125,4.39453125,0.0
1676925209.02937,170.8984375,-36.62109375,-68.84765625,10.25390625,0.0
1676925209.033043,116.2109375,-49.8046875,-73.73046875,-7.32421875,0.0
1676925209.036716,82.03125,-3.41796875,-74.21875,-21.484375,0.0
1676925209.040389,110.83984375,-20.99609375,-70.3125,-6.34765625,0.0
1676925209.044062,148.92578125,-77.63671875,-66.40625,17.08984375,0.0
1676925209.047735,114.2578125,-114.74609375,-66.89453125,25.87890625,0.0
1676925209.0514078,101.5625,0.9765625,-68.84765625,14.16015625,0.0
1676925209.055081,131.8359375,33.69140625,-71.77734375,17.578125,0.0
1676925209.0587537,158.203125,-38.0859375,-76.66015625,26.3671875,0.0
1676925209.0624268,166.9921875,-21.484375,-78.125,20.01953125,0.0
1676925209.066156,121.58203125,0.9765625,-80.078125,8.7890625,0.0
1676925209.0698853,109.375,-32.2265625,-79.58984375,7.8125,0.0
1676925209.0736144,153.3203125,-43.9453125,-77.63671875,9.765625,0.0
1676925209.0773437,176.7578125,-24.4140625,-80.078125,-5.859375,0.0
1676925209.0810728,137.20703125,-28.80859375,-76.66015625,-11.23046875,0.0
1676925209.0848022,82.51953125,-63.96484375,-76.66015625,-11.23046875,0.0
1676925209.0885313,74.70703125,-155.76171875,-82.03125,4.8828125,0.0
1676925209.0922604,112.79296875,-104.00390625,-76.171875,25.390625,0.0
1676925209.0959897,124.0234375,20.5078125,-74.21875,9.27734375,0.0
1676925209.0997188,88.8671875,-31.25,-72.265625,11.23046875,0.0
1676925209.1034482,103.02734375,-65.4296875,-72.265625,24.90234375,0.0
1676925209.1071773,143.5546875,-36.62109375,-75.68359375,22.94921875,0.0
1676925209.110957,139.6484375,-16.6015625,-66.40625,26.3671875,0.0
1676925209.1147368,86.9140625,-58.59375,-60.05859375,21.97265625,0.0
1676925209.1185164,90.8203125,-77.1484375,-62.5,8.30078125,0.0
1676925209.122296,155.2734375,-36.1328125,-61.03515625,8.7890625,0.0
1676925209.126076,174.8046875,-42.96875,-62.5,7.32421875,0.0
1676925209.1298556,122.0703125,-119.62890625,-66.89453125,10.7421875,0.0
1676925209.1336353,99.609375,-128.90625,-72.75390625,9.27734375,0.0
1676925209.1374152,161.62109375,-25.390625,-73.73046875,2.44140625,0.0
1676925209.1411948,198.73046875,-14.16015625,-74.21875,7.8125,0.0
1676925209.1449745,149.90234375,-103.02734375,-76.66015625,9.27734375,0.0
1676925209.1487544,125.9765625,-103.02734375,-75.1953125,13.18359375,0.0
1676925209.152534,192.3828125,-10.7421875,-74.70703125,15.625,0.0
1676925209.157525,247.55859375,-25.390625,-73.73046875,20.99609375,0.0
1676925209.162516,199.70703125,-94.7265625,-72.75390625,11.23046875,0.0
1676925209.1675074,147.4609375,-71.2890625,-67.87109375,5.37109375,0.0
1676925209.1724985,169.921875,-27.34375,-62.5,16.11328125,0.0
1676925209.1774895,189.453125,-41.50390625,-62.01171875,27.34375,0.0
1676925209.1824808,158.69140625,-77.63671875,-62.98828125,27.34375,0.0
1676925209.1874719,101.07421875,-58.59375,-62.01171875,10.7421875,0.0
1676925209.192463,100.09765625,-21.484375,-60.546875,9.27734375,0.0
1676925209.197454,149.4140625,-45.8984375,-60.546875,37.59765625,0.0
1676925209.202445,161.1328125,-80.56640625,-60.05859375,48.828125,0.0
1676925209.2074363,121.58203125,-29.78515625,-62.5,26.85546875,0.0
1676925209.2124274,106.4453125,7.8125,-61.5234375,12.6953125,0.0
1676925209.216164,130.859375,-28.80859375,-62.01171875,15.13671875,0.0
1676925209.2199008,145.01953125,-52.734375,-62.5,20.01953125,0.0
1676925209.2236376,107.421875,-19.53125,-60.546875,6.34765625,0.0
1676925209.227374,73.73046875,12.20703125,-62.98828125,-4.39453125,0.0
1676925209.2311108,76.66015625,-74.70703125,-65.4296875,13.18359375,0.0
1676925209.2348475,95.703125,-135.25390625,-64.453125,17.578125,0.0
1676925209.2385843,94.7265625,-53.7109375,-64.453125,2.44140625,0.0
1676925209.242321,61.5234375,-11.71875,-59.5703125,6.8359375,0.0
1676925209.2460575,46.38671875,-107.91015625,-60.05859375,33.69140625,0.0
1676925209.2497942,76.171875,-129.8828125,-69.82421875,45.41015625,0.0
1676925209.253531,120.60546875,-14.16015625,-74.70703125,25.390625,0.0
1676925209.2572677,94.23828125,-40.0390625,-67.87109375,21.484375,0.0
1676925209.2610307,80.56640625,-74.21875,-64.94140625,33.69140625,0.0
1676925209.2647934,143.5546875,-47.36328125,-67.87109375,44.921875,0.0
1676925209.268556,181.640625,-38.0859375,-64.94140625,40.0390625,0.0
1676925209.272319,113.76953125,-71.2890625,-69.82421875,18.06640625,0.0
1676925209.276082,52.734375,-101.07421875,-72.265625,14.16015625,0.0
1676925209.2798448,74.70703125,-98.6328125,-74.70703125,18.5546875,0.0
1676925209.2836075,106.4453125,-88.37890625,-76.171875,15.13671875,0.0
1676925209.2873704,79.1015625,-71.2890625,-71.77734375,6.8359375,0.0
1676925209.2911334,11.23046875,-148.4375,-75.1953125,20.99609375,0.0
1676925209.2948961,33.69140625,-117.67578125,-73.2421875,28.80859375,0.0
1676925209.2986588,121.58203125,12.6953125,-62.5,18.5546875,0.0
1676925209.3024218,107.91015625,-46.38671875,-69.3359375,8.7890625,0.0
1676925209.3061724,41.50390625,-91.796875,-70.3125,-3.90625,0.0
1676925209.309923,63.4765625,-18.5546875,-69.3359375,-6.34765625,0.0
1676925209.3136735,126.953125,-1.46484375,-76.171875,-5.37109375,0.0
1676925209.3174238,114.74609375,-48.33984375,-75.1953125,-6.34765625,0.0
1676925209.3211744,53.7109375,-56.15234375,-67.3828125,-17.08984375,0.0
1676925209.324925,42.48046875,-52.24609375,-67.87109375,-20.01953125,0.0
1676925209.3286755,89.35546875,-42.48046875,-68.84765625,-9.765625,0.0
1676925209.332426,107.421875,-81.0546875,-64.453125,3.41796875,0.0
1676925209.3361764,61.03515625,-95.21484375,-63.96484375,-1.46484375,0.0
1676925209.339927,53.7109375,3.90625,-61.03515625,-11.23046875,0.0
1676925209.3436775,103.515625,23.92578125,-59.08203125,8.7890625,0.0
1676925209.347428,125.0,-50.29296875,-60.546875,21.484375,0.0
1676925209.3511734,98.6328125,-38.0859375,-58.10546875,4.8828125,0.0
1676925209.3549187,78.61328125,10.25390625,-55.6640625,-10.7421875,0.0
1676925209.358664,98.6328125,-34.1796875,-59.5703125,-1.46484375,0.0
1676925209.3624094,144.04296875,-39.55078125,-62.01171875,8.7890625,0.0
1676925209.3661547,129.39453125,-21.97265625,-63.4765625,-2.9296875,0.0
1676925209.3699,68.359375,-49.31640625,-67.3828125,-13.18359375,0.0
1676925209.3736453,72.265625,-52.734375,-67.3828125,-5.37109375,0.0
1676925209.3773906,112.79296875,-86.9140625,-61.03515625,22.94921875,0.0
1676925209.381136,145.5078125,-31.73828125,-55.17578125,22.94921875,0.0
1676925209.3848813,128.41796875,39.55078125,-54.19921875,-4.8828125,0.0
1676925209.3886266,102.05078125,-21.484375,-53.7109375,11.71875,0.0
1676925209.392372,147.94921875,-32.2265625,-54.19921875,36.1328125,0.0
1676925209.39621,179.19921875,-19.53125,-56.640625,29.296875,0.0
1676925209.4000483,131.34765625,-18.06640625,-59.5703125,0.48828125,0.0
1676925209.4038863,86.9140625,-42.48046875,-58.59375,0.9765625,0.0
1676925209.4077244,118.1640625,-50.78125,-61.03515625,20.01953125,0.0
1676925209.4115627,174.8046875,6.34765625,-64.94140625,14.6484375,0.0
1676925209.4154007,148.92578125,-16.11328125,-67.87109375,7.8125,0.0
1676925209.4192388,79.58984375,-71.2890625,-73.73046875,3.41796875,0.0
1676925209.423077,81.0546875,-57.12890625,-72.265625,22.4609375,0.0
1676925209.4269152,163.57421875,55.6640625,-69.3359375,31.25,0.0
1676925209.4307532,163.57421875,37.109375,-71.77734375,27.83203125,0.0
1676925209.4345915,89.35546875,-20.99609375,-70.3125,25.87890625,0.0
1676925209.4384296,94.23828125,-5.37109375,-72.265625,27.83203125,0.0
1676925209.4420931,165.0390625,15.13671875,-71.77734375,40.0390625,0.0
1676925209.4457564,190.4296875,-7.32421875,-64.94140625,44.921875,0.0
1676925209.44942,135.25390625,-22.4609375,-62.98828125,34.66796875,0.0
1676925209.4530835,101.5625,-4.8828125,-67.3828125,22.4609375,0.0
1676925209.4567468,112.79296875,-28.80859375,-71.77734375,22.4609375,0.0
1676925209.4604104,108.88671875,-41.50390625,-71.77734375,18.5546875,0.0
1676925209.464074,29.296875,-117.1875,-73.2421875,18.06640625,0.0
1676925209.4677372,-4.8828125,-85.44921875,-70.80078125,16.11328125,0.0
1676925209.4714007,72.265625,46.875,-71.77734375,3.41796875,0.0
1676925209.4750643,110.83984375,-2.44140625,-82.03125,8.30078125,0.0
1676925209.4787276,89.84375,-29.296875,-83.49609375,5.37109375,0.0
1676925209.482391,51.7578125,-1.46484375,-81.54296875,-5.859375,0.0
1676925209.4861493,51.26953125,3.41796875,-83.0078125,-3.41796875,0.0
1676925209.4899075,81.54296875,-41.015625,-77.1484375,5.859375,0.0
1676925209.4936657,82.51953125,-50.29296875,-72.265625,-0.48828125,0.0
1676925209.497424,57.12890625,0.0,-69.3359375,-14.16015625,0.0
1676925209.501182,55.17578125,1.953125,-68.84765625,-18.5546875,0.0
1676925209.5049405,70.80078125,-83.0078125,-77.1484375,0.9765625,0.0
1676925209.5086987,76.66015625,-86.42578125,-82.51953125,16.11328125,0.0
1676925209.512457,41.9921875,-18.06640625,-80.078125,-0.48828125,0.0
1676925209.516215,11.23046875,-31.73828125,-81.0546875,-5.859375,0.0
1676925209.5199733,41.015625,-78.61328125,-79.58984375,11.71875,0.0
1676925209.5237315,84.9609375,-57.6171875,-80.078125,16.11328125,0.0
1676925209.5274897,72.75390625,12.6953125,-82.03125,-6.8359375,0.0
1676925209.533735,41.9921875,4.8828125,-76.171875,-4.39453125,0.0
1676925209.5399802,44.43359375,-93.75,-78.61328125,20.99609375,0.0
1676925209.5462255,94.23828125,-86.42578125,-77.63671875,26.3671875,0.0
1676925209.552471,132.32421875,22.4609375,-72.265625,3.90625,0.0
1676925209.558716,83.984375,-13.671875,-77.63671875,-3.41796875,0.0
1676925209.5649614,82.51953125,-60.05859375,-81.54296875,8.7890625,0.0
1676925209.5712068,136.71875,-41.9921875,-80.078125,15.625,0.0
1676925209.577452,166.50390625,4.39453125,-76.171875,5.37109375,0.0
1676925209.5836973,117.1875,-14.16015625,-74.21875,-3.41796875,0.0
1676925209.5899427,53.7109375,-87.40234375,-75.68359375,7.32421875,0.0
1676925209.5961878,102.5390625,-24.90234375,-76.171875,6.34765625,0.0
1676925209.6024332,145.99609375,11.71875,-74.70703125,4.39453125,0.0
1676925209.6049328,88.37890625,-46.38671875,-73.2421875,6.34765625,0.0
1676925209.6074321,63.4765625,-36.1328125,-67.87109375,14.16015625,0.0
1676925209.6099315,111.328125,20.99609375,-62.5,24.4140625,0.0
1676925209.612431,152.83203125,22.4609375,-59.08203125,38.0859375,0.0
1676925209.6149306,110.83984375,-32.2265625,-62.01171875,35.15625,0.0
1676925209.61743,40.52734375,-64.453125,-66.40625,24.90234375,0.0
1676925209.6199293,65.4296875,-22.94921875,-66.40625,26.85546875,0.0
1676925209.622429,135.7421875,5.859375,-71.2890625,32.2265625,0.0
1676925209.6249285,123.53515625,-56.15234375,-75.68359375,32.71484375,0.0
1676925209.6274278,62.5,-49.8046875,-75.1953125,22.94921875,0.0
1676925209.6299272,63.96484375,7.8125,-77.1484375,12.6953125,0.0
1676925209.6324267,124.0234375,8.30078125,-79.1015625,8.7890625,0.0
1676925209.636177,120.60546875,-92.28515625,-75.68359375,20.99609375,0.0
1676925209.6399271,70.3125,-94.7265625,-71.2890625,10.25390625,0.0
1676925209.6436775,96.19140625,-2.44140625,-70.80078125,-9.765625,0.0
1676925209.6474276,137.6953125,-45.8984375,-72.265625,-7.32421875,0.0
1676925209.651178,156.73828125,-58.10546875,-71.2890625,-6.34765625,0.0
1676925209.6549282,123.53515625,-49.31640625,-65.91796875,-10.7421875,0.0
1676925209.6586783,96.6796875,-7.32421875,-65.4296875,-11.71875,0.0
1676925209.6624286,135.7421875,4.8828125,-64.94140625,3.90625,0.0
1676925209.6661787,159.66796875,-67.87109375,-68.84765625,20.99609375,0.0
1676925209.669929,137.6953125,-14.16015625,-74.21875,-0.48828125,0.0
1676925209.673679,104.98046875,48.33984375,-73.73046875,-17.08984375,0.0
1676925209.6774294,108.88671875,-6.34765625,-68.84765625,11.23046875,0.0
1676925209.6811779,156.73828125,-23.4375,-64.94140625,19.53125,0.0
1676925209.6849265,171.875,14.16015625,-63.96484375,9.27734375,0.0
1676925209.688675,127.9296875,11.71875,-67.3828125,0.9765625,0.0
1676925209.6924236,112.79296875,-62.98828125,-68.359375,3.90625,0.0
1676925209.696172,163.57421875,-160.15625,-67.3828125,12.6953125,0.0
1676925209.6999207,191.89453125,-244.140625,-62.5,10.25390625,0.0
1676925209.703669,147.94921875,-291.9921875,-64.94140625,-6.34765625,0.0
1676925209.7074175,114.74609375,-376.953125,-73.2421875,-4.39453125,0.0
1676925209.7111661,133.7890625,-449.70703125,-72.75390625,22.4609375,0.0
1676925209.7149146,198.73046875,-346.19140625,-73.2421875,9.27734375,0.0
1676925209.7186632,181.640625,-351.07421875,-75.1953125,-6.34765625,0.0
1676925209.7224116,107.421875,-417.48046875,-74.70703125,0.9765625,0.0
1676925209.726163,130.37109375,-397.4609375,-73.73046875,6.34765625,0.0
1676925209.729914,193.84765625,-393.06640625,-75.68359375,8.7890625,0.0
1676925209.7336652,170.41015625,-428.22265625,-71.77734375,10.25390625,0.0
1676925209.7374165,97.65625,-451.66015625,-72.265625,7.32421875,0.0
1676925209.7411675,104.00390625,-441.89453125,-74.70703125,18.5546875,0.0
1676925209.7449188,156.73828125,-444.82421875,-74.70703125,35.15625,0.0
1676925209.74867,174.8046875,-434.08203125,-75.68359375,23.92578125,0.0
1676925209.7524211,105.46875,-475.09765625,-79.1015625,17.578125,0.0
1676925209.7561724,85.44921875,-416.50390625,-76.66015625,15.625,0.0
1676925209.7599237,157.71484375,-333.49609375,-71.2890625,11.23046875,0.0
1676925209.7636747,166.9921875,-398.4375,-76.171875,16.6015625,0.0
1676925209.767426,106.93359375,-411.1328125,-81.54296875,3.41796875,0.0
1676925209.7724264,97.65625,-345.21484375,-81.54296875,-12.6953125,0.0
1676925209.7774267,155.76171875,-332.03125,-83.984375,-9.765625,0.0
1676925209.782427,194.3359375,-371.58203125,-86.9140625,-2.44140625,0.0
1676925209.7874274,165.52734375,-365.234375,-84.9609375,-9.765625,0.0
1676925209.7924278,125.9765625,-335.44921875,-82.03125,-14.16015625,0.0
1676925209.7974281,138.18359375,-350.5859375,-79.58984375,2.44140625,0.0
1676925209.8024287,167.96875,-405.2734375,-79.58984375,22.4609375,0.0
1676925209.807429,151.85546875,-395.5078125,-81.0546875,19.53125,0.0
1676925209.8124294,129.8828125,-270.01953125,-85.44921875,-6.8359375,0.0
1676925209.8174298,138.18359375,-265.625,-97.16796875,0.48828125,0.0
1676925209.8224301,162.59765625,-303.22265625,-94.7265625,19.04296875,0.0
1676925209.8274305,180.17578125,-280.76171875,-83.49609375,24.4140625,0.0
1676925209.8299358,140.13671875,-259.27734375,-87.40234375,14.16015625,0.0
1676925209.8324409,108.3984375,-281.73828125,-95.21484375,9.27734375,0.0
1676925209.8349462,141.11328125,-302.24609375,-90.33203125,20.01953125,0.0
1676925209.8374515,194.82421875,-236.81640625,-84.47265625,17.08984375,0.0
1676925209.8399565,176.7578125,-201.171875,-80.56640625,2.9296875,0.0
1676925209.8424618,123.53515625,-264.16015625,-83.0078125,4.39453125,0.0
1676925209.8449671,135.25390625,-269.04296875,-91.30859375,15.625,0.0
1676925209.8474722,190.4296875,-200.68359375,-87.40234375,16.6015625,0.0
1676925209.8499775,170.41015625,-186.03515625,-84.9609375,10.7421875,0.0
1676925209.8524828,102.5390625,-223.14453125,-87.40234375,9.765625,0.0
1676925209.8549879,88.8671875,-282.71484375,-89.35546875,21.97265625,0.0
1676925209.8574932,143.5546875,-181.640625,-90.33203125,18.5546875,0.0
1676925209.8612437,161.1328125,-89.84375,-87.890625,6.8359375,0.0
1676925209.8649945,92.28515625,-140.13671875,-93.26171875,4.39453125,0.0
1676925209.868745,74.70703125,-138.18359375,-100.5859375,6.34765625,0.0
1676925209.872496,137.6953125,-73.2421875,-103.02734375,12.20703125,0.0
1676925209.8762465,167.48046875,-63.96484375,-100.09765625,16.11328125,0.0
1676925209.8799973,93.26171875,-138.671875,-100.09765625,11.71875,0.0
1676925209.8837478,40.0390625,-143.5546875,-104.4921875,5.859375,0.0
1676925209.8874984,110.3515625,-39.0625,-99.609375,3.90625,0.0
1676925209.8912492,172.8515625,12.20703125,-96.19140625,3.90625,0.0
1676925209.8949997,101.07421875,-99.12109375,-96.6796875,11.23046875,0.0
1676925209.8987505,50.78125,-108.3984375,-93.75,14.16015625,0.0
1676925209.902501,125.48828125,26.85546875,-89.84375,7.32421875,0.0
1676925209.907495,173.33984375,-0.48828125,-94.23828125,17.578125,0.0
1676925209.912489,125.9765625,-25.390625,-98.6328125,13.18359375,0.0
1676925209.9174829,63.96484375,-5.37109375,-98.14453125,3.41796875,0.0
1676925209.9224768,63.96484375,9.27734375,-100.5859375,0.48828125,0.0
1676925209.9274707,102.5390625,2.44140625,-100.5859375,5.859375,0.0
1676925209.9324646,93.75,-46.38671875,-102.5390625,12.20703125,0.0
1676925209.9374583,36.62109375,-12.20703125,-103.515625,-4.39453125,0.0
1676925209.9424522,54.19921875,40.0390625,-101.07421875,-2.9296875,0.0
1676925209.947446,124.0234375,32.71484375,-98.6328125,17.08984375,0.0
1676925209.95244,120.1171875,-66.40625,-104.4921875,31.73828125,0.0
1676925209.957434,79.1015625,-30.2734375,-109.86328125,16.11328125,0.0
1676925209.9624279,92.28515625,124.51171875,-108.3984375,-9.27734375,0.0
1676925209.966176,119.140625,80.078125,-107.91015625,-1.953125,0.0
1676925209.969924,139.16015625,57.12890625,-106.4453125,3.90625,0.0
1676925209.9736722,105.46875,104.4921875,-109.86328125,-14.16015625,0.0
1676925209.9774203,59.08203125,110.3515625,-104.4921875,-19.53125,0.0
1676925209.9811685,61.5234375,69.3359375,-100.09765625,-1.46484375,0.0
1676925209.9849167,83.984375,42.48046875,-101.07421875,3.90625,0.0
1676925209.9886646,68.359375,71.77734375,-100.09765625,-11.23046875,0.0
1676925209.9924128,30.76171875,120.60546875,-99.12109375,-24.90234375,0.0
1676925209.996161,30.76171875,45.41015625,-98.6328125,-0.48828125,0.0
1676925209.999909,78.125,16.11328125,-102.05078125,18.5546875,0.0
1676925210.003657,128.41796875,135.25390625,-98.6328125,0.9765625,0.0
1676925210.0074053,81.54296875,113.28125,-95.703125,-20.5078125,0.0
1676925210.0112338,37.109375,43.9453125,-102.05078125,-19.04296875,0.0
1676925210.0150623,91.30859375,75.1953125,-104.00390625,-5.37109375,0.0
1676925210.0188909,141.6015625,121.09375,-97.65625,-13.671875,0.0
1676925210.0227194,87.40234375,79.58984375,-97.65625,-24.90234375,0.0
1676925210.026548,34.1796875,39.55078125,-95.703125,-13.18359375,0.0
1676925210.0303764,53.7109375,39.0625,-89.35546875,-0.48828125,0.0
1676925210.034205,107.421875,85.44921875,-79.1015625,8.30078125,0.0
1676925210.0380335,94.7265625,93.26171875,-81.54296875,2.9296875,0.0
1676925210.041862,22.4609375,18.5546875,-87.890625,9.27734375,0.0
1676925210.0456905,59.5703125,70.3125,-84.9609375,22.4609375,0.0
1676925210.049519,147.94921875,144.04296875,-84.9609375,20.99609375,0.0
1676925210.0533476,153.3203125,88.8671875,-85.9375,19.53125,0.0
1676925210.0570211,112.3046875,69.82421875,-87.890625,6.8359375,0.0
1676925210.060695,119.62890625,105.95703125,-83.984375,2.9296875,0.0
1676925210.0643687,169.43359375,100.09765625,-81.54296875,15.625,0.0
1676925210.0680423,166.015625,44.43359375,-86.42578125,11.71875,0.0
1676925210.0717158,100.5859375,23.92578125,-84.47265625,-3.90625,0.0
1676925210.0753896,63.4765625,41.015625,-83.984375,-4.39453125,0.0
1676925210.0790634,123.046875,83.0078125,-87.890625,6.8359375,0.0
1676925210.082737,166.50390625,45.41015625,-86.9140625,30.2734375,0.0
1676925210.0864105,93.26171875,-30.2734375,-92.28515625,39.55078125,0.0
1676925210.0900843,74.21875,89.35546875,-93.26171875,7.32421875,0.0
1676925210.093758,127.9296875,111.81640625,-82.03125,15.625,0.0
1676925210.0974317,171.38671875,54.6875,-79.1015625,33.203125,0.0
1676925210.101172,156.25,60.546875,-80.56640625,6.8359375,0.0
1676925210.1049123,111.328125,66.40625,-78.125,-8.7890625,0.0
1676925210.1086526,114.2578125,42.96875,-77.1484375,5.37109375,0.0
1676925210.112393,152.34375,22.94921875,-75.68359375,18.06640625,0.0
1676925210.1161332,143.06640625,5.859375,-80.078125,10.25390625,0.0
1676925210.1198735,74.21875,-36.1328125,-82.03125,9.27734375,0.0
1676925210.123614,61.5234375,-42.96875,-83.0078125,18.5546875,0.0
1676925210.1273544,79.1015625,-112.79296875,-86.42578125,33.69140625,0.0
1676925210.1310947,97.65625,-81.54296875,-86.9140625,33.69140625,0.0
1676925210.134835,94.23828125,21.484375,-83.984375,12.6953125,0.0
1676925210.1385753,55.6640625,-46.38671875,-85.44921875,16.6015625,0.0
1676925210.1423156,88.37890625,-79.58984375,-85.9375,29.78515625,0.0
1676925210.1460924,146.97265625,-46.38671875,-86.42578125,28.3203125,0.0
1676925210.1498692,109.86328125,-42.96875,-89.84375,13.671875,0.0
1676925210.153646,45.41015625,-86.9140625,-85.44921875,16.6015625,0.0
1676925210.1574228,66.40625,-83.49609375,-80.56640625,21.97265625,0.0
1676925210.1611996,116.2109375,-55.6640625,-78.61328125,19.04296875,0.0
1676925210.1649764,92.28515625,-90.8203125,-79.58984375,17.578125,0.0
1676925210.1687531,13.18359375,-150.87890625,-83.0078125,16.6015625,0.0
1676925210.17253,8.30078125,-144.53125,-84.9609375,13.18359375,0.0
1676925210.1763067,83.984375,-43.9453125,-85.9375,-3.90625,0.0
1676925210.1800835,88.37890625,-66.89453125,-86.9140625,-12.6953125,0.0
1676925210.1838603,19.04296875,-141.6015625,-88.8671875,-25.390625,0.0
1676925210.187637,-4.39453125,-157.2265625,-94.23828125,-31.73828125,0.0
1676925210.1914513,69.3359375,-97.65625,-95.21484375,-26.85546875,0.0
1676925210.1952653,118.1640625,-86.9140625,-92.7734375,-25.390625,0.0
1676925210.1990795,49.8046875,-148.92578125,-98.14453125,-21.97265625,0.0
1676925210.2028935,17.578125,-126.953125,-102.05078125,-22.94921875,0.0
1676925210.2067077,65.91796875,-111.81640625,-103.02734375,-20.99609375,0.0
1676925210.2105217,91.796875,-161.1328125,-98.14453125,-6.34765625,0.0
1676925210.214336,27.83203125,-234.375,-90.8203125,17.578125,0.0
1676925210.2181501,-4.39453125,-191.89453125,-91.796875,20.5078125,0.0
1676925210.2219641,67.87109375,-136.23046875,-96.6796875,11.71875,0.0
1676925210.2257783,125.9765625,-210.9375,-93.75,28.80859375,0.0
1676925210.2295923,124.51171875,-237.3046875,-92.7734375,26.85546875,0.0
1676925210.2334065,88.37890625,-224.609375,-98.6328125,4.8828125,0.0
1676925210.2370806,98.6328125,-246.09375,-100.5859375,6.8359375,0.0
1676925210.2407546,138.671875,-298.33984375,-100.09765625,14.16015625,0.0
1676925210.2444289,135.7421875,-328.125,-100.09765625,8.30078125,0.0
1676925210.248103,100.09765625,-283.69140625,-98.6328125,-3.41796875,0.0
1676925210.251777,96.6796875,-257.32421875,-93.75,-5.859375,0.0
1676925210.2554512,121.09375,-341.30859375,-95.703125,10.7421875,0.0
1676925210.2591252,119.140625,-394.04296875,-100.5859375,22.94921875,0.0
1676925210.2627993,101.07421875,-254.39453125,-97.65625,5.37109375,0.0
1676925210.2664733,91.30859375,-209.9609375,-96.6796875,-4.39453125,0.0
1676925210.2701473,113.76953125,-275.87890625,-100.09765625,8.7890625,0.0
1676925210.2738216,153.3203125,-251.953125,-97.65625,11.71875,0.0
1676925210.2774956,141.6015625,-218.75,-98.14453125,-3.41796875,0.0
1676925210.2824676,94.7265625,-238.76953125,-101.07421875,-12.20703125,0.0
1676925210.2874398,93.75,-243.65234375,-99.12109375,-0.9765625,0.0
1676925210.2924118,136.71875,-192.3828125,-102.05078125,7.8125,0.0
1676925210.2973838,135.25390625,-156.25,-107.421875,-4.8828125,0.0
1676925210.302356,77.63671875,-161.1328125,-107.421875,-16.6015625,0.0
1676925210.307328,62.01171875,-173.828125,-106.93359375,-0.9765625,0.0
1676925210.3123,115.72265625,-159.1796875,-110.3515625,-0.48828125,0.0
1676925210.3172722,148.4375,-126.46484375,-106.93359375,-13.671875,0.0
1676925210.3222442,114.2578125,-113.28125,-97.16796875,-8.30078125,0.0
1676925210.3272161,70.3125,-196.2890625,-95.21484375,17.578125,0.0
1676925210.3321884,116.2109375,-144.04296875,-97.65625,26.85546875,0.0
1676925210.3371603,177.734375,-28.3203125,-93.26171875,19.53125,0.0
1676925210.3409336,125.0,-69.82421875,-89.35546875,6.8359375,0.0
1676925210.3447068,83.984375,-84.47265625,-92.7734375,2.44140625,0.0
1676925210.3484797,128.41796875,-41.50390625,-95.21484375,8.30078125,0.0
1676925210.352253,180.17578125,-34.66796875,-96.19140625,14.6484375,0.0
1676925210.3560262,145.5078125,-79.1015625,-102.5390625,4.39453125,0.0
1676925210.3597994,80.56640625,-114.2578125,-107.91015625,-7.32421875,0.0
1676925210.3635726,90.8203125,-70.3125,-111.328125,-5.37109375,0.0
1676925210.3673458,142.578125,-20.99609375,-112.79296875,-2.9296875,0.0
1676925210.371119,123.53515625,-101.07421875,-117.67578125,-2.44140625,0.0
1676925210.374892,58.10546875,-153.3203125,-118.1640625,-8.7890625,0.0
1676925210.3786652,83.984375,-38.0859375,-114.74609375,-20.99609375,0.0
1676925210.3824384,144.04296875,-4.39453125,-117.1875,-20.99609375,0.0
1676925210.3861868,148.92578125,-82.51953125,-113.76953125,-8.30078125,0.0
1676925210.3899355,117.67578125,-57.12890625,-108.3984375,-3.41796875,0.0
1676925210.393684,122.55859375,-4.8828125,-106.4453125,3.41796875,0.0
1676925210.3974323,150.87890625,-41.50390625,-107.91015625,9.765625,0.0
1676925210.401181,169.921875,-67.3828125,-104.98046875,9.765625,0.0
1676925210.4049294,140.625,-85.44921875,-104.4921875,7.8125,0.0
1676925210.4086778,100.5859375,-64.453125,-108.3984375,-0.9765625,0.0
1676925210.4124265,125.9765625,-36.62109375,-105.46875,2.9296875,0.0
1676925210.416175,157.71484375,-105.46875,-106.4453125,23.92578125,0.0
1676925210.4199233,146.484375,-61.03515625,-103.515625,13.18359375,0.0
1676925210.423672,108.88671875,6.34765625,-104.4921875,-7.32421875,0.0
1676925210.4274204,95.703125,-50.29296875,-107.91015625,14.16015625,0.0
1676925210.4311717,141.11328125,-63.96484375,-103.515625,24.90234375,0.0
1676925210.4349232,143.5546875,-61.03515625,-109.375,12.20703125,0.0
1676925210.4386744,109.86328125,-49.8046875,-110.83984375,3.90625,0.0
1676925210.442426,101.5625,-69.3359375,-110.83984375,13.18359375,0.0
1676925210.4461772,141.6015625,-87.890625,-111.81640625,31.73828125,0.0
1676925210.4499288,178.22265625,-46.875,-111.328125,22.4609375,0.0
1676925210.45368,123.046875,-25.390625,-116.2109375,-5.859375,0.0
1676925210.4574313,75.68359375,-61.5234375,-108.88671875,0.0,0.0
1676925210.4611828,93.26171875,-87.890625,-102.5390625,16.11328125,0.0
1676925210.464934,142.578125,22.94921875,-103.515625,-2.44140625,0.0
1676925210.4686856,113.76953125,9.765625,-108.3984375,-20.01953125,0.0
1676925210.472437,55.6640625,-42.96875,-111.81640625,-23.92578125,0.0
1676925210.476185,84.47265625,-23.92578125,-106.4453125,-10.25390625,0.0
1676925210.4799333,149.90234375,-9.765625,-102.5390625,4.8828125,0.0
1676925210.4836817,147.94921875,-39.0625,-105.95703125,5.37109375,0.0
1676925210.4874299,91.796875,-67.3828125,-111.328125,-7.8125,0.0
1676925210.491178,104.00390625,-52.24609375,-107.91015625,-2.44140625,0.0
1676925210.4949265,157.71484375,-62.5,-106.4453125,13.671875,0.0
1676925210.4986746,166.9921875,-63.96484375,-105.95703125,11.71875,0.0
1676925210.5024228,96.19140625,-148.4375,-102.5390625,27.34375,0.0
1676925210.506171,76.66015625,-126.46484375,-97.65625,36.1328125,0.0
1676925210.5099192,149.4140625,-1.953125,-99.12109375,15.625,0.0
1676925210.5136676,170.41015625,-52.24609375,-103.02734375,17.08984375,0.0
1676925210.5174158,128.41796875,-74.21875,-97.16796875,6.8359375,0.0
1676925210.5211673,103.515625,-34.1796875,-92.28515625,4.8828125,0.0
1676925210.524919,138.671875,-22.4609375,-97.16796875,20.5078125,0.0
1676925210.5286705,165.52734375,-72.75390625,-101.5625,30.76171875,0.0
1676925210.5324223,131.8359375,-83.984375,-102.5390625,24.90234375,0.0
1676925210.5361738,83.49609375,-56.640625,-107.91015625,13.671875,0.0
1676925210.5399256,94.7265625,-70.3125,-107.421875,21.97265625,0.0
1676925210.543677,134.27734375,-113.76953125,-105.95703125,32.2265625,0.0
1676925210.5474286,122.0703125,-109.86328125,-111.328125,25.390625,0.0
1676925210.5511804,95.703125,-23.92578125,-111.81640625,6.8359375,0.0
1676925210.5549319,105.95703125,-2.44140625,-106.4453125,16.6015625,0.0
1676925210.5586836,145.01953125,-40.0390625,-107.91015625,36.62109375,0.0
1676925210.5624352,163.57421875,-31.73828125,-116.2109375,24.90234375,0.0
1676925210.5661855,131.34765625,24.4140625,-119.140625,-2.44140625,0.0
1676925210.5699358,108.88671875,-3.90625,-122.55859375,-8.30078125,0.0
1676925210.5736861,149.4140625,-21.484375,-120.60546875,3.90625,0.0
1676925210.5774364,187.5,-2.9296875,-117.1875,7.8125,0.0
1676925210.5811868,153.3203125,-10.25390625,-113.28125,-12.6953125,0.0
1676925210.584937,98.6328125,-47.8515625,-114.2578125,-16.11328125,0.0
1676925210.5886872,90.33203125,-106.93359375,-119.140625,10.7421875,0.0
1676925210.5924375,145.5078125,-52.24609375,-113.76953125,14.6484375,0.0
1676925210.5961878,153.3203125,18.5546875,-116.2109375,-9.765625,0.0
1676925210.5999382,75.1953125,-42.96875,-123.53515625,-12.20703125,0.0
1676925210.6036885,67.3828125,-78.125,-121.09375,4.39453125,0.0
1676925210.6074388,120.1171875,-55.17578125,-117.1875,18.5546875,0.0
1676925210.6112654,114.2578125,-46.875,-117.67578125,13.18359375,0.0
1676925210.615092,39.55078125,-83.984375,-116.2109375,6.34765625,0.0
1676925210.618919,26.3671875,-87.890625,-111.328125,17.578125,0.0
1676925210.6227455,77.1484375,-22.4609375,-112.3046875,22.94921875,0.0
1676925210.6265721,81.54296875,-31.25,-114.74609375,16.11328125,0.0
1676925210.6303988,9.27734375,-127.9296875,-115.234375,11.71875,0.0
1676925210.6342254,-20.01953125,-109.86328125,-113.28125,18.06640625,0.0
1676925210.638052,33.203125,-7.32421875,-107.421875,15.625,0.0
1676925210.6418786,76.66015625,-4.39453125,-103.02734375,16.6015625,0.0
1676925210.6457055,33.203125,-90.8203125,-101.5625,16.6015625,0.0
1676925210.649532,-20.5078125,-94.23828125,-110.83984375,0.0,0.0
1676925210.6533587,21.97265625,-9.27734375,-115.72265625,-5.859375,0.0
1676925210.6582797,74.70703125,-28.80859375,-106.93359375,11.23046875,0.0
1676925210.6632006,58.10546875,-54.19921875,-108.3984375,10.7421875,0.0
1676925210.6681216,22.4609375,-33.69140625,-117.67578125,0.9765625,0.0
1676925210.6730425,31.73828125,-42.48046875,-120.60546875,4.8828125,0.0
1676925210.6779635,79.1015625,-47.36328125,-117.1875,18.5546875,0.0
1676925210.6828847,78.61328125,-122.55859375,-118.1640625,34.66796875,0.0
1676925210.6878057,43.9453125,-92.28515625,-122.55859375,21.484375,0.0
1676925210.6927266,74.21875,33.69140625,-118.1640625,3.90625,0.0
1676925210.6976476,116.2109375,-18.5546875,-119.140625,17.08984375,0.0
1676925210.7025685,138.671875,-41.015625,-120.1171875,17.578125,0.0
1676925210.7074895,113.28125,-6.34765625,-117.1875,1.46484375,0.0
1676925210.7124104,91.796875,1.46484375,-118.1640625,3.90625,0.0
1676925210.7161443,125.9765625,-38.0859375,-120.60546875,24.4140625,0.0
1676925210.7198782,161.1328125,-51.26953125,-124.0234375,20.5078125,0.0
1676925210.723612,139.6484375,-15.625,-125.9765625,0.0,0.0
1676925210.727346,97.65625,-19.53125,-123.53515625,-9.27734375,0.0
1676925210.7310798,103.02734375,-55.6640625,-123.046875,-0.9765625,0.0
1676925210.7348137,133.30078125,-75.68359375,-124.51171875,12.20703125,0.0
1676925210.7385473,136.23046875,-31.73828125,-121.09375,3.41796875,0.0
1676925210.7422812,93.26171875,-11.71875,-117.1875,-7.32421875,0.0
1676925210.746015,66.40625,-82.51953125,-117.67578125,7.8125,0.0
1676925210.749749,83.0078125,-105.46875,-121.58203125,24.90234375,0.0
1676925210.7534828,123.53515625,25.87890625,-118.65234375,12.6953125,0.0
1676925210.7572167,91.30859375,28.80859375,-117.67578125,-11.23046875,0.0
1676925210.7609844,48.33984375,-23.92578125,-125.48828125,-22.4609375,0.0
1676925210.7647524,94.23828125,2.9296875,-125.9765625,-14.6484375,0.0
1676925210.76852,134.27734375,21.484375,-120.60546875,-4.8828125,0.0
1676925210.7722878,78.61328125,-5.859375,-127.44140625,-15.13671875,0.0
1676925210.7760556,27.34375,-41.9921875,-132.32421875,-22.94921875,0.0
1676925210.7798233,50.78125,-57.12890625,-133.30078125,-4.39453125,0.0
1676925210.7835913,100.09765625,-24.4140625,-134.765625,8.7890625,0.0
1676925210.787359,90.8203125,-11.23046875,-133.7890625,7.32421875,0.0
1676925210.7911267,19.04296875,-102.5390625,-132.32421875,21.484375,0.0
1676925210.7948947,36.1328125,-58.10546875,-135.25390625,28.3203125,0.0
1676925210.7986624,100.5859375,6.34765625,-137.6953125,25.87890625,0.0
1676925210.8024302,77.1484375,-54.6875,-132.8125,30.2734375,0.0
1676925210.8061864,26.85546875,-59.08203125,-133.30078125,30.76171875,0.0
1676925210.8099427,49.8046875,6.34765625,-137.6953125,31.73828125,0.0
1676925210.8136988,104.00390625,20.5078125,-142.578125,30.76171875,0.0
1676925210.817455,106.4453125,-24.4140625,-145.5078125,34.1796875,0.0
1676925210.8212113,68.84765625,-31.25,-144.04296875,26.85546875,0.0
1676925210.8249674,57.6171875,-26.85546875,-143.06640625,27.34375,0.0
1676925210.8287237,103.02734375,-24.90234375,-143.06640625,35.15625,0.0
1676925210.83248,136.23046875,-63.96484375,-145.01953125,37.59765625,0.0
1676925210.8362362,90.33203125,-79.1015625,-147.4609375,22.4609375,0.0
1676925210.8399925,75.1953125,28.3203125,-151.85546875,-2.44140625,0.0
1676925210.8437486,118.65234375,23.92578125,-147.94921875,7.32421875,0.0
1676925210.8475049,153.3203125,-28.80859375,-150.390625,4.8828125,0.0
1676925210.8512328,137.6953125,-12.6953125,-153.3203125,-9.765625,0.0
1676925210.8549607,104.4921875,2.9296875,-151.3671875,-19.53125,0.0
1676925210.8586888,113.76953125,-28.3203125,-150.390625,-15.625,0.0
1676925210.8624167,154.78515625,-51.7578125,-150.87890625,3.90625,0.0
1676925210.8661447,180.17578125,-13.18359375,-153.80859375,-8.30078125,0.0
1676925210.8698726,141.11328125,-15.625,-156.73828125,-33.203125,0.0
1676925210.8736005,118.65234375,-35.15625,-157.71484375,-25.87890625,0.0
1676925210.8773284,166.9921875,-6.34765625,-153.80859375,-10.25390625,0.0
1676925210.8810563,201.66015625,38.0859375,-148.92578125,-4.8828125,0.0
1676925210.8847845,163.0859375,47.36328125,-144.04296875,-12.6953125,0.0
1676925210.8885124,107.421875,1.46484375,-146.97265625,-18.5546875,0.0
1676925210.8922403,117.1875,-40.52734375,-150.390625,7.32421875,0.0
1676925210.8960066,185.05859375,20.99609375,-147.4609375,25.87890625,0.0
1676925210.8997726,186.03515625,57.6171875,-149.90234375,16.6015625,0.0
1676925210.903539,138.671875,6.8359375,-151.3671875,15.13671875,0.0
1676925210.9073052,159.1796875,3.90625,-155.2734375,19.53125,0.0
1676925210.9110713,213.8671875,20.99609375,-158.69140625,31.73828125,0.0
1676925210.9148376,193.84765625,-18.5546875,-156.73828125,29.78515625,0.0
1676925210.918604,129.39453125,-63.96484375,-155.2734375,20.01953125,0.0
1676925210.92237,98.6328125,-100.09765625,-162.109375,25.87890625,0.0
1676925210.9261363,153.80859375,18.5546875,-165.52734375,7.32421875,0.0
1676925210.9299026,173.828125,54.6875,-162.109375,-10.7421875,0.0
1676925210.9336686,96.19140625,-19.53125,-158.203125,-17.578125,0.0
1676925210.937435,76.171875,-2.9296875,-153.80859375,-18.06640625,0.0
1676925210.9411817,137.20703125,36.62109375,-151.85546875,-8.7890625,0.0
1676925210.9449284,153.80859375,16.6015625,-153.80859375,-1.46484375,0.0
1676925210.9486752,91.796875,0.48828125,-155.2734375,-8.7890625,0.0
1676925210.952422,56.15234375,13.671875,-156.25,-6.8359375,0.0
1676925210.9561687,82.51953125,5.37109375,-157.2265625,1.953125,0.0
1676925210.9599154,113.28125,-23.92578125,-160.15625,15.625,0.0
1676925210.9636621,63.4765625,-74.21875,-160.15625,26.3671875,0.0
1676925210.967409,34.66796875,-18.5546875,-155.2734375,16.6015625,0.0
1676925210.9711556,90.33203125,49.8046875,-149.90234375,14.6484375,0.0
1676925210.9749024,139.6484375,-2.44140625,-153.3203125,21.484375,0.0
1676925210.9786491,135.7421875,-17.08984375,-159.1796875,12.6953125,0.0
1676925210.982396,110.3515625,19.53125,-152.83203125,2.44140625,0.0
1676925210.9862542,129.8828125,36.1328125,-145.01953125,12.6953125,0.0
1676925210.9901125,165.52734375,-16.6015625,-143.5546875,24.4140625,0.0
1676925210.9939709,164.55078125,-43.45703125,-142.08984375,21.484375,0.0
1676925210.9978292,104.00390625,7.32421875,-138.18359375,8.7890625,0.0
1676925211.0016875,59.5703125,0.0,-140.625,5.859375,0.0
1676925211.0055456,80.56640625,-83.49609375,-150.390625,17.578125,0.0
1676925211.009404,116.2109375,-82.51953125,-151.3671875,19.04296875,0.0
1676925211.0132623,111.328125,-1.46484375,-152.83203125,-8.7890625,0.0
1676925211.0171206,81.0546875,-5.859375,-158.203125,-20.01953125,0.0
1676925211.020979,81.0546875,-70.3125,-162.59765625,-3.41796875,0.0
1676925211.0248373,116.69921875,-81.54296875,-163.57421875,3.90625,0.0
1676925211.0286956,113.76953125,-20.5078125,-160.15625,-10.7421875,0.0
1676925211.033623,62.98828125,-29.78515625,-156.25,-17.578125,0.0
1676925211.0385504,69.82421875,-60.546875,-153.80859375,-4.39453125,0.0
1676925211.0434775,122.55859375,-26.85546875,-149.90234375,-2.44140625,0.0
1676925211.048405,129.39453125,-6.34765625,-148.4375,-7.32421875,0.0
1676925211.0533323,68.359375,-22.4609375,-148.4375,-15.13671875,0.0
1676925211.0582595,20.99609375,-131.34765625,-146.484375,8.7890625,0.0
1676925211.063187,64.453125,-109.375,-151.85546875,23.4375,0.0
1676925211.0681143,130.37109375,28.3203125,-152.83203125,5.859375,0.0
1676925211.0730417,88.8671875,-12.20703125,-145.99609375,8.7890625,0.0
1676925211.077969,49.8046875,-46.38671875,-144.53125,16.11328125,0.0
1676925211.0828962,100.5859375,-12.20703125,-141.6015625,32.2265625,0.0
1676925211.0878236,150.87890625,2.44140625,-137.20703125,40.52734375,0.0
1676925211.091541,113.28125,-40.52734375,-135.25390625,29.296875,0.0
1676925211.0952585,62.01171875,-62.5,-136.23046875,16.6015625,0.0
1676925211.098976,90.8203125,-18.5546875,-142.08984375,11.23046875,0.0
1676925211.1026933,150.87890625,-10.25390625,-144.04296875,15.13671875,0.0
1676925211.1064107,128.41796875,-64.453125,-144.04296875,28.80859375,0.0
1676925211.1101282,65.4296875,-91.796875,-146.484375,31.73828125,0.0
1676925211.1138456,70.3125,-55.6640625,-149.90234375,29.296875,0.0
1676925211.117563,132.8125,-7.32421875,-152.34375,24.4140625,0.0
1676925211.1212804,134.27734375,-81.0546875,-149.90234375,20.01953125,0.0
1676925211.1249979,64.453125,-130.859375,-145.5078125,20.01953125,0.0
1676925211.1287153,76.171875,5.37109375,-143.06640625,3.90625,0.0
1676925211.1324327,130.859375,2.9296875,-142.08984375,9.27734375,0.0
1676925211.136178,150.390625,-38.0859375,-143.5546875,15.625,0.0
1676925211.1399236,110.83984375,-12.20703125,-147.94921875,-2.9296875,0.0
1676925211.143669,70.3125,0.48828125,-148.92578125,1.953125,0.0
1676925211.1474144,93.75,-10.25390625,-145.99609375,18.5546875,0.0
1676925211.1511598,125.9765625,-20.01953125,-146.97265625,20.99609375,0.0
1676925211.1549053,72.75390625,-42.48046875,-150.390625,8.30078125,0.0
1676925211.1586506,15.625,-22.94921875,-149.4140625,-5.859375,0.0
1676925211.162396,41.50390625,5.37109375,-147.4609375,-11.23046875,0.0
1676925211.1661415,68.84765625,-111.328125,-144.53125,21.97265625,0.0
1676925211.1698868,79.1015625,-90.33203125,-140.625,26.3671875,0.0
1676925211.1736324,71.2890625,17.578125,-145.01953125,-10.7421875,0.0
1676925211.1773777,66.40625,-59.08203125,-138.671875,7.8125,0.0
1676925211.1811323,119.140625,-104.4921875,-135.7421875,23.4375,0.0
1676925211.184887,144.04296875,-82.51953125,-144.04296875,11.23046875,0.0
1676925211.1886413,90.8203125,-90.33203125,-152.34375,-4.8828125,0.0
1676925211.192396,62.01171875,-139.16015625,-152.34375,0.0,0.0
1676925211.1961505,108.88671875,-152.34375,-154.296875,9.765625,0.0
1676925211.199905,134.765625,-159.66796875,-154.78515625,10.7421875,0.0
1676925211.2036595,95.21484375,-145.99609375,-148.92578125,-3.41796875,0.0
1676925211.2074142,51.26953125,-183.10546875,-149.90234375,-2.44140625,0.0
1676925211.2111688,66.89453125,-219.23828125,-151.3671875,8.7890625,0.0
1676925211.2149234,138.18359375,-113.76953125,-151.3671875,-7.8125,0.0
1676925211.2186778,121.58203125,-109.375,-151.85546875,-8.30078125,0.0
1676925211.2224324,50.29296875,-166.015625,-149.4140625,4.39453125,0.0
1676925211.2263193,62.5,-174.8046875,-156.73828125,8.7890625,0.0
1676925211.2302065,133.7890625,-118.1640625,-162.109375,10.25390625,0.0
1676925211.2340934,125.9765625,-123.046875,-161.1328125,4.8828125,0.0
1676925211.2379806,40.52734375,-179.6875,-165.0390625,-4.8828125,0.0
1676925211.2418675,36.1328125,-152.83203125,-167.96875,-1.953125,0.0
1676925211.2457547,93.75,-140.625,-163.57421875,8.30078125,0.0
1676925211.2496417,105.46875,-144.04296875,-155.76171875,-0.48828125,0.0
1676925211.2535286,34.1796875,-189.453125,-153.3203125,-7.8125,0.0
1676925211.2574158,14.16015625,-141.11328125,-151.85546875,-14.16015625,0.0
1676925211.2613027,92.7734375,-57.6171875,-146.97265625,-13.18359375,0.0
1676925211.26519,121.09375,-107.421875,-146.484375,-0.48828125,0.0
1676925211.2690768,77.1484375,-117.67578125,-152.83203125,-14.16015625,0.0
1676925211.2726884,44.921875,-84.47265625,-154.296875,-21.97265625,0.0
1676925211.2762997,79.1015625,-72.75390625,-148.92578125,-9.27734375,0.0
1676925211.2799113,118.1640625,-99.12109375,-146.97265625,-0.9765625,0.0
1676925211.2835226,75.1953125,-131.8359375,-147.94921875,-5.859375,0.0
1676925211.2871342,30.2734375,-98.14453125,-143.5546875,-8.30078125,0.0
1676925211.2907457,47.36328125,-75.68359375,-141.6015625,-1.46484375,0.0
1676925211.294357,77.63671875,-109.375,-143.5546875,-3.90625,0.0
1676925211.2979686,48.33984375,-183.10546875,-146.484375,4.8828125,0.0
1676925211.30158,30.76171875,-70.80078125,-145.01953125,-7.8125,0.0
1676925211.3051915,54.19921875,20.5078125,-143.06640625,-19.53125,0.0
1676925211.3088028,72.265625,-33.69140625,-146.97265625,-2.9296875,0.0
1676925211.3124144,96.19140625,-21.97265625,-147.4609375,-3.41796875,0.0
1676925211.3161666,65.4296875,-9.765625,-147.94921875,-10.25390625,0.0
1676925211.3199189,41.50390625,-33.203125,-142.578125,-3.90625,0.0
1676925211.3236709,83.984375,-41.9921875,-140.13671875,11.71875,0.0
1676925211.327423,128.41796875,-14.16015625,-144.53125,20.99609375,0.0
1676925211.3311753,104.98046875,-20.99609375,-142.08984375,7.8125,0.0
1676925211.3349276,60.546875,-59.08203125,-141.11328125,1.953125,0.0
1676925211.3386798,52.24609375,-132.32421875,-139.16015625,22.4609375,0.0
1676925211.342432,95.21484375,-89.84375,-138.18359375,26.85546875,0.0
1676925211.3461843,125.48828125,30.2734375,-136.23046875,9.27734375,0.0
1676925211.3499362,70.3125,-17.578125,-142.578125,0.48828125,0.0
1676925211.3536885,57.6171875,-58.10546875,-142.578125,0.9765625,0.0
1676925211.3574407,120.60546875,-10.7421875,-137.20703125,2.9296875,0.0
1676925211.3611956,139.16015625,9.27734375,-136.71875,4.39453125,0.0
1676925211.3649504,79.58984375,-25.390625,-132.8125,-1.953125,0.0
1676925211.3687053,63.4765625,-36.1328125,-135.25390625,-2.44140625,0.0
1676925211.3724601,123.046875,17.08984375,-136.23046875,4.39453125,0.0
1676925211.376215,158.203125,16.6015625,-142.578125,3.41796875,0.0
1676925211.3799698,97.65625,-78.125,-153.3203125,3.90625,0.0
1676925211.3837247,49.8046875,-74.70703125,-148.92578125,8.30078125,0.0
1676925211.3874795,122.0703125,43.45703125,-140.625,11.71875,0.0
1676925211.3912344,165.0390625,31.73828125,-137.20703125,12.20703125,0.0
1676925211.3949893,107.421875,-32.71484375,-142.08984375,-0.48828125,0.0
1676925211.398744,49.8046875,-42.96875,-143.5546875,-8.30078125,0.0
1676925211.402499,77.1484375,-9.27734375,-141.11328125,-0.48828125,0.0
1676925211.407493,143.5546875,12.20703125,-138.18359375,5.859375,0.0
1676925211.412487,131.34765625,-45.41015625,-140.625,6.34765625,0.0
1676925211.4174812,83.49609375,-27.34375,-138.18359375,1.46484375,0.0
1676925211.422475,92.28515625,25.390625,-140.13671875,-3.90625,0.0
1676925211.4274693,136.23046875,-1.953125,-149.90234375,0.9765625,0.0
1676925211.4324632,135.7421875,-45.8984375,-147.4609375,2.9296875,0.0
1676925211.4374573,91.30859375,-16.6015625,-146.484375,-4.39453125,0.0
1676925211.4424515,81.0546875,30.76171875,-147.94921875,-8.7890625,0.0
1676925211.4474454,116.2109375,-8.7890625,-141.11328125,5.859375,0.0
1676925211.4524395,138.18359375,-50.78125,-134.27734375,20.99609375,0.0
1676925211.4574335,108.88671875,-13.671875,-137.6953125,-1.953125,0.0
1676925211.4624276,76.66015625,4.8828125,-138.671875,-8.7890625,0.0
1676925211.466178,85.9375,-29.78515625,-138.671875,10.7421875,0.0
1676925211.4699283,129.8828125,-33.203125,-140.625,14.6484375,0.0
1676925211.4736784,113.28125,-35.15625,-142.578125,11.71875,0.0
1676925211.4774287,65.91796875,-30.76171875,-139.16015625,5.859375,0.0
1676925211.481179,86.42578125,-53.22265625,-135.25390625,15.13671875,0.0
1676925211.484929,122.55859375,-110.3515625,-135.25390625,25.390625,0.0
1676925211.4886794,123.046875,-65.4296875,-131.8359375,3.90625,0.0
1676925211.4924297,83.984375,-20.5078125,-128.90625,-11.71875,0.0
1676925211.49618,52.24609375,-104.4921875,-131.8359375,-0.48828125,0.0
1676925211.4999304,80.56640625,-133.30078125,-134.765625,15.13671875,0.0
1676925211.5036805,124.0234375,-10.7421875,-138.18359375,-3.90625,0.0
1676925211.5074308,88.8671875,-21.97265625,-140.13671875,-7.32421875,0.0
1676925211.511181,61.03515625,-58.10546875,-142.578125,-0.9765625,0.0
1676925211.5149312,106.4453125,-31.73828125,-144.04296875,-5.859375,0.0
1676925211.5186815,156.73828125,-16.6015625,-134.27734375,-0.9765625,0.0
1676925211.5224316,138.671875,-31.25,-131.8359375,5.37109375,0.0
1676925211.526182,89.35546875,-57.12890625,-133.7890625,10.25390625,0.0
1676925211.529932,88.37890625,-60.546875,-132.8125,12.20703125,0.0
1676925211.5336823,129.8828125,-51.26953125,-137.6953125,14.16015625,0.0
1676925211.5374327,121.09375,-44.43359375,-138.671875,2.44140625,0.0
1676925211.5411828,47.8515625,-131.8359375,-140.625,8.30078125,0.0
1676925211.544933,59.5703125,-105.95703125,-144.04296875,22.94921875,0.0
1676925211.5486832,148.92578125,17.08984375,-145.5078125,18.06640625,0.0
1676925211.5524335,152.83203125,-24.90234375,-146.484375,17.578125,0.0
1676925211.5561836,91.796875,-41.015625,-143.06640625,5.37109375,0.0
1676925211.5599337,76.171875,-1.953125,-136.23046875,8.7890625,0.0
1676925211.5636835,117.1875,9.27734375,-137.20703125,12.6953125,0.0
1676925211.5674336,108.3984375,-35.64453125,-136.71875,0.9765625,0.0
1676925211.5711837,48.828125,-53.22265625,-126.953125,-11.23046875,0.0
1676925211.5749338,17.08984375,-45.41015625,-125.0,-5.859375,0.0
1676925211.5786839,59.08203125,-10.25390625,-123.046875,12.20703125,0.0
1676925211.582434,94.23828125,-58.10546875,-125.9765625,25.390625,0.0
1676925211.586184,41.50390625,-113.76953125,-131.34765625,24.90234375,0.0
1676925211.5899339,10.7421875,-18.5546875,-135.7421875,17.08984375,0.0
1676925211.593684,43.45703125,-9.27734375,-140.13671875,22.94921875,0.0
1676925211.597434,85.44921875,-49.31640625,-140.13671875,37.59765625,0.0
1676925211.6011915,74.21875,-36.1328125,-138.671875,35.64453125,0.0
1676925211.6049488,29.296875,-2.44140625,-125.48828125,18.06640625,0.0
1676925211.608706,20.01953125,-28.80859375,-118.65234375,9.765625,0.0
1676925211.6124635,56.640625,-38.0859375,-119.140625,17.08984375,0.0
1676925211.616221,62.01171875,-24.90234375,-119.62890625,20.01953125,0.0
1676925211.6199782,-0.9765625,-49.8046875,-122.55859375,12.20703125,0.0
1676925211.6237354,-29.296875,-52.24609375,-123.53515625,17.578125,0.0
1676925211.627493,-4.39453125,-65.91796875,-126.46484375,41.015625,0.0
1676925211.6312504,36.62109375,-6.34765625,-124.51171875,45.41015625,0.0
1676925211.6350076,20.5078125,54.6875,-124.51171875,22.94921875,0.0
1676925211.6387649,-32.2265625,-2.44140625,-131.8359375,27.83203125,0.0
1676925211.6425223,-11.23046875,-22.4609375,-133.30078125,46.875,0.0
1676925211.6463408,53.22265625,25.87890625,-128.90625,45.8984375,0.0
1676925211.6501596,36.62109375,16.11328125,-127.9296875,33.69140625,0.0
1676925211.6539783,-29.296875,-41.50390625,-135.7421875,25.87890625,0.0
1676925211.6577969,-19.04296875,-41.015625,-136.23046875,23.4375,0.0
1676925211.6616154,61.03515625,28.3203125,-123.046875,31.73828125,0.0
1676925211.6654341,68.359375,9.27734375,-127.9296875,24.4140625,0.0
1676925211.6692529,-5.859375,-65.91796875,-138.671875,11.23046875,0.0
1676925211.6730714,-11.23046875,-46.38671875,-135.7421875,25.87890625,0.0
1676925211.67689,70.80078125,71.77734375,-130.859375,24.4140625,0.0
1676925211.6807086,99.609375,66.89453125,-135.25390625,14.6484375,0.0
1676925211.6845274,33.69140625,9.765625,-140.13671875,2.44140625,0.0
1676925211.688346,12.20703125,14.6484375,-135.7421875,-6.8359375,0.0
1676925211.692017,65.91796875,34.66796875,-132.8125,4.39453125,0.0
1676925211.695688,92.7734375,-5.859375,-134.765625,13.671875,0.0
1676925211.699359,49.31640625,-37.59765625,-139.6484375,-6.8359375,0.0
1676925211.70303,31.25,-9.27734375,-133.30078125,-7.32421875,0.0
1676925211.7067013,55.17578125,-17.08984375,-134.27734375,14.16015625,0.0
1676925211.7103722,90.8203125,-22.4609375,-140.625,20.01953125,0.0
1676925211.7140431,71.2890625,-89.84375,-142.08984375,39.0625,0.0
1676925211.7177143,23.92578125,-64.94140625,-140.625,28.80859375,0.0
1676925211.7213855,62.5,70.80078125,-136.71875,-0.9765625,0.0
1676925211.7250564,106.4453125,24.4140625,-134.765625,13.671875,0.0
1676925211.7287273,99.12109375,-4.39453125,-131.8359375,14.6484375,0.0
1676925211.7323985,58.59375,19.53125,-128.90625,-12.20703125,0.0
1676925211.7361507,56.15234375,15.13671875,-127.44140625,-13.671875,0.0
1676925211.739903,108.88671875,-27.34375,-132.32421875,10.25390625,0.0
1676925211.7436552,138.671875,-37.59765625,-139.6484375,18.06640625,0.0
1676925211.7474072,115.234375,20.01953125,-138.18359375,15.13671875,0.0
1676925211.7511594,95.21484375,18.06640625,-140.625,18.5546875,0.0
1676925211.7549117,114.74609375,-69.3359375,-147.4609375,38.57421875,0.0
1676925211.758664,155.76171875,-58.10546875,-139.16015625,46.875,0.0
1676925211.7624161,145.99609375,37.59765625,-130.859375,19.53125,0.0
1676925211.766168,95.703125,9.765625,-137.20703125,0.9765625,0.0
1676925211.7699203,92.7734375,-74.21875,-138.671875,8.7890625,0.0
1676925211.7736726,128.90625,-61.03515625,-128.41796875,16.6015625,0.0
1676925211.7774248,140.625,45.41015625,-128.41796875,-13.671875,0.0
1676925211.7824254,86.9140625,18.5546875,-129.39453125,-24.4140625,0.0
1676925211.787426,76.171875,-12.20703125,-126.46484375,-9.765625,0.0
1676925211.7924263,128.90625,11.71875,-134.765625,-2.44140625,0.0
1676925211.797427,149.4140625,22.94921875,-127.9296875,0.48828125,0.0
1676925211.8024275,100.5859375,-0.9765625,-123.046875,0.9765625,0.0
1676925211.807428,72.75390625,-50.29296875,-125.9765625,17.578125,0.0
1676925211.8124285,116.2109375,-20.01953125,-123.53515625,24.90234375,0.0
1676925211.817429,166.9921875,39.0625,-120.1171875,14.16015625,0.0
1676925211.8224297,130.859375,-3.41796875,-119.62890625,-3.90625,0.0
1676925211.8274302,76.171875,-59.08203125,-120.1171875,-2.44140625,0.0
1676925211.8324306,108.88671875,3.41796875,-117.1875,2.9296875,0.0
1676925211.8374312,141.11328125,30.76171875,-117.67578125,-6.34765625,0.0
1676925211.8411705,91.796875,-30.76171875,-119.62890625,-13.671875,0.0
1676925211.84491,41.9921875,-24.4140625,-121.58203125,-13.18359375,0.0
1676925211.8486495,76.66015625,38.57421875,-125.48828125,-1.953125,0.0
1676925211.8523889,149.4140625,44.921875,-126.953125,10.25390625,0.0
1676925211.8561282,142.578125,-4.39453125,-132.32421875,5.37109375,0.0
1676925211.8598676,85.44921875,-36.62109375,-134.27734375,-1.46484375,0.0
1676925211.863607,102.5390625,11.23046875,-125.9765625,9.765625,0.0
1676925211.8673463,159.1796875,67.3828125,-115.72265625,18.5546875,0.0
1676925211.8710856,141.6015625,-24.4140625,-116.2109375,15.13671875,0.0
1676925211.8748252,72.75390625,-56.640625,-123.046875,2.9296875,0.0
1676925211.8785646,75.1953125,53.22265625,-116.69921875,0.0,0.0
1676925211.882304,124.0234375,43.9453125,-114.2578125,20.01953125,0.0
1676925211.8860548,151.3671875,18.06640625,-123.53515625,18.06640625,0.0
1676925211.8898053,125.9765625,34.1796875,-125.9765625,3.90625,0.0
1676925211.893556,100.5859375,44.43359375,-122.55859375,0.48828125,0.0
1676925211.897307,124.51171875,7.32421875,-123.53515625,6.34765625,0.0
1676925211.9010577,154.296875,-37.59765625,-125.0,20.01953125,0.0
1676925211.9048085,127.9296875,-33.203125,-127.9296875,4.8828125,0.0
1676925211.908559,91.30859375,11.23046875,-130.859375,-19.53125,0.0
1676925211.91231,109.375,11.23046875,-124.0234375,-3.90625,0.0
1676925211.9160607,127.44140625,-86.42578125,-122.0703125,28.3203125,0.0
1676925211.9198112,135.25390625,-42.48046875,-121.58203125,29.296875,0.0
1676925211.923562,112.3046875,42.96875,-119.62890625,8.30078125,0.0
1676925211.9273129,91.796875,-9.765625,-122.55859375,12.6953125,0.0
1676925211.931073,130.859375,-24.4140625,-125.48828125,23.92578125,0.0
1676925211.934833,160.15625,20.99609375,-123.53515625,16.11328125,0.0
1676925211.9385931,114.74609375,23.4375,-119.62890625,-6.8359375,0.0
1676925211.9423532,63.4765625,-18.5546875,-121.09375,-6.8359375,0.0
1676925211.9461133,93.75,-28.80859375,-120.1171875,-0.48828125,0.0
1676925211.9498734,131.34765625,-26.3671875,-112.79296875,3.41796875,0.0
1676925211.9536335,103.02734375,0.0,-107.91015625,-9.765625,0.0
1676925211.9573936,61.5234375,-39.55078125,-113.28125,-15.625,0.0
1676925211.9611537,65.91796875,-94.23828125,-113.76953125,6.8359375,0.0
1676925211.9649138,144.04296875,27.83203125,-109.86328125,2.44140625,0.0
1676925211.968674,148.92578125,58.10546875,-117.1875,-1.46484375,0.0
1676925211.972434,95.21484375,-4.8828125,-119.62890625,0.0,0.0
1676925211.9761841,105.95703125,9.765625,-114.74609375,9.765625,0.0
1676925211.9799342,155.76171875,30.2734375,-114.2578125,17.08984375,0.0
1676925211.9836845,156.73828125,5.859375,-112.3046875,9.765625,0.0
1676925211.9874346,80.56640625,-28.80859375,-112.3046875,-3.90625,0.0
1676925211.9911847,55.6640625,-18.5546875,-103.515625,0.9765625,0.0
1676925211.994935,96.19140625,-14.16015625,-100.09765625,13.671875,0.0
1676925211.9986851,119.62890625,-19.53125,-104.98046875,9.765625,0.0
1676925212.0024352,64.94140625,-62.5,-106.93359375,5.37109375,0.0
1676925212.0061853,40.52734375,-18.5546875,-107.91015625,-6.34765625,0.0
1676925212.0099354,102.05078125,57.12890625,-105.46875,-11.71875,0.0
1676925212.0136857,134.27734375,-15.13671875,-106.4453125,-9.27734375,0.0
1676925212.0174358,105.95703125,-39.0625,-107.91015625,-30.2734375,0.0
1676925212.0212178,77.1484375,14.16015625,-106.93359375,-34.1796875,0.0
1676925212.025,110.3515625,28.80859375,-107.91015625,-17.578125,0.0
1676925212.0287824,162.109375,-18.5546875,-113.28125,-4.8828125,0.0
1676925212.0325644,146.484375,-35.15625,-114.74609375,-3.90625,0.0
1676925212.0363464,97.16796875,5.859375,-110.3515625,-8.30078125,0.0
1676925212.0401287,95.21484375,-16.11328125,-112.3046875,4.8828125,0.0
1676925212.043911,138.18359375,-58.59375,-110.83984375,33.69140625,0.0
