timestamps,TP9,Fp1,Fp2,TP10,stim
1676922047.5547535,-291.9921875,-727.05078125,-562.98828125,-340.8203125,0.0
1676922047.5584984,-313.96484375,-879.39453125,-775.390625,-258.30078125,0.0
1676922047.5622435,-337.890625,-260.7421875,-184.5703125,-250.48828125,0.0
1676922047.5659883,-297.36328125,-70.3125,61.5234375,-250.48828125,0.0
1676922047.5697386,-232.91015625,-263.18359375,-99.609375,-272.4609375,0.0
1676922047.5734892,-213.37890625,-148.92578125,-6.8359375,-211.9140625,0.0
1676922047.5772395,-242.1875,7.8125,126.953125,-155.2734375,0.0
1676922047.5809898,-207.03125,-104.4921875,38.57421875,-193.84765625,0.0
1676922047.5847402,-141.6015625,-276.85546875,-80.56640625,-192.87109375,0.0
1676922047.5884905,-157.2265625,-375.0,-154.296875,-137.6953125,0.0
1676922047.592241,-187.98828125,-447.265625,-217.7734375,-103.02734375,0.0
1676922047.5959914,-161.1328125,-458.984375,-213.37890625,-104.98046875,0.0
1676922047.5997417,-118.65234375,-712.890625,-445.3125,-136.23046875,0.0
1676922047.6034923,-101.5625,-432.12890625,-241.2109375,-134.27734375,0.0
1676922047.6072426,-123.53515625,-156.25,2.9296875,-55.17578125,0.0
1676922047.610993,-151.3671875,-473.6328125,-245.60546875,-32.2265625,0.0
1676922047.6147375,-111.81640625,-481.93359375,-267.08984375,-91.30859375,0.0
1676922047.6184819,-90.33203125,0.9765625,100.5859375,-91.30859375,0.0
1676922047.6222265,-113.76953125,113.76953125,212.890625,-42.96875,0.0
1676922047.6259708,-121.09375,-134.765625,20.01953125,-37.109375,0.0
1676922047.6297154,-119.62890625,-161.1328125,-6.34765625,-62.98828125,0.0
1676922047.63346,-108.3984375,-266.11328125,-94.23828125,-96.19140625,0.0
1676922047.6372044,-119.62890625,-215.33203125,-55.17578125,-53.7109375,0.0
1676922047.640949,-158.203125,-487.3046875,-281.73828125,1.953125,0.0
1676922047.6446934,-153.80859375,-761.71875,-555.6640625,-50.29296875,0.0
1676922047.648438,-110.83984375,-114.74609375,-60.05859375,-117.67578125,0.0
1676922047.6521823,-102.05078125,-39.0625,-1.46484375,-72.265625,0.0
1676922047.655927,-155.76171875,-274.90234375,-202.63671875,-24.90234375,0.0
1676922047.6597903,-161.1328125,-264.6484375,-220.21484375,-39.55078125,0.0
1676922047.6636536,-118.65234375,-281.25,-245.60546875,-89.35546875,0.0
1676922047.667517,-136.71875,-296.875,-272.94921875,-83.49609375,0.0
1676922047.6713803,-161.1328125,-473.14453125,-448.73046875,-48.33984375,0.0
1676922047.6752436,-153.80859375,-390.13671875,-415.52734375,-15.625,0.0
1676922047.6791067,-130.859375,-425.29296875,-462.40234375,-71.77734375,0.0
1676922047.68297,-115.234375,-615.72265625,-617.67578125,-115.72265625,0.0
1676922047.6868334,-128.90625,-799.31640625,-804.6875,-52.734375,0.0
1676922047.6906967,-165.0390625,-520.99609375,-615.234375,-36.62109375,0.0
1676922047.69456,-125.9765625,-74.21875,-245.60546875,-59.08203125,0.0
1676922047.6984234,-88.37890625,-347.65625,-463.37890625,-88.37890625,0.0
1676922047.7022867,-133.7890625,-457.51953125,-558.59375,-69.82421875,0.0
1676922047.7059433,-170.8984375,-214.84375,-384.27734375,-16.6015625,0.0
1676922047.7096,-164.55078125,-174.31640625,-346.6796875,-44.43359375,0.0
1676922047.7132564,-112.79296875,-412.59765625,-534.1796875,-101.07421875,0.0
1676922047.716913,-108.88671875,-531.73828125,-646.97265625,-78.125,0.0
1676922047.7205696,-152.34375,-527.34375,-630.859375,-42.96875,0.0
1676922047.724226,-156.73828125,-632.32421875,-690.4296875,-41.50390625,0.0
1676922047.7278826,-99.12109375,-835.9375,-855.95703125,-69.82421875,0.0
1676922047.7315392,-83.0078125,-938.96484375,-970.703125,-117.1875,0.0
1676922047.7351959,-131.34765625,-485.83984375,-632.32421875,-83.49609375,0.0
1676922047.7388525,-126.953125,-285.64453125,-468.26171875,-59.5703125,0.0
1676922047.742509,-100.09765625,-463.37890625,-609.86328125,-122.0703125,0.0
1676922047.7461655,-86.42578125,-398.92578125,-562.01171875,-125.48828125,0.0
1676922047.7498975,-93.26171875,-249.51171875,-444.3359375,-86.42578125,0.0
1676922047.7536292,-113.28125,-376.46484375,-533.203125,-78.125,0.0
1676922047.7573612,-111.328125,-663.57421875,-756.8359375,-99.12109375,0.0
1676922047.761093,-82.51953125,-466.30859375,-610.3515625,-154.296875,0.0
1676922047.7648249,-85.9375,-313.96484375,-492.1875,-151.3671875,0.0
1676922047.7685566,-109.86328125,-641.11328125,-736.81640625,-85.44921875,0.0
1676922047.7722886,-90.8203125,-940.4296875,-961.42578125,-104.00390625,0.0
1676922047.7760205,-73.73046875,-846.19140625,-903.80859375,-156.73828125,0.0
1676922047.7797523,-100.5859375,-410.15625,-578.125,-164.55078125,0.0
1676922047.7834842,-142.578125,-508.30078125,-635.25390625,-120.1171875,0.0
1676922047.787216,-135.7421875,-822.265625,-878.90625,-109.86328125,0.0
1676922047.790948,-98.6328125,-578.61328125,-709.47265625,-169.921875,0.0
1676922047.7959516,-82.51953125,-305.17578125,-498.53515625,-184.08203125,0.0
1676922047.8009553,-90.33203125,-491.2109375,-633.7890625,-138.18359375,0.0
1676922047.8059587,-117.67578125,-606.4453125,-721.6796875,-109.86328125,0.0
1676922047.8109624,-97.65625,-348.6328125,-531.73828125,-148.92578125,0.0
1676922047.8159661,-74.70703125,-342.7734375,-510.7421875,-167.96875,0.0
1676922047.8209696,-104.00390625,-769.53125,-825.1953125,-108.3984375,0.0
1676922047.8259733,-146.97265625,-866.2109375,-913.0859375,-88.8671875,0.0
1676922047.830977,-133.30078125,-470.703125,-631.34765625,-145.01953125,0.0
1676922047.8359807,-72.75390625,-370.60546875,-570.3125,-181.15234375,0.0
1676922047.8409843,-76.66015625,-736.81640625,-828.61328125,-148.4375,0.0
1676922047.8459878,-167.48046875,-949.70703125,-989.74609375,-69.3359375,0.0
1676922047.8509915,-183.10546875,-563.96484375,-737.79296875,-94.7265625,0.0
1676922047.8547368,-110.3515625,-412.59765625,-634.765625,-160.64453125,0.0
1676922047.8584824,-130.859375,-719.7265625,-848.6328125,-160.64453125,0.0
1676922047.8622277,-198.2421875,-672.36328125,-813.4765625,-124.51171875,0.0
1676922047.8659732,-201.171875,-389.16015625,-618.65234375,-97.65625,0.0
1676922047.8697186,-161.1328125,-486.81640625,-694.3359375,-132.8125,0.0
1676922047.873464,-148.4375,-844.7265625,-958.49609375,-140.625,0.0
1676922047.8772094,-201.171875,-827.1484375,-951.171875,-114.2578125,0.0
1676922047.8809547,-209.9609375,-484.375,-707.51953125,-82.51953125,0.0
1676922047.8847003,-188.96484375,-596.19140625,-781.25,-113.76953125,0.0
1676922047.8884456,-170.41015625,-907.2265625,-974.609375,-155.76171875,0.0
1676922047.8921912,-192.87109375,-645.01953125,-826.171875,-129.39453125,0.0
1676922047.8959365,-229.00390625,-351.07421875,-658.203125,-99.12109375,0.0
1676922047.900988,-213.37890625,-626.953125,-824.70703125,-100.09765625,0.0
1676922047.9060397,-180.17578125,-844.23828125,-999.0234375,-145.01953125,0.0
1676922047.9110913,-164.55078125,-541.015625,-812.98828125,-173.33984375,0.0
1676922047.916143,-168.45703125,-352.05078125,-666.50390625,-111.328125,0.0
1676922047.9211946,-194.3359375,-669.43359375,-833.984375,-93.75,0.0
1676922047.9262462,-190.4296875,-1000.0,-1000.0,-138.671875,0.0
1676922047.9312975,-178.22265625,-749.0234375,-922.8515625,-156.25,0.0
1676922047.9363492,-177.24609375,-423.828125,-688.4765625,-107.91015625,0.0
1676922047.9414008,-176.26953125,-729.4921875,-852.5390625,-77.63671875,0.0
1676922047.9464524,-166.9921875,-855.95703125,-928.7109375,-131.34765625,0.0
1676922047.951504,-131.8359375,-398.92578125,-641.11328125,-173.828125,0.0
1676922047.9565556,-146.484375,-412.109375,-663.57421875,-142.578125,0.0
1676922047.9590085,-180.17578125,-643.06640625,-854.4921875,-106.4453125,0.0
1676922047.961461,-164.55078125,-523.92578125,-771.97265625,-127.44140625,0.0
1676922047.963914,-138.18359375,-313.4765625,-609.375,-172.36328125,0.0
1676922047.9663668,-142.578125,-465.8203125,-700.1953125,-147.4609375,0.0
1676922047.9688196,-162.59765625,-780.2734375,-911.62109375,-103.02734375,0.0
1676922047.9712725,-158.203125,-842.28515625,-961.9140625,-137.6953125,0.0
1676922047.973725,-127.44140625,-674.31640625,-863.28125,-206.0546875,0.0
1676922047.976178,-112.79296875,-598.6328125,-802.24609375,-208.984375,0.0
1676922047.9786308,-146.484375,-775.390625,-901.3671875,-144.04296875,0.0
1676922047.9810834,-186.5234375,-580.56640625,-790.0390625,-156.73828125,0.0
1676922047.9835362,-144.04296875,-335.44921875,-635.7421875,-194.82421875,0.0
1676922047.985989,-84.9609375,-569.82421875,-771.484375,-206.54296875,0.0
1676922047.9897366,-130.859375,-982.421875,-1000.0,-167.48046875,0.0
1676922047.993484,-212.890625,-710.44921875,-876.46484375,-154.78515625,0.0
1676922047.9972317,-149.4140625,-398.4375,-687.01171875,-203.125,0.0
1676922048.0009792,-105.95703125,-630.37109375,-839.35546875,-221.6796875,0.0
1676922048.0047266,-153.80859375,-680.6640625,-881.8359375,-168.9453125,0.0
1676922048.0084743,-157.2265625,-658.69140625,-855.95703125,-127.9296875,0.0
1676922048.0122218,-139.6484375,-820.80078125,-978.02734375,-177.734375,0.0
1676922048.0159693,-115.72265625,-924.8046875,-1000.0,-194.3359375,0.0
1676922048.0197167,-153.3203125,-942.3828125,-980.46875,-190.4296875,0.0
1676922048.0234642,-195.3125,-527.83203125,-734.375,-158.69140625,0.0
1676922048.027212,-179.6875,-352.5390625,-604.00390625,-161.1328125,0.0
1676922048.0309594,-162.59765625,-569.3359375,-755.859375,-247.0703125,0.0
1676922048.0347292,-195.80078125,-468.75,-666.50390625,-246.09375,0.0
1676922048.038499,-229.98046875,-258.30078125,-493.1640625,-208.0078125,0.0
1676922048.0422688,-218.26171875,-389.6484375,-589.35546875,-202.1484375,0.0
1676922048.0460386,-197.265625,-555.6640625,-714.35546875,-256.8359375,0.0
1676922048.0498085,-223.6328125,-463.37890625,-643.5546875,-272.4609375,0.0
1676922048.0535784,-303.7109375,-585.9375,-722.16796875,-221.6796875,0.0
1676922048.0573483,-336.9140625,-776.85546875,-856.93359375,-232.91015625,0.0
1676922048.0611181,-315.91796875,-922.8515625,-962.890625,-290.0390625,0.0
1676922048.064888,-323.73046875,-658.203125,-768.5546875,-344.7265625,0.0
1676922048.0686576,-329.58984375,-373.53515625,-572.75390625,-309.5703125,0.0
1676922048.0724275,-354.98046875,-742.67578125,-841.796875,-278.3203125,0.0
1676922048.0761974,-390.625,-851.07421875,-928.7109375,-327.63671875,0.0
1676922048.0799341,-386.71875,-502.9296875,-732.91015625,-378.90625,0.0
1676922048.083671,-368.65234375,-371.58203125,-646.484375,-366.2109375,0.0
1676922048.087408,-405.76171875,-662.59765625,-832.51953125,-295.8984375,0.0
1676922048.0911448,-415.52734375,-715.8203125,-883.7890625,-324.70703125,0.0
1676922048.0948815,-349.609375,-440.4296875,-661.1328125,-377.44140625,0.0
1676922048.0986185,-349.12109375,-639.16015625,-795.8984375,-353.02734375,0.0
1676922048.1023555,-371.09375,-936.5234375,-988.28125,-277.83203125,0.0
1676922048.1060922,-348.14453125,-869.62890625,-917.48046875,-237.79296875,0.0
1676922048.109829,-301.7578125,-467.28515625,-660.15625,-309.08203125,0.0
1676922048.113566,-235.83984375,-378.90625,-597.16796875,-313.96484375,0.0
1676922048.117303,-246.09375,-591.796875,-754.39453125,-251.953125,0.0
1676922048.1210396,-260.25390625,-529.296875,-706.54296875,-215.8203125,0.0
1676922048.1248982,-214.35546875,-387.6953125,-575.1953125,-211.9140625,0.0
1676922048.1287568,-173.33984375,-600.5859375,-710.9375,-244.140625,0.0
1676922048.132615,-174.31640625,-814.94140625,-868.1640625,-209.47265625,0.0
1676922048.1364737,-199.70703125,-550.29296875,-657.2265625,-120.60546875,0.0
1676922048.1403322,-161.1328125,-338.8671875,-494.62890625,-143.06640625,0.0
1676922048.1441908,-103.02734375,-642.08984375,-727.5390625,-185.05859375,0.0
1676922048.1480494,-89.35546875,-929.19921875,-949.21875,-163.0859375,0.0
1676922048.151908,-132.8125,-648.4375,-753.41796875,-107.91015625,0.0
1676922048.1557665,-126.953125,-271.484375,-462.890625,-87.40234375,0.0
1676922048.1596248,-62.5,-460.44921875,-603.515625,-130.859375,0.0
1676922048.1634834,-62.5,-631.34765625,-729.98046875,-138.18359375,0.0
1676922048.167342,-108.88671875,-381.8359375,-527.83203125,-96.19140625,0.0
1676922048.1709936,-107.421875,-250.0,-428.7109375,-71.2890625,0.0
1676922048.174645,-93.75,-503.90625,-629.8828125,-90.8203125,0.0
1676922048.1782966,-69.82421875,-562.98828125,-675.78125,-114.2578125,0.0
1676922048.1819482,-87.40234375,-390.13671875,-548.33984375,-82.03125,0.0
1676922048.1855996,-122.55859375,-581.0546875,-684.5703125,-31.25,0.0
1676922048.1892512,-98.14453125,-862.3046875,-884.765625,-57.6171875,0.0
1676922048.1929028,-80.078125,-975.09765625,-999.0234375,-94.7265625,0.0
1676922048.1965542,-102.05078125,-580.078125,-738.28125,-105.46875,0.0
1676922048.2002058,-102.05078125,-368.1640625,-573.2421875,-61.03515625,0.0
1676922048.2038574,-123.046875,-547.36328125,-728.515625,-71.2890625,0.0
1676922048.2075088,-121.58203125,-569.3359375,-758.30078125,-128.41796875,0.0
1676922048.2111604,-125.48828125,-520.99609375,-733.3984375,-120.60546875,0.0
1676922048.2161524,-150.87890625,-510.7421875,-756.34765625,-57.12890625,0.0
1676922048.2211444,-149.4140625,-685.05859375,-893.06640625,-55.6640625,0.0
1676922048.2261364,-113.28125,-595.21484375,-834.9609375,-99.12109375,0.0
1676922048.2311285,-98.14453125,-426.7578125,-722.16796875,-101.5625,0.0
1676922048.2361205,-129.39453125,-561.03515625,-829.1015625,-48.828125,0.0
1676922048.2411122,-124.51171875,-912.59765625,-984.375,-13.18359375,0.0
1676922048.2461042,-98.6328125,-947.75390625,-993.65234375,-64.94140625,0.0
1676922048.2510962,-103.02734375,-737.79296875,-964.35546875,-83.0078125,0.0
1676922048.2560883,-131.34765625,-746.09375,-961.42578125,-41.9921875,0.0
1676922048.2610803,-165.52734375,-986.81640625,-1000.0,-34.66796875,0.0
1676922048.2660723,-138.18359375,-805.17578125,-952.1484375,-91.30859375,0.0
1676922048.2710643,-105.95703125,-438.4765625,-795.41015625,-116.2109375,0.0
1676922048.2748034,-109.86328125,-669.43359375,-890.13671875,-79.1015625,0.0
1676922048.2785428,-135.25390625,-769.53125,-941.40625,-39.0625,0.0
1676922048.2822819,-144.04296875,-482.91015625,-784.66796875,-68.84765625,0.0
1676922048.2860212,-99.609375,-437.01171875,-773.92578125,-113.28125,0.0
1676922048.2897604,-85.9375,-720.21484375,-909.66796875,-99.609375,0.0
1676922048.2934995,-122.0703125,-1000.0,-1000.0,-51.7578125,0.0
1676922048.2972388,-119.62890625,-836.9140625,-977.5390625,-49.8046875,0.0
1676922048.300978,-67.3828125,-514.16015625,-849.12109375,-118.65234375,0.0
1676922048.3047173,-75.1953125,-744.140625,-914.0625,-122.0703125,0.0
1676922048.3084564,-129.39453125,-939.453125,-997.0703125,-92.28515625,0.0
1676922048.3121958,-154.78515625,-734.86328125,-953.61328125,-93.75,0.0
1676922048.315935,-137.20703125,-603.515625,-888.18359375,-119.140625,0.0
1676922048.319795,-100.5859375,-770.01953125,-952.1484375,-149.4140625,0.0
1676922048.3236551,-111.328125,-718.26171875,-915.52734375,-119.62890625,0.0
1676922048.3275151,-144.04296875,-460.44921875,-769.04296875,-93.26171875,0.0
1676922048.3313754,-118.65234375,-529.296875,-807.6171875,-109.86328125,0.0
1676922048.3352354,-86.42578125,-676.26953125,-932.12890625,-150.87890625,0.0
1676922048.3390956,-106.93359375,-843.75,-1000.0,-147.4609375,0.0
1676922048.3429556,-130.37109375,-744.140625,-958.984375,-94.7265625,0.0
1676922048.3468156,-112.79296875,-660.64453125,-925.29296875,-86.9140625,0.0
1676922048.3506758,-83.984375,-931.640625,-1000.0,-122.0703125,0.0
1676922048.3545358,-79.58984375,-721.19140625,-920.41015625,-142.08984375,0.0
1676922048.358396,-94.23828125,-431.640625,-807.6171875,-95.21484375,0.0
1676922048.362256,-115.234375,-641.6015625,-892.578125,-89.35546875,0.0
1676922048.3660078,-85.9375,-849.609375,-1000.0,-143.5546875,0.0
1676922048.3697596,-83.49609375,-821.2890625,-1000.0,-177.734375,0.0
1676922048.3735113,-123.046875,-636.71875,-941.89453125,-155.76171875,0.0
1676922048.3772633,-129.8828125,-723.6328125,-933.59375,-101.5625,0.0
1676922048.381015,-86.9140625,-864.74609375,-988.28125,-136.23046875,0.0
1676922048.3847668,-97.16796875,-840.33203125,-991.69921875,-201.66015625,0.0
1676922048.3885186,-163.0859375,-881.34765625,-999.0234375,-210.9375,0.0
1676922048.3922703,-172.8515625,-924.8046875,-996.58203125,-112.3046875,0.0
1676922048.3960223,-184.5703125,-974.12109375,-1000.0,-139.6484375,0.0
1676922048.399774,-179.19921875,-605.95703125,-846.19140625,-234.375,0.0
1676922048.4035258,-155.76171875,-441.89453125,-723.6328125,-183.59375,0.0
1676922048.4072776,-185.546875,-615.72265625,-837.890625,-133.7890625,0.0
1676922048.4109385,-199.21875,-512.20703125,-770.99609375,-154.78515625,0.0
1676922048.4145994,-161.1328125,-352.05078125,-642.578125,-191.40625,0.0
1676922048.4182603,-140.625,-464.84375,-721.6796875,-189.94140625,0.0
1676922048.4219213,-141.11328125,-691.89453125,-884.765625,-124.51171875,0.0
1676922048.4255822,-181.640625,-723.14453125,-882.8125,-101.07421875,0.0
1676922048.429243,-181.15234375,-716.30859375,-853.515625,-132.8125,0.0
1676922048.4329042,-129.39453125,-723.14453125,-857.421875,-160.15625,0.0
1676922048.4365652,-159.1796875,-947.265625,-978.515625,-105.46875,0.0
1676922048.440226,-197.75390625,-833.984375,-895.5078125,-74.70703125,0.0
1676922048.443887,-188.96484375,-285.15625,-513.18359375,-173.33984375,0.0
1676922048.447548,-161.62109375,-388.18359375,-569.3359375,-203.61328125,0.0
1676922048.4512088,-166.9921875,-545.8984375,-676.7578125,-157.2265625,0.0
1676922048.4549387,-196.77734375,-286.1328125,-462.890625,-121.09375,0.0
1676922048.4586682,-161.1328125,-187.5,-350.5859375,-115.234375,0.0
1676922048.462398,-134.27734375,-410.64453125,-500.9765625,-165.0390625,0.0
1676922048.4661276,-151.85546875,-453.61328125,-536.62109375,-184.5703125,0.0
1676922048.4698575,-187.01171875,-259.27734375,-386.23046875,-109.375,0.0
1676922048.473587,-191.89453125,-440.91796875,-494.62890625,-117.67578125,0.0
1676922048.4773169,-144.04296875,-823.2421875,-807.6171875,-177.734375,0.0
1676922048.4810467,-145.01953125,-880.37109375,-897.4609375,-200.68359375,0.0
1676922048.4847763,-168.45703125,-369.62890625,-461.42578125,-182.6171875,0.0
1676922048.488506,-156.25,-182.6171875,-306.15234375,-159.1796875,0.0
1676922048.4922357,-158.69140625,-444.82421875,-516.6015625,-197.265625,0.0
1676922048.4959655,-128.41796875,-439.94140625,-504.39453125,-219.23828125,0.0
1676922048.4997127,-108.88671875,-232.421875,-362.79296875,-184.08203125,0.0
1676922048.50346,-202.1484375,-340.33203125,-453.125,-140.625,0.0
1676922048.5072074,-191.89453125,-548.33984375,-625.0,-168.9453125,0.0
1676922048.5109546,-123.53515625,-395.01953125,-519.53125,-204.58984375,0.0
1676922048.5147018,-106.93359375,-301.26953125,-428.7109375,-182.12890625,0.0
1676922048.518449,-132.8125,-606.4453125,-666.015625,-115.234375,0.0
1676922048.5221963,-150.390625,-927.734375,-945.3125,-121.58203125,0.0
1676922048.5259435,-113.76953125,-665.0390625,-765.625,-189.453125,0.0
1676922048.5296907,-109.86328125,-259.27734375,-450.68359375,-177.24609375,0.0
1676922048.5334382,-159.66796875,-488.76953125,-612.79296875,-114.2578125,0.0
1676922048.5371854,-151.3671875,-778.80859375,-847.16796875,-122.55859375,0.0
1676922048.5409327,-118.65234375,-516.11328125,-677.24609375,-178.7109375,0.0
1676922048.5459862,-156.25,-267.08984375,-491.2109375,-182.6171875,0.0
1676922048.5510397,-175.29296875,-600.09765625,-720.21484375,-109.86328125,0.0
1676922048.5560932,-182.12890625,-873.046875,-932.6171875,-109.86328125,0.0
1676922048.5611467,-151.85546875,-508.30078125,-697.265625,-168.45703125,0.0
1676922048.5662003,-120.60546875,-404.78515625,-616.69921875,-177.734375,0.0
1676922048.5712538,-138.671875,-811.5234375,-880.859375,-133.30078125,0.0
1676922048.5763073,-175.78125,-889.16015625,-939.94140625,-106.93359375,0.0
1676922048.5813608,-165.52734375,-473.14453125,-649.4140625,-163.57421875,0.0
1676922048.5864143,-108.3984375,-352.05078125,-550.78125,-179.19921875,0.0
1676922048.5914679,-133.7890625,-622.0703125,-766.11328125,-169.921875,0.0
1676922048.5965214,-170.8984375,-629.8828125,-781.25,-134.765625,0.0
1676922048.601575,-178.7109375,-375.48828125,-592.7734375,-145.01953125,0.0
1676922048.6052713,-131.34765625,-458.984375,-642.578125,-183.10546875,0.0
1676922048.6089675,-119.62890625,-733.3984375,-853.02734375,-186.5234375,0.0
1676922048.612664,-174.8046875,-644.53125,-805.17578125,-150.87890625,0.0
1676922048.6163604,-162.59765625,-410.64453125,-634.27734375,-138.18359375,0.0
1676922048.6200566,-139.16015625,-501.46484375,-689.453125,-182.12890625,0.0
1676922048.623753,-110.3515625,-867.1875,-937.98828125,-207.51953125,0.0
1676922048.6274495,-138.671875,-801.26953125,-898.92578125,-173.33984375,0.0
1676922048.6311457,-154.78515625,-396.97265625,-588.37890625,-142.08984375,0.0
1676922048.6348422,-101.07421875,-481.93359375,-638.671875,-169.921875,0.0
1676922048.6385386,-89.84375,-920.8984375,-952.63671875,-181.640625,0.0
1676922048.6422348,-139.6484375,-784.66796875,-843.26171875,-174.31640625,0.0
1676922048.6459312,-157.2265625,-410.64453125,-558.59375,-135.25390625,0.0
1676922048.6496868,-151.3671875,-561.03515625,-677.24609375,-179.6875,0.0
1676922048.6534424,-126.953125,-624.51171875,-729.4921875,-250.9765625,0.0
1676922048.6571977,-118.1640625,-354.98046875,-528.3203125,-213.8671875,0.0
1676922048.6609533,-130.37109375,-454.58984375,-621.58203125,-143.06640625,0.0
1676922048.6647089,-130.859375,-808.59375,-871.09375,-122.0703125,0.0
1676922048.6684642,-129.8828125,-974.609375,-1000.0,-185.546875,0.0
1676922048.6722198,-140.13671875,-686.5234375,-818.359375,-233.88671875,0.0
1676922048.6759753,-173.33984375,-343.26171875,-557.6171875,-173.33984375,0.0
1676922048.679731,-153.3203125,-697.75390625,-786.62109375,-123.53515625,0.0
1676922048.6834865,-116.2109375,-862.3046875,-916.9921875,-181.640625,0.0
1676922048.6872418,-145.99609375,-365.72265625,-576.171875,-201.171875,0.0
1676922048.6909974,-167.96875,-301.26953125,-509.27734375,-129.39453125,0.0
1676922048.6947532,-183.59375,-488.28125,-628.90625,-123.046875,0.0
1676922048.6985087,-165.0390625,-445.3125,-583.49609375,-192.87109375,0.0
1676922048.7022645,-121.58203125,-274.4140625,-455.56640625,-222.65625,0.0
1676922048.7060204,-144.53125,-323.73046875,-495.60546875,-172.36328125,0.0
1676922048.709776,-198.73046875,-580.56640625,-675.78125,-120.60546875,0.0
1676922048.7135317,-196.2890625,-749.51171875,-801.26953125,-143.5546875,0.0
1676922048.7172875,-145.01953125,-633.7890625,-714.84375,-196.77734375,0.0
1676922048.721043,-132.8125,-575.68359375,-655.2734375,-190.4296875,0.0
1676922048.724799,-164.0625,-948.2421875,-949.21875,-136.71875,0.0
1676922048.7285547,-187.5,-791.50390625,-860.3515625,-151.85546875,0.0
1676922048.7323103,-145.99609375,-247.0703125,-452.63671875,-209.9609375,0.0
1676922048.736066,-116.2109375,-424.31640625,-575.68359375,-209.47265625,0.0
1676922048.7398095,-158.203125,-553.7109375,-684.08203125,-144.04296875,0.0
1676922048.7435532,-191.89453125,-317.3828125,-518.5546875,-101.5625,0.0
1676922048.7472966,-158.203125,-300.29296875,-515.13671875,-178.22265625,0.0
1676922048.7510402,-128.41796875,-559.5703125,-740.234375,-229.4921875,0.0
1676922048.7547836,-171.875,-695.3125,-859.86328125,-185.546875,0.0
1676922048.7585273,-202.1484375,-720.703125,-861.81640625,-123.046875,0.0
1676922048.7622707,-183.10546875,-772.4609375,-916.50390625,-155.76171875,0.0
1676922048.766014,-134.27734375,-883.7890625,-963.37890625,-179.19921875,0.0
1676922048.7697577,-171.875,-848.6328125,-917.48046875,-160.64453125,0.0
1676922048.7735012,-203.61328125,-487.79296875,-712.890625,-133.7890625,0.0
1676922048.7772448,-177.734375,-606.4453125,-832.51953125,-127.44140625,0.0
1676922048.7809882,-159.1796875,-845.703125,-983.3984375,-188.4765625,0.0
1676922048.7859857,-145.01953125,-653.80859375,-830.56640625,-182.12890625,0.0
1676922048.7909832,-180.6640625,-392.578125,-677.734375,-129.8828125,0.0
1676922048.795981,-201.171875,-532.2265625,-786.1328125,-125.48828125,0.0
1676922048.8009784,-124.0234375,-678.22265625,-896.484375,-178.7109375,0.0
1676922048.805976,-103.515625,-505.859375,-780.76171875,-200.1953125,0.0
1676922048.8109736,-175.29296875,-620.1171875,-864.74609375,-135.7421875,0.0
1676922048.8159711,-182.12890625,-889.6484375,-1000.0,-111.328125,0.0
1676922048.8209686,-161.1328125,-884.765625,-976.07421875,-170.41015625,0.0
1676922048.8259661,-141.6015625,-615.72265625,-837.40234375,-238.76953125,0.0
1676922048.8309636,-138.671875,-381.8359375,-700.1953125,-207.51953125,0.0
1676922048.8359613,-150.390625,-623.046875,-831.54296875,-137.6953125,0.0
1676922048.8409588,-160.15625,-807.12890625,-914.55078125,-171.875,0.0
1676922048.843568,-151.85546875,-527.34375,-730.95703125,-242.1875,0.0
1676922048.8461773,-140.625,-606.93359375,-805.17578125,-198.73046875,0.0
1676922048.8487866,-140.625,-895.99609375,-981.93359375,-137.6953125,0.0
1676922048.8513958,-146.484375,-834.9609375,-904.78515625,-144.04296875,0.0
1676922048.854005,-137.6953125,-435.546875,-652.83203125,-196.77734375,0.0
1676922048.8566144,-112.3046875,-560.05859375,-760.25390625,-200.1953125,0.0
1676922048.8592236,-153.80859375,-902.34375,-974.12109375,-170.41015625,0.0
1676922048.8618329,-169.43359375,-685.546875,-819.3359375,-173.33984375,0.0
1676922048.864442,-143.5546875,-367.67578125,-626.953125,-222.65625,0.0
1676922048.8670514,-133.7890625,-330.56640625,-596.6796875,-230.95703125,0.0
1676922048.8696606,-159.1796875,-718.26171875,-827.1484375,-161.1328125,0.0
1676922048.8722699,-177.734375,-858.3984375,-937.5,-142.578125,0.0
1676922048.875909,-152.83203125,-369.62890625,-634.27734375,-184.5703125,0.0
1676922048.8795485,-135.7421875,-372.0703125,-629.39453125,-208.984375,0.0
1676922048.8831878,-156.73828125,-623.046875,-818.359375,-193.84765625,0.0
1676922048.8868272,-192.87109375,-560.546875,-753.41796875,-143.5546875,0.0
1676922048.8904665,-184.5703125,-651.3671875,-835.9375,-148.92578125,0.0
1676922048.894106,-144.04296875,-826.171875,-979.4921875,-191.89453125,0.0
1676922048.8977451,-133.7890625,-977.5390625,-1000.0,-167.96875,0.0
1676922048.9013844,-187.5,-816.89453125,-894.53125,-142.578125,0.0
1676922048.9050238,-223.6328125,-382.8125,-639.16015625,-175.78125,0.0
1676922048.908663,-177.24609375,-568.359375,-790.52734375,-212.890625,0.0
1676922048.9123025,-159.1796875,-695.80078125,-891.11328125,-203.61328125,0.0
1676922048.9159417,-180.6640625,-433.10546875,-698.2421875,-164.55078125,0.0
1676922048.9196997,-208.0078125,-367.1875,-652.34375,-158.69140625,0.0
1676922048.9234579,-186.5234375,-622.55859375,-825.1953125,-192.3828125,0.0
1676922048.9272158,-170.41015625,-686.5234375,-875.48828125,-219.7265625,0.0
1676922048.930974,-172.36328125,-409.1796875,-679.6875,-184.08203125,0.0
1676922048.934732,-192.3828125,-438.4765625,-706.0546875,-120.60546875,0.0
1676922048.93849,-166.50390625,-796.875,-901.3671875,-162.59765625,0.0
1676922048.942248,-136.71875,-943.359375,-993.65234375,-224.609375,0.0
1676922048.946006,-192.87109375,-736.81640625,-901.3671875,-198.2421875,0.0
1676922048.9497643,-208.0078125,-503.90625,-727.5390625,-160.64453125,0.0
1676922048.9535222,-169.43359375,-757.8125,-869.62890625,-124.51171875,0.0
1676922048.9572804,-145.99609375,-874.51171875,-932.12890625,-177.24609375,0.0
1676922048.9610384,-147.4609375,-471.6796875,-675.29296875,-207.51953125,0.0
1676922048.9660335,-168.9453125,-461.42578125,-670.8984375,-134.765625,0.0
1676922048.9710288,-167.48046875,-605.46875,-774.4140625,-144.04296875,0.0
1676922048.976024,-121.09375,-514.16015625,-715.33203125,-205.078125,0.0
1676922048.981019,-124.0234375,-365.234375,-604.98046875,-205.56640625,0.0
1676922048.9860141,-143.06640625,-499.51171875,-682.12890625,-148.4375,0.0
1676922048.9910092,-145.5078125,-888.18359375,-952.63671875,-129.39453125,0.0
1676922048.9960046,-158.203125,-835.44921875,-931.15234375,-196.77734375,0.0
1676922049.0009997,-130.37109375,-441.89453125,-658.203125,-250.9765625,0.0
1676922049.0059948,-147.4609375,-522.94921875,-702.1484375,-220.21484375,0.0
1676922049.0109901,-192.87109375,-892.08984375,-951.171875,-180.6640625,0.0
1676922049.0159853,-172.8515625,-821.2890625,-908.69140625,-213.37890625,0.0
1676922049.0209804,-120.60546875,-431.640625,-628.90625,-274.4140625,0.0
1676922049.0247402,-125.48828125,-586.9140625,-730.46875,-210.44921875,0.0
1676922049.0285,-187.01171875,-849.609375,-912.109375,-156.25,0.0
1676922049.0322597,-167.48046875,-543.45703125,-710.44921875,-216.30859375,0.0
1676922049.0360196,-118.1640625,-380.859375,-601.07421875,-244.140625,0.0
1676922049.0397794,-142.578125,-639.16015625,-783.203125,-249.51171875,0.0
1676922049.043539,-178.22265625,-934.5703125,-1000.0,-198.2421875,0.0
1676922049.047299,-194.3359375,-717.28515625,-848.14453125,-194.3359375,0.0
1676922049.0510588,-154.78515625,-430.6640625,-621.58203125,-245.1171875,0.0
1676922049.0548186,-140.625,-737.79296875,-822.75390625,-229.00390625,0.0
1676922049.0585785,-178.22265625,-857.421875,-920.41015625,-177.734375,0.0
1676922049.062338,-196.77734375,-473.6328125,-663.0859375,-164.0625,0.0
1676922049.066098,-166.9921875,-478.515625,-650.87890625,-216.30859375,0.0
1676922049.0699453,-155.2734375,-649.90234375,-794.921875,-233.88671875,0.0
1676922049.0737927,-195.80078125,-726.5625,-861.328125,-193.359375,0.0
1676922049.07764,-207.51953125,-487.79296875,-688.96484375,-186.5234375,0.0
1676922049.0814874,-201.66015625,-428.7109375,-645.99609375,-214.35546875,0.0
1676922049.0853348,-191.89453125,-767.578125,-879.39453125,-255.37109375,0.0
1676922049.0891821,-165.52734375,-971.19140625,-1000.0,-253.90625,0.0
1676922049.0930295,-213.8671875,-777.83203125,-912.109375,-222.16796875,0.0
1676922049.0968769,-226.07421875,-665.0390625,-826.66015625,-200.68359375,0.0
1676922049.1007242,-171.875,-919.43359375,-974.609375,-210.9375,0.0
1676922049.1045716,-163.0859375,-712.890625,-850.09765625,-237.3046875,0.0
1676922049.108419,-193.84765625,-401.85546875,-652.83203125,-214.84375,0.0
1676922049.1122663,-204.58984375,-625.48828125,-806.15234375,-184.5703125,0.0
1676922049.1159072,-167.96875,-726.07421875,-897.94921875,-222.65625,0.0
1676922049.1195478,-166.50390625,-468.26171875,-708.49609375,-279.296875,0.0
1676922049.1231887,-174.8046875,-390.625,-635.25390625,-225.5859375,0.0
1676922049.1268294,-210.44921875,-691.89453125,-825.68359375,-172.8515625,0.0
1676922049.1304703,-204.1015625,-880.37109375,-973.14453125,-197.75390625,0.0
1676922049.134111,-137.20703125,-800.29296875,-955.56640625,-236.81640625,0.0
1676922049.1377518,-181.640625,-709.9609375,-892.578125,-255.859375,0.0
1676922049.1413927,-240.72265625,-778.80859375,-895.5078125,-195.80078125,0.0
1676922049.1450334,-240.72265625,-981.4453125,-1000.0,-217.28515625,0.0
1676922049.1486742,-190.4296875,-602.05078125,-809.5703125,-285.15625,0.0
1676922049.152315,-182.12890625,-401.3671875,-678.22265625,-284.66796875,0.0
1676922049.1559558,-233.3984375,-618.65234375,-845.703125,-241.69921875,0.0
1676922049.159707,-246.09375,-597.65625,-837.40234375,-247.55859375,0.0
1676922049.1634583,-182.12890625,-455.078125,-713.8671875,-296.38671875,0.0
1676922049.1672096,-153.3203125,-540.0390625,-770.5078125,-277.83203125,0.0
1676922049.1709611,-208.49609375,-697.265625,-894.53125,-222.65625,0.0
1676922049.1747124,-228.515625,-606.93359375,-857.421875,-182.12890625,0.0
1676922049.1784637,-172.8515625,-747.55859375,-929.19921875,-223.6328125,0.0
1676922049.182215,-138.671875,-941.40625,-1000.0,-277.83203125,0.0
1676922049.1859663,-155.76171875,-999.51171875,-1000.0,-203.61328125,0.0
1676922049.1897178,-218.26171875,-852.05078125,-940.4296875,-164.55078125,0.0
1676922049.193469,-216.796875,-465.8203125,-753.90625,-213.8671875,0.0
1676922049.1972203,-150.390625,-634.27734375,-842.7734375,-251.953125,0.0
1676922049.2009716,-174.8046875,-788.57421875,-933.10546875,-212.40234375,0.0
1676922049.2047272,-228.02734375,-519.53125,-775.390625,-161.1328125,0.0
1676922049.2084825,-211.9140625,-424.31640625,-695.3125,-188.96484375,0.0
1676922049.212238,-150.390625,-657.2265625,-850.09765625,-233.88671875,0.0
1676922049.2159936,-159.1796875,-695.80078125,-876.46484375,-232.421875,0.0
1676922049.219749,-216.796875,-522.4609375,-753.90625,-193.84765625,0.0
1676922049.2235045,-212.40234375,-791.9921875,-934.5703125,-202.63671875,0.0
1676922049.22726,-170.8984375,-1000.0,-1000.0,-237.3046875,0.0
1676922049.2310154,-163.0859375,-877.44140625,-953.61328125,-257.8125,0.0
1676922049.234771,-177.734375,-551.26953125,-787.109375,-232.421875,0.0
1676922049.2385266,-182.12890625,-514.16015625,-730.95703125,-137.6953125,0.0
1676922049.242282,-162.59765625,-801.26953125,-903.3203125,-168.9453125,0.0
1676922049.2460375,-145.99609375,-695.3125,-828.125,-254.39453125,0.0
1676922049.2497773,-170.41015625,-364.74609375,-600.09765625,-230.46875,0.0
1676922049.2535174,-209.47265625,-436.03515625,-638.18359375,-172.8515625,0.0
1676922049.2572572,-191.89453125,-653.80859375,-805.17578125,-181.15234375,0.0
1676922049.2609973,-150.390625,-507.32421875,-697.265625,-232.91015625,0.0
1676922049.2647371,-157.2265625,-374.0234375,-576.171875,-220.21484375,0.0
1676922049.268477,-204.58984375,-649.4140625,-756.8359375,-138.671875,0.0
1676922049.272217,-213.8671875,-950.68359375,-972.16796875,-148.92578125,0.0
1676922049.2759569,-187.5,-708.0078125,-800.29296875,-264.6484375,0.0
1676922049.279697,-168.9453125,-299.8046875,-490.72265625,-269.53125,0.0
1676922049.2834368,-178.7109375,-506.8359375,-644.04296875,-181.640625,0.0
1676922049.2871768,-194.3359375,-694.3359375,-793.9453125,-169.921875,0.0
1676922049.2909167,-168.9453125,-440.91796875,-609.375,-218.26171875,0.0
1676922049.29478,-156.73828125,-360.83984375,-525.87890625,-238.28125,0.0
1676922049.2986434,-180.17578125,-728.515625,-784.66796875,-194.3359375,0.0
1676922049.302507,-218.26171875,-845.21484375,-899.90234375,-148.92578125,0.0
1676922049.3063703,-211.9140625,-416.9921875,-588.8671875,-209.47265625,0.0
1676922049.3102336,-178.7109375,-380.37109375,-552.734375,-247.0703125,0.0
1676922049.314097,-194.3359375,-837.890625,-887.20703125,-183.59375,0.0
1676922049.3179603,-235.3515625,-880.859375,-917.48046875,-135.7421875,0.0
1676922049.3218236,-204.58984375,-476.5625,-626.46484375,-156.73828125,0.0
1676922049.325687,-149.90234375,-352.5390625,-529.296875,-199.21875,0.0
1676922049.3295505,-172.36328125,-708.0078125,-791.50390625,-195.80078125,0.0
1676922049.3334138,-222.65625,-781.73828125,-854.00390625,-137.6953125,0.0
1676922049.3372772,-228.02734375,-390.13671875,-561.5234375,-152.34375,0.0
1676922049.3421772,-186.5234375,-424.8046875,-600.5859375,-215.8203125,0.0
1676922049.347077,-176.7578125,-645.99609375,-780.2734375,-215.33203125,0.0
1676922049.3519769,-182.12890625,-541.9921875,-694.82421875,-158.69140625,0.0
1676922049.3568769,-184.08203125,-474.12109375,-630.37109375,-134.765625,0.0
1676922049.3617768,-169.43359375,-724.12109375,-837.890625,-164.55078125,0.0
1676922049.3666768,-132.32421875,-980.95703125,-1000.0,-174.8046875,0.0
1676922049.3715765,-171.38671875,-869.62890625,-917.96875,-150.87890625,0.0
1676922049.3764765,-223.14453125,-467.28515625,-657.71484375,-128.41796875,0.0
1676922049.3813765,-191.40625,-600.5859375,-749.0234375,-165.52734375,0.0
1676922049.3862762,-134.765625,-775.87890625,-877.9296875,-213.37890625,0.0
1676922049.3911762,-166.015625,-510.25390625,-702.1484375,-210.9375,0.0
1676922049.3960762,-225.09765625,-400.390625,-631.34765625,-144.53125,0.0
1676922049.3998718,-207.03125,-666.015625,-812.01171875,-140.625,0.0
1676922049.4036674,-191.40625,-799.31640625,-935.05859375,-208.49609375,0.0
1676922049.407463,-188.96484375,-552.734375,-786.62109375,-206.54296875,0.0
1676922049.4112587,-231.93359375,-463.37890625,-719.23828125,-139.6484375,0.0
1676922049.4150543,-260.25390625,-709.9609375,-850.09765625,-147.4609375,0.0
1676922049.41885,-240.72265625,-1000.0,-1000.0,-198.2421875,0.0
1676922049.4226456,-219.7265625,-905.76171875,-995.1171875,-201.171875,0.0
1676922049.4264412,-248.53515625,-854.98046875,-992.67578125,-201.171875,0.0
1676922049.4302368,-296.875,-947.75390625,-1000.0,-211.42578125,0.0
1676922049.4340324,-283.69140625,-965.33203125,-1000.0,-250.48828125,0.0
1676922049.437828,-303.7109375,-640.13671875,-846.6796875,-319.82421875,0.0
1676922049.4416237,-369.140625,-541.015625,-762.6953125,-301.7578125,0.0
1676922049.4453197,-383.30078125,-709.47265625,-882.8125,-262.20703125,0.0
1676922049.4490154,-366.69921875,-613.76953125,-825.68359375,-329.58984375,0.0
1676922049.4527113,-364.74609375,-508.30078125,-753.41796875,-399.4140625,0.0
1676922049.4564073,-395.99609375,-623.53515625,-857.91015625,-362.79296875,0.0
1676922049.460103,-453.125,-857.91015625,-989.74609375,-308.59375,0.0
1676922049.463799,-450.68359375,-1000.0,-1000.0,-322.75390625,0.0
1676922049.467495,-399.90234375,-895.99609375,-989.74609375,-390.13671875,0.0
1676922049.4711907,-398.4375,-774.90234375,-986.328125,-396.97265625,0.0
1676922049.4748867,-450.68359375,-970.21484375,-999.51171875,-318.84765625,0.0
1676922049.4785826,-459.47265625,-909.1796875,-989.2578125,-313.4765625,0.0
1676922049.4822783,-374.0234375,-827.63671875,-987.3046875,-371.58203125,0.0
1676922049.4859743,-340.33203125,-964.35546875,-1000.0,-370.60546875,0.0
1676922049.4897192,-387.20703125,-868.65234375,-942.87109375,-311.03515625,0.0
1676922049.493464,-376.953125,-594.7265625,-797.8515625,-289.55078125,0.0
1676922049.497209,-307.12890625,-542.96875,-757.8125,-304.19921875,0.0
1676922049.500954,-249.0234375,-720.703125,-871.58203125,-298.828125,0.0
1676922049.5046988,-272.94921875,-741.2109375,-882.32421875,-255.859375,0.0
1676922049.5084438,-291.50390625,-777.34375,-895.01953125,-197.75390625,0.0
1676922049.5121887,-247.55859375,-757.8125,-877.44140625,-229.4921875,0.0
1676922049.5159335,-210.9375,-812.98828125,-895.01953125,-255.859375,0.0
1676922049.5196784,-215.33203125,-895.5078125,-941.89453125,-214.84375,0.0
1676922049.5234232,-224.12109375,-541.50390625,-711.9140625,-163.0859375,0.0
1676922049.5271683,-205.078125,-497.0703125,-672.36328125,-145.01953125,0.0
1676922049.530913,-180.17578125,-688.96484375,-824.21875,-182.12890625,0.0
1676922049.5348299,-155.76171875,-789.0625,-889.6484375,-187.01171875,0.0
1676922049.5387464,-187.98828125,-750.9765625,-843.75,-131.34765625,0.0
1676922049.542663,-214.35546875,-660.64453125,-777.34375,-118.1640625,0.0
1676922049.5465798,-162.59765625,-819.82421875,-900.87890625,-191.89453125,0.0
1676922049.5504966,-121.58203125,-741.69921875,-848.14453125,-213.8671875,0.0
1676922049.5544133,-162.59765625,-727.05078125,-826.171875,-145.99609375,0.0
1676922049.5583298,-192.3828125,-926.26953125,-970.21484375,-87.40234375,0.0
1676922049.5622466,-149.90234375,-994.62890625,-1000.0,-117.67578125,0.0
1676922049.5661633,-131.34765625,-799.31640625,-901.3671875,-182.12890625,0.0
1676922049.5700798,-145.5078125,-526.3671875,-735.83984375,-146.97265625,0.0
1676922049.5739965,-178.7109375,-741.2109375,-856.93359375,-90.33203125,0.0
1676922049.5779133,-192.3828125,-879.8828125,-959.47265625,-141.6015625,0.0
1676922049.5815024,-141.6015625,-636.71875,-835.9375,-195.80078125,0.0
1676922049.5850918,-130.37109375,-559.5703125,-792.48046875,-147.4609375,0.0
1676922049.588681,-188.4765625,-759.27734375,-896.97265625,-83.984375,0.0
1676922049.5922701,-204.58984375,-962.890625,-1000.0,-94.23828125,0.0
1676922049.5958595,-158.69140625,-895.99609375,-998.046875,-147.4609375,0.0
1676922049.5994487,-135.25390625,-929.19921875,-998.53515625,-148.92578125,0.0
1676922049.6030378,-156.73828125,-999.0234375,-997.55859375,-75.1953125,0.0
1676922049.6066272,-191.89453125,-1000.0,-1000.0,-82.03125,0.0
1676922049.6102164,-183.59375,-869.140625,-972.65625,-165.0390625,0.0
1676922049.6138055,-130.859375,-640.13671875,-918.9453125,-187.98828125,0.0
1676922049.617395,-181.640625,-780.2734375,-977.5390625,-145.01953125,0.0
1676922049.620984,-229.00390625,-762.6953125,-966.30859375,-113.28125,0.0
1676922049.6247306,-190.4296875,-615.234375,-917.48046875,-145.99609375,0.0
1676922049.628477,-160.15625,-708.984375,-966.30859375,-195.80078125,0.0
1676922049.6322236,-178.7109375,-901.3671875,-1000.0,-159.66796875,0.0
1676922049.63597,-215.8203125,-781.73828125,-990.72265625,-75.68359375,0.0
1676922049.6397166,-202.63671875,-672.8515625,-981.93359375,-112.3046875,0.0
1676922049.6434631,-143.5546875,-893.5546875,-999.0234375,-169.921875,0.0
1676922049.64721,-153.3203125,-1000.0,-1000.0,-147.4609375,0.0
1676922049.6509564,-246.58203125,-948.73046875,-1000.0,-104.98046875,0.0
1676922049.654703,-261.23046875,-707.51953125,-990.72265625,-92.7734375,0.0
1676922049.6584494,-197.265625,-775.87890625,-991.2109375,-141.6015625,0.0
1676922049.662196,-156.73828125,-946.2890625,-1000.0,-128.41796875,0.0
1676922049.6659424,-198.73046875,-792.48046875,-1000.0,-81.0546875,0.0
1676922049.6697066,-238.28125,-636.23046875,-991.69921875,-81.54296875,0.0
1676922049.6734707,-178.22265625,-802.734375,-995.1171875,-127.9296875,0.0
1676922049.6772351,-128.90625,-889.6484375,-1000.0,-153.80859375,0.0
1676922049.6809993,-168.9453125,-667.96875,-998.53515625,-109.375,0.0
1676922049.6847634,-204.58984375,-716.30859375,-1000.0,-92.7734375,0.0
1676922049.6885276,-187.5,-921.875,-1000.0,-109.375,0.0
1676922049.6922917,-160.64453125,-1000.0,-1000.0,-160.15625,0.0
1676922049.696056,-160.64453125,-855.46875,-1000.0,-161.62109375,0.0
1676922049.69982,-198.73046875,-710.44921875,-1000.0,-85.44921875,0.0
1676922049.7035844,-200.1953125,-919.921875,-1000.0,-88.37890625,0.0
1676922049.7073486,-145.99609375,-964.35546875,-1000.0,-165.52734375,0.0
1676922049.7111127,-139.6484375,-706.0546875,-989.2578125,-201.171875,0.0
1676922049.716102,-193.359375,-669.921875,-982.421875,-127.44140625,0.0
1676922049.7210913,-201.171875,-902.34375,-999.0234375,-92.7734375,0.0
1676922049.7260804,-164.0625,-895.5078125,-1000.0,-181.15234375,0.0
1676922049.7310698,-143.06640625,-690.4296875,-1000.0,-197.265625,0.0
1676922049.736059,-136.71875,-748.53515625,-1000.0,-115.234375,0.0
1676922049.7410483,-149.4140625,-983.3984375,-999.0234375,-107.421875,0.0
1676922049.7460375,-159.66796875,-950.1953125,-1000.0,-174.31640625,0.0
1676922049.7510266,-136.71875,-685.546875,-973.14453125,-192.87109375,0.0
1676922049.756016,-138.671875,-726.5625,-962.40234375,-155.2734375,0.0
1676922049.7610052,-163.57421875,-939.453125,-1000.0,-115.234375,0.0
1676922049.7659945,-171.875,-766.6015625,-971.6796875,-155.2734375,0.0
1676922049.7709837,-88.8671875,-557.12890625,-898.92578125,-219.7265625,0.0
1676922049.7760348,-71.2890625,-771.484375,-941.89453125,-190.91796875,0.0
1676922049.7810862,-163.0859375,-930.6640625,-997.0703125,-118.1640625,0.0
1676922049.7861373,-174.31640625,-676.7578125,-912.109375,-144.53125,0.0
1676922049.7911885,-116.2109375,-540.52734375,-850.5859375,-219.7265625,0.0
1676922049.7962399,-87.40234375,-747.0703125,-927.24609375,-200.1953125,0.0
1676922049.801291,-143.5546875,-1000.0,-1000.0,-128.90625,0.0
1676922049.8063421,-137.20703125,-877.9296875,-975.09765625,-128.90625,0.0
1676922049.8113935,-120.60546875,-531.25,-800.78125,-212.40234375,0.0
1676922049.8164446,-107.421875,-771.484375,-895.01953125,-225.09765625,0.0
1676922049.8214958,-136.71875,-898.92578125,-946.77734375,-172.8515625,0.0
1676922049.8265471,-164.0625,-500.9765625,-696.77734375,-146.97265625,0.0
1676922049.8315983,-109.86328125,-435.05859375,-658.203125,-198.2421875,0.0
1676922049.834046,-83.0078125,-604.00390625,-789.0625,-274.90234375,0.0
1676922049.8364937,-105.46875,-544.43359375,-735.83984375,-220.703125,0.0
1676922049.8389413,-142.08984375,-401.3671875,-613.28125,-147.94921875,0.0
1676922049.8413892,-123.53515625,-503.90625,-673.33984375,-182.6171875,0.0
1676922049.8438368,-76.66015625,-737.79296875,-840.8203125,-244.140625,0.0
1676922049.8462844,-91.796875,-873.046875,-930.6640625,-247.0703125,0.0
1676922049.8487322,-129.8828125,-681.640625,-783.203125,-171.875,0.0
1676922049.8511798,-101.5625,-570.80078125,-692.3828125,-144.04296875,0.0
1676922049.8536277,-49.8046875,-754.39453125,-831.54296875,-219.7265625,0.0
1676922049.8560753,-68.84765625,-525.390625,-664.0625,-234.375,0.0
1676922049.8585231,-128.90625,-276.3671875,-453.125,-165.52734375,0.0
1676922049.8609707,-127.9296875,-492.1875,-599.12109375,-152.83203125,0.0
1676922049.8647196,-92.28515625,-958.984375,-965.8203125,-203.125,0.0
1676922049.8684685,-67.87109375,-683.10546875,-761.71875,-257.8125,0.0
1676922049.8722177,-96.6796875,-291.9921875,-436.5234375,-187.98828125,0.0
1676922049.8759665,-155.76171875,-486.328125,-552.734375,-121.09375,0.0
1676922049.8797154,-127.44140625,-540.0390625,-592.28515625,-185.05859375,0.0
1676922049.8834643,-58.10546875,-568.359375,-623.046875,-231.93359375,0.0
1676922049.8872132,-81.0546875,-604.98046875,-625.48828125,-194.82421875,0.0
1676922049.8909621,-125.48828125,-759.765625,-761.71875,-118.1640625,0.0
1676922049.894711,-119.62890625,-952.1484375,-958.49609375,-151.85546875,0.0
1676922049.8984601,-78.61328125,-428.22265625,-531.25,-227.5390625,0.0
1676922049.902209,-51.26953125,-219.23828125,-346.19140625,-200.1953125,0.0
1676922049.905958,-112.3046875,-477.05078125,-543.45703125,-142.08984375,0.0
1676922049.9097052,-167.48046875,-399.90234375,-501.46484375,-167.96875,0.0
1676922049.9134521,-108.3984375,-199.70703125,-351.5625,-224.609375,0.0
1676922049.9171994,-76.66015625,-329.1015625,-458.984375,-225.5859375,0.0
1676922049.9209466,-131.8359375,-535.15625,-612.3046875,-165.0390625,0.0
1676922049.9246936,-150.87890625,-428.7109375,-522.94921875,-138.18359375,0.0
1676922049.9284408,-92.7734375,-557.12890625,-645.5078125,-182.6171875,0.0
1676922049.932188,-59.08203125,-724.609375,-779.78515625,-226.07421875,0.0
1676922049.935935,-117.67578125,-874.0234375,-904.78515625,-186.03515625,0.0
1676922049.9396822,-179.6875,-672.36328125,-771.97265625,-131.34765625,0.0
1676922049.9434295,-123.046875,-441.40625,-587.890625,-183.59375,0.0
1676922049.9471765,-52.734375,-781.25,-852.05078125,-234.86328125,0.0
1676922049.9509237,-109.86328125,-800.29296875,-892.578125,-200.68359375,0.0
1676922049.9546757,-155.76171875,-444.3359375,-628.41796875,-137.20703125,0.0
1676922049.958428,-146.97265625,-315.4296875,-528.80859375,-156.73828125,0.0
1676922049.96218,-87.890625,-678.7109375,-791.9921875,-222.16796875,0.0
1676922049.965932,-79.1015625,-833.49609375,-899.90234375,-205.56640625,0.0
1676922049.969684,-146.97265625,-481.93359375,-647.4609375,-161.1328125,0.0
1676922049.9734359,-147.94921875,-622.55859375,-748.53515625,-143.06640625,0.0
1676922049.977188,-110.83984375,-931.640625,-967.7734375,-191.89453125,0.0
1676922049.98094,-63.96484375,-879.39453125,-925.78125,-222.16796875,0.0
1676922049.984692,-89.35546875,-456.54296875,-618.65234375,-150.87890625,0.0
1676922049.9884443,-152.83203125,-312.5,-486.81640625,-117.67578125,0.0
1676922049.9921963,-144.04296875,-501.953125,-626.46484375,-193.84765625,0.0
1676922049.9959483,-115.234375,-471.19140625,-601.07421875,-230.95703125,0.0
1676922049.999808,-114.2578125,-437.98828125,-552.24609375,-163.57421875,0.0
1676922050.0036676,-122.0703125,-599.12109375,-647.4609375,-99.609375,0.0
1676922050.0075274,-139.16015625,-765.625,-787.59765625,-156.25,0.0
1676922050.011387,-119.62890625,-552.734375,-647.94921875,-207.51953125,0.0
1676922050.0152466,-109.375,-311.5234375,-422.36328125,-167.96875,0.0
1676922050.0191064,-153.80859375,-613.28125,-621.58203125,-110.3515625,0.0
1676922050.0229661,-177.734375,-892.08984375,-887.20703125,-127.9296875,0.0
1676922050.0268257,-142.578125,-615.234375,-687.98828125,-230.46875,0.0
1676922050.0306854,-125.9765625,-211.42578125,-340.8203125,-219.7265625,0.0
1676922050.0345452,-117.1875,-374.51171875,-442.3828125,-112.79296875,0.0
1676922050.0384047,-114.2578125,-742.1875,-740.72265625,-101.5625,0.0
1676922050.0422645,-152.83203125,-424.31640625,-500.48828125,-194.82421875,0.0
1676922050.045923,-125.9765625,-95.21484375,-216.30859375,-179.6875,0.0
1676922050.0495815,-132.8125,-339.84375,-393.06640625,-106.93359375,0.0
1676922050.0532398,-182.12890625,-426.26953125,-455.56640625,-74.21875,0.0
1676922050.0568984,-168.45703125,-271.484375,-338.37890625,-121.09375,0.0
1676922050.060557,-139.6484375,-387.6953125,-401.85546875,-193.359375,0.0
1676922050.0642152,-138.18359375,-734.86328125,-687.01171875,-149.90234375,0.0
1676922050.0678737,-178.22265625,-952.1484375,-945.3125,-65.91796875,0.0
1676922050.0715322,-182.6171875,-418.9453125,-478.515625,-132.32421875,0.0
1676922050.0751908,-127.9296875,-74.70703125,-145.99609375,-213.8671875,0.0
1676922050.0788493,-129.39453125,-426.26953125,-428.7109375,-178.7109375,0.0
1676922050.0825076,-146.97265625,-400.87890625,-395.99609375,-109.86328125,0.0
1676922050.0861661,-169.43359375,-60.546875,-138.18359375,-119.62890625,0.0
1676922050.0911567,-167.48046875,-135.7421875,-203.61328125,-186.03515625,0.0
1676922050.096147,-135.7421875,-344.7265625,-360.83984375,-218.26171875,0.0
1676922050.1011376,-159.66796875,-241.2109375,-278.80859375,-142.08984375,0.0
1676922050.1061282,-168.9453125,-57.6171875,-119.62890625,-90.33203125,0.0
1676922050.1111188,-140.625,-165.52734375,-200.68359375,-144.53125,0.0
1676922050.1161094,-132.32421875,-537.109375,-490.234375,-189.453125,0.0
1676922050.1210997,-167.96875,-603.02734375,-528.80859375,-148.92578125,0.0
1676922050.1260903,-205.078125,-374.51171875,-330.56640625,-104.98046875,0.0
1676922050.1310809,-179.19921875,-261.71875,-234.86328125,-148.4375,0.0
1676922050.1360712,-151.3671875,-724.12109375,-665.52734375,-191.89453125,0.0
1676922050.1410618,-185.05859375,-604.4921875,-596.6796875,-194.82421875,0.0
1676922050.1460524,-200.68359375,-38.57421875,-85.9375,-104.00390625,0.0
1676922050.149793,-194.3359375,-258.30078125,-258.7890625,-114.2578125,0.0
1676922050.1535332,-156.73828125,-367.1875,-361.81640625,-208.984375,0.0
1676922050.1572738,-146.484375,-142.08984375,-203.125,-193.359375,0.0
1676922050.1610143,-189.453125,-91.30859375,-154.296875,-120.60546875,0.0
1676922050.1647546,-185.546875,-365.234375,-346.19140625,-98.14453125,0.0
1676922050.1684952,-161.62109375,-666.015625,-590.33203125,-159.66796875,0.0
1676922050.1722357,-170.41015625,-459.9609375,-458.49609375,-215.33203125,0.0
1676922050.175976,-168.9453125,-111.81640625,-161.1328125,-154.78515625,0.0
1676922050.1797166,-158.69140625,-504.8828125,-497.55859375,-73.2421875,0.0
1676922050.1834571,-160.15625,-896.97265625,-868.65234375,-134.27734375,0.0
1676922050.1871974,-119.62890625,-488.76953125,-513.18359375,-210.9375,0.0
1676922050.190938,-127.9296875,-213.8671875,-284.1796875,-166.50390625,0.0
1676922050.1946845,-186.03515625,-533.69140625,-510.25390625,-100.5859375,0.0
1676922050.198431,-198.73046875,-558.59375,-532.71484375,-154.296875,0.0
1676922050.2021775,-156.73828125,-221.6796875,-293.9453125,-237.3046875,0.0
1676922050.205924,-156.73828125,-288.0859375,-348.6328125,-197.75390625,0.0
1676922050.2096705,-203.61328125,-474.12109375,-479.00390625,-125.0,0.0
1676922050.213417,-210.9375,-647.94921875,-617.67578125,-153.3203125,0.0
1676922050.2171636,-173.33984375,-573.2421875,-596.19140625,-233.88671875,0.0
1676922050.22091,-157.2265625,-470.703125,-524.90234375,-239.74609375,0.0
1676922050.2246566,-215.8203125,-824.21875,-832.03125,-141.6015625,0.0
1676922050.228403,-253.90625,-664.55078125,-724.609375,-129.8828125,0.0
1676922050.2321496,-213.37890625,-280.76171875,-421.875,-251.46484375,0.0
1676922050.235896,-183.59375,-493.65234375,-599.12109375,-276.85546875,0.0
1676922050.23976,-195.80078125,-720.21484375,-750.0,-193.359375,0.0
1676922050.2436237,-224.609375,-677.24609375,-713.8671875,-175.29296875,0.0
1676922050.2474875,-240.234375,-460.44921875,-554.6875,-230.46875,0.0
1676922050.2513514,-167.96875,-624.51171875,-695.3125,-251.46484375,0.0
1676922050.2552152,-194.82421875,-882.8125,-904.78515625,-193.359375,0.0
1676922050.259079,-312.5,-796.38671875,-818.359375,-151.85546875,0.0
1676922050.2629426,-278.3203125,-809.5703125,-839.84375,-222.65625,0.0
1676922050.2668064,-209.9609375,-932.12890625,-950.1953125,-270.01953125,0.0
1676922050.2706702,-223.6328125,-888.671875,-930.6640625,-225.09765625,0.0
1676922050.274534,-263.18359375,-530.76171875,-675.78125,-153.3203125,0.0
1676922050.2783978,-257.8125,-467.28515625,-626.953125,-145.99609375,0.0
1676922050.2822616,-218.26171875,-659.66796875,-809.08203125,-219.23828125,0.0
1676922050.2871633,-220.703125,-604.4921875,-776.3671875,-235.3515625,0.0
1676922050.292065,-248.53515625,-443.84765625,-641.6015625,-156.25,0.0
1676922050.2969666,-265.13671875,-564.94140625,-739.2578125,-135.7421875,0.0
1676922050.301868,-238.28125,-868.65234375,-948.2421875,-199.21875,0.0
1676922050.3067696,-216.30859375,-898.4375,-990.72265625,-224.609375,0.0
1676922050.3116713,-249.0234375,-875.9765625,-974.609375,-148.92578125,0.0
1676922050.316573,-260.7421875,-935.546875,-995.1171875,-125.48828125,0.0
1676922050.3214746,-233.88671875,-1000.0,-1000.0,-151.85546875,0.0
1676922050.326376,-232.421875,-878.41796875,-937.01171875,-201.171875,0.0
1676922050.3312776,-239.74609375,-504.8828125,-740.72265625,-219.23828125,0.0
1676922050.3361793,-244.62890625,-659.1796875,-833.984375,-109.375,0.0
1676922050.341081,-250.48828125,-793.9453125,-923.33984375,-124.51171875,0.0
1676922050.3435767,-201.171875,-539.55078125,-777.34375,-221.6796875,0.0
1676922050.3460724,-191.89453125,-512.20703125,-766.11328125,-195.3125,0.0
1676922050.3485682,-228.515625,-726.5625,-890.13671875,-103.515625,0.0
1676922050.351064,-241.2109375,-771.484375,-926.7578125,-113.28125,0.0
1676922050.3535597,-219.7265625,-613.76953125,-873.53515625,-215.8203125,0.0
1676922050.3560555,-182.6171875,-854.00390625,-977.05078125,-203.61328125,0.0
1676922050.3585513,-191.40625,-1000.0,-1000.0,-124.51171875,0.0
1676922050.361047,-225.5859375,-906.73828125,-966.30859375,-123.046875,0.0
1676922050.3635428,-212.40234375,-650.390625,-848.6328125,-197.75390625,0.0
1676922050.3660386,-199.70703125,-550.78125,-813.96484375,-231.4453125,0.0
1676922050.3685343,-200.1953125,-822.75390625,-946.2890625,-130.859375,0.0
1676922050.37103,-212.40234375,-985.83984375,-1000.0,-83.49609375,0.0
1676922050.374789,-244.62890625,-697.75390625,-895.99609375,-179.19921875,0.0
1676922050.378548,-207.51953125,-658.69140625,-897.94921875,-220.703125,0.0
1676922050.3823068,-212.890625,-873.53515625,-1000.0,-201.66015625,0.0
1676922050.3860657,-257.32421875,-762.20703125,-936.03515625,-115.72265625,0.0
1676922050.3898246,-260.25390625,-702.1484375,-913.0859375,-130.859375,0.0
1676922050.3935838,-223.6328125,-950.1953125,-1000.0,-220.21484375,0.0
1676922050.3973427,-225.5859375,-970.21484375,-1000.0,-215.33203125,0.0
1676922050.4011016,-243.1640625,-753.90625,-965.33203125,-149.4140625,0.0
1676922050.4048605,-259.765625,-682.6171875,-962.890625,-126.46484375,0.0
1676922050.4086194,-257.8125,-851.5625,-1000.0,-220.703125,0.0
1676922050.4123783,-240.72265625,-1000.0,-1000.0,-250.48828125,0.0
1676922050.4161372,-272.4609375,-895.5078125,-1000.0,-172.36328125,0.0
1676922050.4198806,-276.85546875,-670.41015625,-975.09765625,-137.20703125,0.0
1676922050.423624,-237.3046875,-820.80078125,-976.5625,-190.91796875,0.0
1676922050.4273677,-209.9609375,-936.5234375,-1000.0,-247.55859375,0.0
1676922050.431111,-204.1015625,-729.00390625,-984.86328125,-194.82421875,0.0
1676922050.4348545,-244.140625,-721.6796875,-975.5859375,-105.46875,0.0
1676922050.4385982,-264.16015625,-933.10546875,-999.51171875,-135.25390625,0.0
1676922050.4423416,-217.7734375,-988.76953125,-1000.0,-220.21484375,0.0
1676922050.446085,-225.5859375,-853.515625,-999.51171875,-201.171875,0.0
1676922050.4498284,-237.3046875,-751.46484375,-1000.0,-133.30078125,0.0
1676922050.4535718,-233.3984375,-905.76171875,-1000.0,-162.109375,0.0
1676922050.4573154,-232.421875,-914.55078125,-1000.0,-250.9765625,0.0
1676922050.4610589,-214.35546875,-714.84375,-999.0234375,-233.88671875,0.0
1676922050.466056,-234.86328125,-831.54296875,-998.046875,-126.46484375,0.0
1676922050.4710531,-259.27734375,-998.046875,-1000.0,-100.09765625,0.0
1676922050.4760504,-240.72265625,-902.34375,-1000.0,-207.51953125,0.0
1676922050.4810476,-230.95703125,-730.95703125,-999.51171875,-251.953125,0.0
1676922050.486045,-235.83984375,-797.36328125,-998.046875,-167.48046875,0.0
1676922050.4910421,-269.04296875,-997.55859375,-1000.0,-112.79296875,0.0
1676922050.4960392,-280.76171875,-995.60546875,-1000.0,-192.87109375,0.0
1676922050.5010364,-250.0,-822.265625,-1000.0,-253.90625,0.0
1676922050.5060337,-256.34765625,-842.7734375,-1000.0,-156.25,0.0
1676922050.5110307,-297.36328125,-1000.0,-1000.0,-90.8203125,0.0
1676922050.516028,-302.24609375,-940.4296875,-1000.0,-176.26953125,0.0
1676922050.5210252,-242.1875,-783.203125,-1000.0,-249.0234375,0.0
1676922050.5248466,-238.76953125,-866.2109375,-1000.0,-197.75390625,0.0
1676922050.5286682,-280.76171875,-940.4296875,-1000.0,-125.9765625,0.0
1676922050.5324895,-286.1328125,-808.10546875,-1000.0,-145.5078125,0.0
1676922050.536311,-257.8125,-902.83203125,-1000.0,-228.02734375,0.0
1676922050.5401325,-239.2578125,-1000.0,-1000.0,-218.26171875,0.0
1676922050.543954,-274.4140625,-996.58203125,-1000.0,-136.23046875,0.0
1676922050.5477753,-298.33984375,-1000.0,-1000.0,-125.0,0.0
1676922050.5515969,-253.41796875,-950.68359375,-1000.0,-174.8046875,0.0
1676922050.5554183,-230.46875,-966.796875,-1000.0,-202.63671875,0.0
1676922050.5592396,-265.625,-962.890625,-1000.0,-153.80859375,0.0
1676922050.5630612,-276.85546875,-840.33203125,-1000.0,-83.984375,0.0
1676922050.5668826,-268.06640625,-847.65625,-1000.0,-144.53125,0.0
1676922050.570557,-249.51171875,-975.5859375,-1000.0,-229.4921875,0.0
1676922050.5742316,-254.8828125,-1000.0,-1000.0,-199.21875,0.0
1676922050.5779061,-275.390625,-922.8515625,-1000.0,-136.71875,0.0
1676922050.5815806,-253.90625,-930.6640625,-1000.0,-154.296875,0.0
1676922050.5852551,-229.98046875,-1000.0,-1000.0,-210.44921875,0.0
1676922050.5889297,-228.515625,-1000.0,-1000.0,-206.0546875,0.0
1676922050.5926042,-223.6328125,-998.53515625,-1000.0,-158.203125,0.0
1676922050.5962787,-250.0,-996.09375,-1000.0,-169.921875,0.0
1676922050.5999532,-229.00390625,-1000.0,-1000.0,-204.58984375,0.0
1676922050.6036277,-218.26171875,-967.28515625,-1000.0,-227.05078125,0.0
1676922050.6073022,-241.69921875,-818.359375,-1000.0,-191.40625,0.0
1676922050.6109767,-233.88671875,-891.6015625,-1000.0,-135.7421875,0.0
1676922050.6147275,-201.66015625,-965.8203125,-1000.0,-205.56640625,0.0
1676922050.618478,-173.828125,-835.44921875,-1000.0,-253.41796875,0.0
1676922050.6222289,-206.54296875,-745.60546875,-1000.0,-170.41015625,0.0
1676922050.6259797,-250.48828125,-858.88671875,-1000.0,-99.12109375,0.0
1676922050.6297302,-232.421875,-986.328125,-1000.0,-163.57421875,0.0
1676922050.633481,-162.59765625,-979.98046875,-1000.0,-232.91015625,0.0
1676922050.6372318,-172.8515625,-997.0703125,-1000.0,-219.7265625,0.0
1676922050.6409824,-215.33203125,-1000.0,-1000.0,-127.9296875,0.0
1676922050.6447332,-223.6328125,-947.75390625,-1000.0,-140.13671875,0.0
1676922050.648484,-193.84765625,-875.0,-999.51171875,-244.62890625,0.0
1676922050.6522346,-181.640625,-973.14453125,-996.58203125,-199.70703125,0.0
1676922050.6559854,-204.1015625,-1000.0,-1000.0,-111.81640625,0.0
1676922050.6609805,-221.19140625,-857.421875,-972.16796875,-123.046875,0.0
1676922050.6659756,-205.56640625,-653.80859375,-889.6484375,-195.80078125,0.0
1676922050.6709707,-184.5703125,-740.234375,-933.10546875,-210.9375,0.0
1676922050.6759658,-208.984375,-891.11328125,-1000.0,-134.765625,0.0
1676922050.680961,-232.421875,-803.7109375,-966.30859375,-114.2578125,0.0
1676922050.685956,-195.80078125,-901.3671875,-983.3984375,-167.96875,0.0
1676922050.6909509,-166.50390625,-1000.0,-1000.0,-207.51953125,0.0
1676922050.695946,-205.56640625,-1000.0,-1000.0,-167.96875,0.0
1676922050.700941,-240.72265625,-836.9140625,-943.359375,-124.51171875,0.0
1676922050.7059362,-219.23828125,-625.0,-860.83984375,-174.8046875,0.0
1676922050.7109313,-189.453125,-785.64453125,-937.5,-223.14453125,0.0
1676922050.7159264,-206.0546875,-900.390625,-996.58203125,-169.43359375,0.0
1676922050.718534,-235.3515625,-897.4609375,-990.234375,-80.56640625,0.0
1676922050.7211413,-251.46484375,-922.36328125,-996.09375,-101.07421875,0.0
1676922050.723749,-214.35546875,-906.73828125,-988.28125,-185.546875,0.0
1676922050.7263565,-200.1953125,-914.0625,-998.53515625,-158.69140625,0.0
1676922050.728964,-230.95703125,-786.1328125,-986.81640625,-72.75390625,0.0
1676922050.7315717,-236.81640625,-930.17578125,-992.67578125,-80.078125,0.0
1676922050.734179,-220.703125,-1000.0,-1000.0,-140.13671875,0.0
1676922050.7367866,-210.9375,-916.50390625,-1000.0,-154.296875,0.0
1676922050.7393942,-213.8671875,-700.68359375,-930.6640625,-101.07421875,0.0
1676922050.7420015,-179.6875,-653.80859375,-888.671875,-50.78125,0.0
1676922050.744609,-191.89453125,-910.64453125,-982.421875,-87.890625,0.0
1676922050.7472167,-198.2421875,-945.80078125,-1000.0,-150.87890625,0.0
1676922050.7508698,-168.45703125,-684.5703125,-947.265625,-146.484375,0.0
1676922050.754523,-209.9609375,-712.890625,-952.63671875,-73.73046875,0.0
1676922050.758176,-216.796875,-901.3671875,-1000.0,-111.81640625,0.0
1676922050.7618291,-173.33984375,-940.91796875,-1000.0,-193.84765625,0.0
1676922050.7654824,-161.1328125,-969.23828125,-999.51171875,-146.97265625,0.0
1676922050.7691355,-187.01171875,-985.83984375,-999.51171875,-61.03515625,0.0
1676922050.7727885,-195.80078125,-1000.0,-1000.0,-64.94140625,0.0
1676922050.7764418,-165.52734375,-920.41015625,-992.67578125,-160.64453125,0.0
1676922050.7800949,-164.55078125,-684.5703125,-943.84765625,-197.265625,0.0
1676922050.783748,-173.828125,-762.20703125,-957.51953125,-101.5625,0.0
1676922050.7874012,-196.77734375,-885.7421875,-995.1171875,-74.21875,0.0
1676922050.7910542,-209.47265625,-714.35546875,-950.1953125,-170.41015625,0.0
1676922050.7948012,-179.6875,-610.3515625,-897.94921875,-192.3828125,0.0
1676922050.7985482,-189.94140625,-805.6640625,-950.1953125,-113.76953125,0.0
1676922050.8022952,-184.5703125,-905.76171875,-987.79296875,-61.03515625,0.0
1676922050.8060422,-156.73828125,-667.48046875,-901.85546875,-120.1171875,0.0
1676922050.8097892,-148.92578125,-664.0625,-907.2265625,-187.01171875,0.0
1676922050.8135362,-155.76171875,-901.85546875,-991.2109375,-126.46484375,0.0
1676922050.8172832,-187.5,-1000.0,-1000.0,-79.1015625,0.0
1676922050.8210301,-187.5,-924.8046875,-999.0234375,-119.140625,0.0
1676922050.8247771,-145.99609375,-672.36328125,-902.34375,-187.01171875,0.0
1676922050.828524,-144.04296875,-814.94140625,-931.15234375,-142.08984375,0.0
1676922050.832271,-186.5234375,-975.5859375,-1000.0,-66.89453125,0.0
1676922050.836018,-193.84765625,-653.3203125,-797.36328125,-121.09375,0.0
1676922050.842263,-158.69140625,-555.17578125,-732.91015625,-186.5234375,0.0
1676922050.8485076,-148.92578125,-757.8125,-899.90234375,-196.2890625,0.0
1676922050.8547525,-177.24609375,-638.18359375,-775.390625,-121.09375,0.0
1676922050.8609972,-189.94140625,-453.61328125,-605.46875,-82.51953125,0.0
1676922050.867242,-164.55078125,-549.8046875,-664.0625,-159.66796875,0.0
1676922050.873487,-119.140625,-868.65234375,-888.18359375,-181.15234375,0.0
1676922050.8797317,-130.859375,-808.59375,-828.61328125,-135.25390625,0.0
1676922050.8859766,-197.265625,-442.87109375,-547.8515625,-79.1015625,0.0
1676922050.8922212,-183.10546875,-506.8359375,-593.75,-117.67578125,0.0
1676922050.898466,-143.06640625,-933.10546875,-936.03515625,-193.359375,0.0
1676922050.9047108,-165.52734375,-858.3984375,-880.859375,-170.8984375,0.0
1676922050.9109557,-192.3828125,-367.1875,-474.609375,-115.234375,0.0
1676922050.913454,-193.359375,-540.52734375,-602.5390625,-124.0234375,0.0
1676922050.9159527,-142.578125,-819.82421875,-839.84375,-166.9921875,0.0
1676922050.918451,-135.25390625,-500.9765625,-571.77734375,-185.546875,0.0
1676922050.9209495,-162.109375,-306.15234375,-400.390625,-129.8828125,0.0
1676922050.923448,-159.1796875,-562.5,-597.65625,-100.09765625,0.0
1676922050.9259465,-147.4609375,-894.53125,-856.4453125,-170.41015625,0.0
1676922050.9284449,-128.90625,-687.98828125,-711.42578125,-211.9140625,0.0
1676922050.9309435,-146.484375,-389.16015625,-466.30859375,-131.8359375,0.0
1676922050.9334419,-149.4140625,-674.31640625,-679.19921875,-68.84765625,0.0
1676922050.9359403,-131.34765625,-758.30078125,-763.671875,-151.85546875,0.0
1676922050.938439,-107.91015625,-441.40625,-543.45703125,-201.171875,0.0
1676922050.9409373,-119.62890625,-411.1328125,-503.41796875,-140.13671875,0.0
1676922050.944792,-157.2265625,-788.57421875,-805.6640625,-92.7734375,0.0
1676922050.948647,-154.296875,-884.765625,-905.76171875,-130.37109375,0.0
1676922050.9525018,-105.46875,-450.1953125,-549.31640625,-189.453125,0.0
1676922050.9563568,-93.26171875,-418.45703125,-510.7421875,-162.59765625,0.0
1676922050.9602115,-138.18359375,-707.03125,-716.30859375,-100.5859375,0.0
1676922050.9640665,-150.390625,-828.125,-800.29296875,-126.953125,0.0
1676922050.9679213,-85.9375,-744.140625,-747.0703125,-189.94140625,0.0
1676922050.971776,-66.40625,-660.15625,-689.453125,-176.26953125,0.0
1676922050.975631,-128.90625,-850.5859375,-861.81640625,-122.55859375,0.0
1676922050.9794858,-118.65234375,-686.5234375,-732.421875,-116.69921875,0.0
1676922050.9833407,-92.28515625,-300.78125,-394.53125,-178.7109375,0.0
1676922050.9871955,-77.1484375,-508.7890625,-559.5703125,-213.37890625,0.0
1676922050.9908893,-101.07421875,-635.7421875,-651.3671875,-124.51171875,0.0
1676922050.9945831,-134.765625,-378.90625,-450.68359375,-90.8203125,0.0
1676922050.9982772,-110.3515625,-301.26953125,-390.625,-192.87109375,0.0
1676922051.001971,-81.0546875,-653.80859375,-652.83203125,-220.21484375,0.0
1676922051.0056648,-94.7265625,-830.56640625,-784.1796875,-147.94921875,0.0
1676922051.009359,-136.23046875,-711.42578125,-685.546875,-86.42578125,0.0
1676922051.0130527,-125.48828125,-613.76953125,-621.58203125,-133.7890625,0.0
1676922051.0167465,-52.734375,-716.30859375,-743.65234375,-186.5234375,0.0
1676922051.0204403,-85.9375,-913.0859375,-919.43359375,-161.62109375,0.0
1676922051.0241342,-138.18359375,-470.703125,-529.296875,-106.93359375,0.0
1676922051.0278282,-124.51171875,-299.8046875,-368.1640625,-106.93359375,0.0
1676922051.031522,-98.14453125,-505.859375,-541.50390625,-202.1484375,0.0
1676922051.0352387,-84.9609375,-482.91015625,-532.2265625,-213.8671875,0.0
1676922051.0389557,-104.4921875,-332.03125,-398.92578125,-135.7421875,0.0
1676922051.0426724,-128.90625,-367.67578125,-419.43359375,-98.14453125,0.0
1676922051.046389,-120.1171875,-515.13671875,-535.15625,-159.1796875,0.0
1676922051.0501058,-91.796875,-471.19140625,-523.4375,-187.5,0.0
1676922051.0538225,-101.07421875,-613.76953125,-637.6953125,-109.375,0.0
1676922051.0575395,-131.8359375,-777.83203125,-729.00390625,-80.56640625,0.0
1676922051.0612562,-111.81640625,-931.15234375,-892.578125,-120.60546875,0.0
1676922051.0649729,-78.125,-865.72265625,-903.3203125,-187.98828125,0.0
1676922051.0686898,-93.26171875,-351.07421875,-480.46875,-148.4375,0.0
1676922051.0724065,-128.41796875,-459.47265625,-542.48046875,-41.015625,0.0
1676922051.0761232,-136.71875,-658.69140625,-706.54296875,-93.26171875,0.0
1676922051.0798607,-92.28515625,-394.53125,-527.34375,-202.63671875,0.0
1676922051.0835984,-88.8671875,-301.26953125,-463.8671875,-194.82421875,0.0
1676922051.0873358,-121.58203125,-556.15234375,-643.06640625,-83.0078125,0.0
1676922051.0910733,-128.90625,-637.6953125,-699.70703125,-81.0546875,0.0
1676922051.094811,-106.93359375,-412.59765625,-528.80859375,-174.8046875,0.0
1676922051.0985484,-94.23828125,-561.03515625,-628.41796875,-178.7109375,0.0
1676922051.1022859,-93.26171875,-880.859375,-877.44140625,-101.5625,0.0
1676922051.1060236,-104.00390625,-875.0,-914.0625,-72.75390625,0.0
1676922051.109761,-125.48828125,-478.02734375,-621.09375,-129.39453125,0.0
1676922051.1134984,-85.44921875,-443.84765625,-567.87109375,-160.64453125,0.0
1676922051.1172361,-78.61328125,-846.6796875,-871.09375,-113.28125,0.0
1676922051.1209736,-125.9765625,-745.1171875,-802.24609375,-73.2421875,0.0
1676922051.1247199,-118.65234375,-280.2734375,-439.453125,-140.625,0.0
1676922051.1284664,-51.7578125,-336.42578125,-487.79296875,-196.77734375,0.0
1676922051.1322126,-51.7578125,-571.77734375,-665.0390625,-137.6953125,0.0
1676922051.1359591,-111.328125,-437.98828125,-537.59765625,-76.66015625,0.0
1676922051.1397054,-99.609375,-315.91796875,-437.98828125,-103.02734375,0.0
1676922051.1434517,-55.17578125,-593.26171875,-663.57421875,-151.85546875,0.0
1676922051.1471982,-76.66015625,-930.17578125,-936.5234375,-150.87890625,0.0
1676922051.1509445,-119.62890625,-711.9140625,-768.5546875,-101.5625,0.0
1676922051.154691,-102.05078125,-276.85546875,-423.828125,-93.75,0.0
1676922051.1584373,-60.05859375,-406.25,-530.76171875,-161.62109375,0.0
1676922051.1621838,-47.8515625,-594.23828125,-675.78125,-175.29296875,0.0
1676922051.16593,-83.984375,-458.0078125,-564.453125,-120.1171875,0.0
1676922051.1697874,-119.140625,-407.71484375,-498.046875,-94.23828125,0.0
1676922051.173645,-84.9609375,-744.62890625,-757.8125,-144.53125,0.0
1676922051.1775024,-51.7578125,-778.80859375,-824.21875,-185.546875,0.0
1676922051.1813598,-91.796875,-319.82421875,-460.44921875,-124.0234375,0.0
1676922051.1852174,-107.421875,-277.34375,-395.99609375,-54.19921875,0.0
1676922051.1890748,-71.77734375,-773.4375,-788.57421875,-97.16796875,0.0
1676922051.1929321,-71.2890625,-843.26171875,-870.60546875,-174.31640625,0.0
1676922051.1967897,-62.5,-346.19140625,-453.125,-154.296875,0.0
1676922051.200647,-66.89453125,-170.41015625,-297.36328125,-46.875,0.0
1676922051.2045045,-115.72265625,-629.8828125,-674.8046875,-68.84765625,0.0
1676922051.208362,-112.3046875,-705.56640625,-744.140625,-206.54296875,0.0
1676922051.2122195,-62.01171875,-205.078125,-348.6328125,-213.37890625,0.0
1676922051.2171135,-79.1015625,-214.35546875,-338.37890625,-124.51171875,0.0
1676922051.2220078,-114.74609375,-419.43359375,-490.72265625,-87.40234375,0.0
1676922051.226902,-88.37890625,-364.74609375,-461.42578125,-145.99609375,0.0
1676922051.231796,-54.19921875,-365.72265625,-464.35546875,-189.453125,0.0
1676922051.23669,-58.59375,-532.71484375,-563.4765625,-92.7734375,0.0
1676922051.2415843,-96.6796875,-864.74609375,-846.6796875,-21.484375,0.0
1676922051.2464786,-105.95703125,-805.17578125,-854.98046875,-124.51171875,0.0
1676922051.2513726,-85.9375,-271.97265625,-433.59375,-195.80078125,0.0
1676922051.2562666,-74.21875,-394.53125,-515.13671875,-140.625,0.0
1676922051.2611609,-98.14453125,-587.890625,-660.64453125,-80.56640625,0.0
1676922051.266055,-91.796875,-346.19140625,-476.5625,-118.1640625,0.0
1676922051.2709491,-57.6171875,-198.2421875,-377.44140625,-191.89453125,0.0
1676922051.2746992,-49.8046875,-440.91796875,-566.89453125,-147.4609375,0.0
1676922051.2784493,-94.23828125,-569.3359375,-652.34375,-69.3359375,0.0
1676922051.2821994,-119.140625,-305.17578125,-452.63671875,-102.5390625,0.0
1676922051.2859495,-72.75390625,-228.02734375,-405.76171875,-167.48046875,0.0
1676922051.2896996,-54.6875,-502.9296875,-626.46484375,-171.875,0.0
1676922051.2934494,-91.30859375,-791.015625,-827.63671875,-103.02734375,0.0
1676922051.2971995,-104.4921875,-752.9296875,-782.2265625,-85.9375,0.0
1676922051.3009496,-96.19140625,-534.66796875,-624.0234375,-145.99609375,0.0
1676922051.3046997,-85.44921875,-674.31640625,-744.140625,-156.25,0.0
1676922051.3084497,-110.3515625,-944.3359375,-963.8671875,-118.1640625,0.0
1676922051.3121998,-137.6953125,-465.8203125,-581.54296875,-105.95703125,0.0
1676922051.31595,-94.7265625,-289.0625,-426.7578125,-128.41796875,0.0
1676922051.3197086,-61.5234375,-467.28515625,-580.078125,-185.05859375,0.0
1676922051.3234673,-89.35546875,-368.1640625,-501.46484375,-166.50390625,0.0
1676922051.3272257,-106.93359375,-198.73046875,-362.3046875,-73.73046875,0.0
1676922051.3309844,-117.67578125,-283.69140625,-417.96875,-90.8203125,0.0
1676922051.334743,-82.03125,-477.05078125,-567.87109375,-181.15234375,0.0
1676922051.3385015,-68.84765625,-600.09765625,-648.92578125,-181.15234375,0.0
1676922051.3422601,-123.53515625,-569.3359375,-598.6328125,-93.26171875,0.0
1676922051.3460188,-138.18359375,-451.171875,-513.18359375,-93.75,0.0
1676922051.3497775,-96.19140625,-771.97265625,-794.43359375,-177.734375,0.0
1676922051.3535361,-81.0546875,-788.0859375,-805.17578125,-218.75,0.0
1676922051.3572946,-116.2109375,-382.8125,-436.03515625,-148.92578125,0.0
1676922051.3610532,-118.65234375,-390.13671875,-431.640625,-107.421875,0.0
1676922051.3649,-83.49609375,-675.78125,-679.6875,-157.2265625,0.0
1676922051.368747,-88.8671875,-395.99609375,-475.5859375,-199.70703125,0.0
1676922051.3725939,-103.515625,-219.23828125,-308.10546875,-168.9453125,0.0
1676922051.3764408,-126.953125,-410.15625,-432.12890625,-105.46875,0.0
1676922051.3802876,-89.84375,-435.546875,-458.984375,-128.90625,0.0
1676922051.3841345,-45.41015625,-421.38671875,-457.03125,-221.19140625,0.0
1676922051.3879814,-87.40234375,-579.1015625,-558.59375,-207.03125,0.0
1676922051.3918283,-124.51171875,-764.6484375,-704.1015625,-100.09765625,0.0
1676922051.3956752,-137.20703125,-605.46875,-608.3984375,-123.53515625,0.0
1676922051.399522,-110.3515625,-229.98046875,-333.984375,-201.171875,0.0
1676922051.403369,-98.6328125,-141.6015625,-258.30078125,-187.98828125,0.0
1676922051.4072158,-126.46484375,-561.5234375,-577.1484375,-95.21484375,0.0
1676922051.4109712,-136.71875,-803.7109375,-756.8359375,-92.7734375,0.0
1676922051.4147265,-115.234375,-407.71484375,-436.5234375,-192.87109375,0.0
1676922051.4184818,-90.33203125,-249.51171875,-318.359375,-225.09765625,0.0
1676922051.4222372,-118.1640625,-528.80859375,-528.80859375,-149.4140625,0.0
1676922051.4259925,-173.828125,-500.0,-490.72265625,-104.4921875,0.0
1676922051.429748,-154.78515625,-437.98828125,-443.84765625,-162.59765625,0.0
1676922051.4335034,-96.19140625,-574.21875,-546.875,-196.77734375,0.0
1676922051.4372587,-128.90625,-814.94140625,-789.0625,-119.62890625,0.0
1676922051.441014,-198.73046875,-577.63671875,-625.48828125,-81.0546875,0.0
1676922051.4447694,-168.9453125,-95.703125,-198.2421875,-176.7578125,0.0
1676922051.4485247,-111.328125,-326.66015625,-367.1875,-226.07421875,0.0
1676922051.45228,-137.6953125,-470.703125,-479.98046875,-158.203125,0.0
1676922051.4559252,-177.734375,-217.7734375,-280.2734375,-88.8671875,0.0
1676922051.4595704,-177.734375,-120.60546875,-208.49609375,-129.8828125,0.0
1676922051.4632158,-143.5546875,-365.234375,-409.1796875,-194.82421875,0.0
1676922051.466861,-119.62890625,-604.98046875,-591.796875,-198.2421875,0.0
1676922051.4705062,-154.78515625,-485.83984375,-506.34765625,-124.0234375,0.0
1676922051.4741514,-162.109375,-454.58984375,-448.73046875,-95.703125,0.0
1676922051.4777966,-134.765625,-774.90234375,-730.95703125,-161.1328125,0.0
1676922051.4814417,-146.484375,-984.86328125,-981.93359375,-197.75390625,0.0
1676922051.485087,-199.21875,-519.53125,-581.0546875,-157.71484375,0.0
1676922051.4887323,-200.1953125,-167.48046875,-272.4609375,-84.9609375,0.0
1676922051.4923775,-163.0859375,-374.0234375,-433.10546875,-158.203125,0.0
1676922051.4960227,-147.94921875,-366.69921875,-434.08203125,-238.28125,0.0
1676922051.5010245,-152.34375,-169.921875,-276.85546875,-182.12890625,0.0
1676922051.506026,-170.8984375,-237.79296875,-304.6875,-80.56640625,0.0
1676922051.5110278,-156.25,-431.15234375,-468.75,-116.2109375,0.0
1676922051.5160294,-104.00390625,-337.890625,-414.55078125,-224.12109375,0.0
1676922051.5210311,-119.140625,-252.44140625,-365.234375,-175.29296875,0.0
1676922051.526033,-168.45703125,-502.44140625,-534.66796875,-93.26171875,0.0
1676922051.5310345,-190.4296875,-914.0625,-885.7421875,-118.65234375,0.0
1676922051.5360363,-168.9453125,-750.0,-787.109375,-217.28515625,0.0
1676922051.5410378,-130.859375,-196.77734375,-312.5,-219.23828125,0.0
1676922051.5460396,-164.0625,-291.015625,-360.3515625,-128.90625,0.0
1676922051.5510411,-176.26953125,-614.74609375,-602.5390625,-88.8671875,0.0
1676922051.556043,-138.671875,-388.671875,-451.66015625,-170.41015625,0.0
1676922051.5597897,-109.86328125,-115.234375,-253.90625,-203.61328125,0.0
1676922051.5635362,-145.5078125,-357.421875,-431.640625,-120.1171875,0.0
1676922051.567283,-199.21875,-460.9375,-500.48828125,-98.6328125,0.0
1676922051.5710294,-180.6640625,-202.63671875,-310.546875,-179.19921875,0.0
1676922051.5747762,-142.578125,-256.34765625,-376.46484375,-225.09765625,0.0
1676922051.5785227,-156.25,-617.1875,-641.6015625,-171.38671875,0.0
1676922051.5822694,-191.89453125,-648.92578125,-639.6484375,-120.60546875,0.0
1676922051.5860162,-187.98828125,-295.41015625,-395.01953125,-115.72265625,0.0
1676922051.5897627,-127.44140625,-196.77734375,-323.73046875,-186.03515625,0.0
1676922051.5935094,-112.79296875,-614.74609375,-659.66796875,-187.98828125,0.0
1676922051.597256,-187.98828125,-1000.0,-1000.0,-83.49609375,0.0
1676922051.6010027,-211.42578125,-661.1328125,-692.87109375,-103.515625,0.0
1676922051.6048048,-157.2265625,-270.5078125,-379.39453125,-186.5234375,0.0
1676922051.608607,-147.4609375,-478.02734375,-555.17578125,-202.63671875,0.0
1676922051.612409,-183.10546875,-437.01171875,-503.41796875,-115.234375,0.0
1676922051.6162114,-183.10546875,-228.02734375,-341.796875,-79.58984375,0.0
1676922051.6200135,-147.4609375,-308.59375,-425.78125,-157.71484375,0.0
1676922051.6238155,-118.1640625,-653.80859375,-688.96484375,-208.49609375,0.0
1676922051.6276178,-152.34375,-663.57421875,-681.15234375,-163.0859375,0.0
1676922051.63142,-180.6640625,-327.1484375,-412.59765625,-102.05078125,0.0
1676922051.6352222,-147.4609375,-323.2421875,-386.71875,-113.76953125,0.0
1676922051.6390243,-102.05078125,-797.36328125,-797.36328125,-176.26953125,0.0
1676922051.6428266,-125.48828125,-657.2265625,-713.8671875,-190.91796875,0.0
1676922051.6466286,-153.3203125,-209.47265625,-328.61328125,-100.5859375,0.0
1676922051.6503193,-141.6015625,-490.234375,-513.671875,-90.8203125,0.0
1676922051.6540098,-132.32421875,-672.36328125,-652.83203125,-183.59375,0.0
1676922051.6577005,-131.8359375,-330.56640625,-412.109375,-172.36328125,0.0
1676922051.661391,-134.27734375,-171.38671875,-277.34375,-101.07421875,0.0
1676922051.6650817,-160.15625,-477.5390625,-495.1171875,-82.51953125,0.0
1676922051.6687722,-138.671875,-812.01171875,-744.140625,-130.37109375,0.0
1676922051.672463,-103.02734375,-543.45703125,-547.8515625,-173.33984375,0.0
1676922051.6761537,-130.859375,-229.00390625,-296.38671875,-121.09375,0.0
1676922051.6798441,-158.203125,-602.5390625,-623.53515625,-59.08203125,0.0
1676922051.6835349,-153.3203125,-893.06640625,-897.94921875,-121.58203125,0.0
1676922051.6872253,-101.5625,-356.93359375,-418.9453125,-194.82421875,0.0
1676922051.690916,-126.46484375,-187.98828125,-252.9296875,-145.5078125,0.0
1676922051.6946793,-171.875,-384.27734375,-407.71484375,-80.078125,0.0
1676922051.6984422,-145.99609375,-308.59375,-344.7265625,-82.51953125,0.0
1676922051.7022054,-116.69921875,-167.48046875,-240.234375,-154.296875,0.0
1676922051.7059686,-95.21484375,-283.203125,-302.24609375,-154.296875,0.0
1676922051.7097316,-161.62109375,-630.859375,-528.80859375,-63.96484375,0.0
1676922051.7134948,-194.82421875,-725.5859375,-586.42578125,-87.890625,0.0
1676922051.717258,-131.8359375,-370.1171875,-318.84765625,-167.96875,0.0
1676922051.721021,-99.609375,-170.41015625,-174.31640625,-166.50390625,0.0
1676922051.7247841,-138.18359375,-664.0625,-572.265625,-75.68359375,0.0
1676922051.7285473,-196.2890625,-509.27734375,-452.63671875,-72.265625,0.0
1676922051.7323103,-139.16015625,76.171875,29.296875,-155.2734375,0.0
1676922051.7360735,-75.68359375,-156.25,-166.9921875,-146.97265625,0.0
1676922051.7398162,-128.41796875,-315.4296875,-278.3203125,-106.4453125,0.0
1676922051.7435591,-174.31640625,-105.95703125,-83.49609375,-99.12109375,0.0
1676922051.7473018,-144.04296875,20.01953125,6.8359375,-127.44140625,0.0
1676922051.7510445,-94.23828125,-155.2734375,-127.9296875,-140.13671875,0.0
1676922051.7547874,-112.79296875,-266.6015625,-202.63671875,-113.28125,0.0
1676922051.7585301,-128.90625,-272.4609375,-174.8046875,-67.87109375,0.0
1676922051.7622728,-148.92578125,-329.1015625,-197.265625,-98.14453125,0.0
1676922051.7660158,-124.51171875,-574.70703125,-393.5546875,-163.0859375,0.0
1676922051.7697585,-99.12109375,-902.34375,-713.8671875,-137.20703125,0.0
1676922051.7735012,-156.25,-239.74609375,-183.10546875,-95.703125,0.0
1676922051.777244,-163.0859375,147.4609375,182.12890625,-99.609375,0.0
1676922051.7809868,-72.75390625,-140.625,-68.359375,-160.64453125,0.0
1676922051.7847323,-57.6171875,-97.65625,-61.03515625,-180.17578125,0.0
1676922051.7884781,-122.55859375,83.984375,86.9140625,-110.3515625,0.0
1676922051.7922237,-131.34765625,-27.34375,-5.37109375,-99.609375,0.0
1676922051.7959692,-100.09765625,-209.47265625,-153.80859375,-186.5234375,0.0
1676922051.799715,-79.58984375,-129.39453125,-67.87109375,-210.9375,0.0
1676922051.8034606,-102.05078125,-225.09765625,-144.53125,-136.71875,0.0
1676922051.8072062,-111.81640625,-399.90234375,-290.0390625,-82.03125,0.0
1676922051.810952,-73.73046875,-729.4921875,-607.91015625,-120.60546875,0.0
1676922051.8146975,-54.19921875,-524.4140625,-478.02734375,-186.03515625,0.0
1676922051.818443,-68.359375,-129.8828125,-125.9765625,-151.3671875,0.0
1676922051.8221889,-100.5859375,-462.890625,-374.51171875,-67.3828125,0.0
1676922051.8259344,-87.890625,-554.19921875,-449.70703125,-94.23828125,0.0
1676922051.8296835,-20.01953125,-162.59765625,-174.8046875,-184.5703125,0.0
1676922051.833433,-28.80859375,-20.5078125,-74.70703125,-163.0859375,0.0
1676922051.837182,-99.609375,-333.0078125,-307.12890625,-86.42578125,0.0
1676922051.8409314,-107.421875,-381.34765625,-357.91015625,-91.30859375,0.0
1676922051.8446805,-42.48046875,-158.203125,-211.9140625,-160.15625,0.0
1676922051.8484297,-1.46484375,-327.1484375,-328.125,-162.109375,0.0
1676922051.852179,-67.87109375,-736.328125,-655.76171875,-105.95703125,0.0
1676922051.8559282,-121.09375,-789.0625,-768.5546875,-77.1484375,0.0
1676922051.8596776,-75.68359375,-233.88671875,-300.29296875,-139.6484375,0.0
1676922051.8634267,-19.53125,-75.68359375,-162.59765625,-187.01171875,0.0
1676922051.867176,-55.17578125,-460.9375,-469.23828125,-143.06640625,0.0
1676922051.8709252,-130.859375,-421.875,-418.9453125,-89.35546875,0.0
1676922051.8747845,-105.95703125,-270.5078125,-308.10546875,-110.3515625,0.0
1676922051.878644,-41.9921875,-446.2890625,-454.1015625,-170.8984375,0.0
1676922051.8825033,-60.546875,-731.4453125,-703.61328125,-168.45703125,0.0
1676922051.8863626,-126.953125,-578.61328125,-575.1953125,-101.07421875,0.0
1676922051.890222,-115.72265625,-181.15234375,-243.1640625,-106.93359375,0.0
1676922051.8940814,-36.62109375,-455.56640625,-454.1015625,-161.1328125,0.0
1676922051.8979406,-55.6640625,-845.703125,-818.359375,-164.0625,0.0
1676922051.9018002,-128.90625,-622.0703125,-666.50390625,-88.37890625,0.0
1676922051.9056594,-125.9765625,-113.76953125,-228.02734375,-70.3125,0.0
1676922051.9095187,-60.546875,-314.453125,-404.78515625,-157.71484375,0.0
1676922051.9133782,10.7421875,-484.375,-545.41015625,-165.52734375,0.0
1676922051.9172375,-56.640625,-208.984375,-315.91796875,-101.5625,0.0
1676922051.9208915,-137.20703125,-116.69921875,-245.60546875,-57.12890625,0.0
1676922051.9245455,-95.21484375,-393.5546875,-475.5859375,-109.86328125,0.0
1676922051.9281993,-57.12890625,-476.5625,-539.55078125,-182.12890625,0.0
1676922051.9318533,-84.9609375,-378.90625,-458.49609375,-149.90234375,0.0
1676922051.9355073,-132.8125,-434.08203125,-484.86328125,-74.70703125,0.0
1676922051.9391613,-120.60546875,-667.48046875,-671.875,-86.42578125,0.0
1676922051.9428153,-83.49609375,-980.95703125,-978.515625,-167.96875,0.0
1676922051.9464693,-83.49609375,-491.69921875,-562.98828125,-176.26953125,0.0
1676922051.9501233,-127.44140625,-111.328125,-193.84765625,-93.75,0.0
1676922051.953777,-149.4140625,-340.8203125,-385.25390625,-105.95703125,0.0
1676922051.957431,-102.05078125,-309.08203125,-354.4921875,-203.61328125,0.0
1676922051.961085,-66.89453125,-99.12109375,-188.96484375,-206.54296875,0.0
1676922051.9660811,-117.1875,-195.3125,-260.7421875,-125.9765625,0.0
1676922051.971077,-150.390625,-400.390625,-403.3203125,-122.55859375,0.0
1676922051.976073,-101.07421875,-290.52734375,-318.359375,-190.4296875,0.0
1676922051.981069,-84.9609375,-78.125,-134.765625,-212.890625,0.0
1676922051.9860651,-114.74609375,-165.52734375,-178.22265625,-150.87890625,0.0
1676922051.9910612,-136.71875,-526.3671875,-429.6875,-92.28515625,0.0
1676922051.996057,-89.35546875,-676.7578125,-540.52734375,-130.859375,0.0
1676922052.001053,-56.15234375,-408.69140625,-355.95703125,-188.96484375,0.0
1676922052.0060492,-102.05078125,-231.4453125,-197.75390625,-170.41015625,0.0
1676922052.011045,-159.1796875,-721.6796875,-656.25,-89.84375,0.0
1676922052.016041,-154.296875,-684.08203125,-664.0625,-145.01953125,0.0
1676922052.021037,-75.1953125,-179.6875,-170.41015625,-243.65234375,0.0
1676922052.024798,-73.2421875,-260.7421875,-207.51953125,-199.70703125,0.0
1676922052.028559,-121.58203125,-311.5234375,-224.12109375,-120.60546875,0.0
1676922052.03232,-136.23046875,-66.89453125,-37.59765625,-151.85546875,0.0
1676922052.0360808,-105.46875,2.9296875,30.2734375,-199.21875,0.0
1676922052.0398417,-73.2421875,-263.18359375,-163.57421875,-203.125,0.0
1676922052.0436027,-113.28125,-611.328125,-456.54296875,-164.0625,0.0
1676922052.0473638,-145.5078125,-458.984375,-363.76953125,-126.953125,0.0
1676922052.0511246,-98.6328125,-91.30859375,-81.0546875,-176.26953125,0.0
1676922052.0548854,-51.26953125,-481.4453125,-422.36328125,-214.84375,0.0
1676922052.0586464,-106.93359375,-897.4609375,-783.69140625,-144.53125,0.0
1676922052.0624075,-178.22265625,-423.33984375,-360.83984375,-121.09375,0.0
1676922052.0661683,-127.9296875,-79.1015625,-72.75390625,-196.77734375,0.0
1676922052.0698998,-70.3125,-396.97265625,-324.70703125,-242.67578125,0.0
1676922052.0736313,-110.3515625,-424.31640625,-355.46875,-214.84375,0.0
1676922052.0773628,-157.2265625,-30.76171875,-27.34375,-130.37109375,0.0
1676922052.0810943,-134.765625,-44.43359375,-22.94921875,-128.41796875,0.0
1676922052.0848258,-64.453125,-231.93359375,-169.43359375,-200.68359375,0.0
1676922052.0885572,-81.54296875,-361.81640625,-242.1875,-185.546875,0.0
1676922052.0922885,-151.85546875,-248.046875,-149.4140625,-112.79296875,0.0
1676922052.09602,-131.34765625,-112.79296875,-46.38671875,-80.56640625,0.0
1676922052.0997515,-63.4765625,-599.609375,-446.77734375,-156.73828125,0.0
1676922052.103483,-73.2421875,-517.08984375,-408.203125,-193.84765625,0.0
1676922052.1072145,-114.2578125,21.97265625,6.34765625,-124.0234375,0.0
1676922052.110946,-128.90625,-151.85546875,-127.44140625,-73.2421875,0.0
1676922052.1148062,-86.9140625,-458.0078125,-370.60546875,-118.1640625,0.0
1676922052.1186666,-49.31640625,-350.09765625,-309.5703125,-140.625,0.0
1676922052.122527,-87.890625,-16.6015625,-53.7109375,-98.6328125,0.0
1676922052.1263874,-117.1875,-292.96875,-245.1171875,-39.0625,0.0
1676922052.1302476,-82.03125,-614.74609375,-505.859375,-58.10546875,0.0
1676922052.134108,-30.76171875,-419.43359375,-377.44140625,-119.140625,0.0
1676922052.1379683,-59.08203125,-397.4609375,-341.796875,-83.49609375,0.0
1676922052.1418285,-103.515625,-700.1953125,-600.09765625,8.30078125,0.0
1676922052.145689,-97.16796875,-795.8984375,-735.83984375,-27.83203125,0.0
1676922052.1495492,-57.12890625,-243.1640625,-292.96875,-134.765625,0.0
1676922052.1534097,-37.109375,-114.2578125,-180.17578125,-111.328125,0.0
1676922052.15727,-97.65625,-344.23828125,-373.046875,-27.83203125,0.0
1676922052.1609685,-141.11328125,-307.6171875,-354.98046875,-24.90234375,0.0
1676922052.1646671,-74.70703125,-125.48828125,-237.79296875,-76.66015625,0.0
1676922052.1683657,-14.6484375,-219.7265625,-347.65625,-120.1171875,0.0
1676922052.1720643,-80.078125,-561.03515625,-617.1875,-75.1953125,0.0
1676922052.175763,-153.3203125,-588.37890625,-634.27734375,-40.52734375,0.0
1676922052.1794615,-106.4453125,-523.4375,-594.7265625,-103.02734375,0.0
1676922052.1831598,-29.78515625,-624.0234375,-680.6640625,-161.1328125,0.0
1676922052.1868584,-64.453125,-885.25390625,-901.3671875,-88.8671875,0.0
1676922052.190557,-139.6484375,-828.125,-873.046875,-46.875,0.0
1676922052.1942556,-113.76953125,-263.18359375,-442.87109375,-125.9765625,0.0
1676922052.1979542,-32.2265625,-331.54296875,-494.140625,-175.78125,0.0
1676922052.2016528,-75.1953125,-505.859375,-649.90234375,-133.7890625,0.0
1676922052.2053456,-160.64453125,-316.89453125,-506.34765625,-66.40625,0.0
1676922052.2090387,-144.53125,-257.32421875,-443.84765625,-106.4453125,0.0
1676922052.2127316,-71.77734375,-497.55859375,-650.390625,-179.19921875,0.0
1676922052.2164245,-64.453125,-612.3046875,-758.7890625,-187.98828125,0.0
1676922052.2201173,-119.140625,-378.41796875,-578.125,-122.55859375,0.0
1676922052.2238102,-124.0234375,-579.1015625,-729.4921875,-75.1953125,0.0
1676922052.2275033,-88.37890625,-923.33984375,-969.23828125,-134.27734375,0.0
1676922052.2311962,-107.421875,-978.02734375,-990.72265625,-175.78125,0.0
1676922052.234889,-148.92578125,-604.98046875,-739.74609375,-167.48046875,0.0
1676922052.2385821,-166.015625,-329.1015625,-544.921875,-149.90234375,0.0
1676922052.242275,-183.59375,-645.5078125,-770.01953125,-197.75390625,0.0
1676922052.2459679,-162.109375,-656.73828125,-779.78515625,-257.32421875,0.0
1676922052.2497137,-180.6640625,-336.42578125,-545.41015625,-237.79296875,0.0
1676922052.2534595,-244.140625,-398.92578125,-570.80078125,-193.359375,0.0
1676922052.257205,-249.51171875,-587.40234375,-713.8671875,-209.9609375,0.0
1676922052.2609508,-207.03125,-532.2265625,-685.546875,-289.55078125,0.0
1676922052.2646966,-233.3984375,-471.6796875,-635.25390625,-315.91796875,0.0
1676922052.2684422,-333.984375,-703.61328125,-807.6171875,-250.9765625,0.0
1676922052.272188,-368.65234375,-987.79296875,-1000.0,-226.07421875,0.0
1676922052.2759337,-336.9140625,-787.109375,-877.9296875,-325.68359375,0.0
1676922052.2796795,-301.26953125,-444.82421875,-655.76171875,-390.625,0.0
1676922052.2834253,-366.2109375,-677.24609375,-805.17578125,-330.56640625,0.0
1676922052.287171,-453.61328125,-882.32421875,-957.51953125,-273.92578125,0.0
1676922052.2909167,-412.109375,-647.4609375,-811.5234375,-361.81640625,0.0
1676922052.2946775,-387.6953125,-499.0234375,-727.05078125,-459.9609375,0.0
1676922052.2984383,-433.10546875,-730.46875,-866.69921875,-397.94921875,0.0
1676922052.302199,-476.5625,-883.30078125,-947.75390625,-327.63671875,0.0
1676922052.3059597,-473.14453125,-609.375,-788.0859375,-404.296875,0.0
1676922052.3097205,-394.04296875,-563.96484375,-780.2734375,-460.44921875,0.0
1676922052.3134813,-408.69140625,-863.76953125,-956.0546875,-395.5078125,0.0
1676922052.3172421,-524.90234375,-961.9140625,-990.234375,-346.6796875,0.0
1676922052.321003,-501.953125,-707.03125,-853.515625,-391.11328125,0.0
1676922052.3247638,-407.71484375,-557.6171875,-768.06640625,-446.77734375,0.0
1676922052.3285244,-384.765625,-787.109375,-910.64453125,-400.390625,0.0
1676922052.3322852,-441.89453125,-783.69140625,-886.71875,-324.70703125,0.0
1676922052.336046,-432.12890625,-485.3515625,-658.203125,-341.30859375,0.0
1676922052.3410552,-307.12890625,-640.625,-765.13671875,-383.30078125,0.0
1676922052.3460643,-306.640625,-914.55078125,-971.6796875,-377.44140625,0.0
1676922052.3510733,-368.1640625,-673.33984375,-753.41796875,-316.89453125,0.0
1676922052.3560824,-339.35546875,-344.7265625,-473.14453125,-265.625,0.0
1676922052.3610916,-263.671875,-417.96875,-512.20703125,-294.43359375,0.0
1676922052.3661008,-187.01171875,-805.6640625,-811.03515625,-289.0625,0.0
1676922052.37111,-205.56640625,-773.4375,-786.1328125,-229.00390625,0.0
1676922052.3761191,-239.2578125,-355.95703125,-455.078125,-188.96484375,0.0
1676922052.3811283,-181.640625,-382.8125,-463.37890625,-194.82421875,0.0
1676922052.3861372,-106.93359375,-776.3671875,-782.71484375,-228.515625,0.0
1676922052.3911464,-121.58203125,-577.63671875,-620.1171875,-196.2890625,0.0
1676922052.3961556,-174.8046875,-208.49609375,-312.01171875,-142.578125,0.0
1676922052.3999102,-140.625,-406.73828125,-456.0546875,-126.953125,0.0
1676922052.403665,-71.77734375,-523.4375,-554.6875,-152.83203125,0.0
1676922052.4074197,-57.6171875,-299.31640625,-403.80859375,-153.3203125,0.0
1676922052.4111743,-99.609375,-339.84375,-387.20703125,-57.12890625,0.0
1676922052.414929,-105.46875,-716.30859375,-697.75390625,-7.32421875,0.0
1676922052.4186835,-54.19921875,-926.26953125,-896.97265625,-93.75,0.0
1676922052.4224384,-50.78125,-595.703125,-609.86328125,-154.296875,0.0
1676922052.426193,-78.61328125,-252.44140625,-335.9375,-64.94140625,0.0
1676922052.4299476,-77.63671875,-661.62109375,-675.78125,-3.90625,0.0
1676922052.4337025,-53.22265625,-850.5859375,-882.32421875,-75.68359375,0.0
1676922052.437457,-11.71875,-412.109375,-524.4140625,-123.53515625,0.0
1676922052.4412117,-49.8046875,-408.69140625,-482.421875,-56.640625,0.0
1676922052.444946,-98.14453125,-538.0859375,-579.58984375,-29.296875,0.0
1676922052.4486806,-65.4296875,-479.00390625,-544.921875,-83.0078125,0.0
1676922052.452415,-12.6953125,-312.98828125,-440.4296875,-131.34765625,0.0
1676922052.4561496,-10.7421875,-369.62890625,-485.83984375,-106.93359375,0.0
1676922052.459884,-58.59375,-591.796875,-653.80859375,-38.57421875,0.0
1676922052.4636183,-82.51953125,-804.6875,-828.61328125,-64.453125,0.0
1676922052.4673529,-32.2265625,-864.2578125,-885.25390625,-134.765625,0.0
1676922052.4710872,-34.1796875,-793.9453125,-851.07421875,-127.9296875,0.0
1676922052.4748218,-101.5625,-948.2421875,-959.9609375,-37.109375,0.0
1676922052.4785562,-127.44140625,-849.609375,-895.99609375,-27.34375,0.0
1676922052.4822907,-70.3125,-408.69140625,-585.9375,-138.18359375,0.0
1676922052.486025,-16.6015625,-566.89453125,-708.984375,-159.1796875,0.0
1676922052.4897676,-50.29296875,-698.2421875,-813.4765625,-89.84375,0.0
1676922052.4935102,-110.83984375,-492.67578125,-662.109375,-54.6875,0.0
1676922052.4972527,-108.88671875,-422.36328125,-621.58203125,-106.93359375,0.0
1676922052.5009952,-72.75390625,-648.4375,-789.0625,-161.62109375,0.0
1676922052.5047379,-94.23828125,-796.875,-908.69140625,-111.328125,0.0
1676922052.5084803,-122.55859375,-823.73046875,-931.15234375,-59.5703125,0.0
1676922052.5122228,-100.09765625,-792.48046875,-914.0625,-101.07421875,0.0
1676922052.5159655,-64.453125,-804.19921875,-897.4609375,-164.55078125,0.0
1676922052.519708,-85.44921875,-875.0,-922.8515625,-161.1328125,0.0
1676922052.5234504,-153.80859375,-671.875,-782.2265625,-99.609375,0.0
1676922052.527193,-144.04296875,-602.05078125,-721.19140625,-84.9609375,0.0
1676922052.5309355,-85.44921875,-752.44140625,-838.8671875,-151.3671875,0.0
1676922052.5346866,-95.703125,-714.84375,-823.2421875,-139.16015625,0.0
1676922052.5384374,-143.06640625,-347.16796875,-535.64453125,-56.15234375,0.0
1676922052.5421884,-163.0859375,-428.7109375,-586.9140625,-70.3125,0.0
1676922052.5459392,-108.88671875,-579.58984375,-719.23828125,-152.34375,0.0
1676922052.5496902,-46.38671875,-491.69921875,-657.71484375,-194.82421875,0.0
1676922052.553441,-115.72265625,-603.515625,-715.8203125,-152.83203125,0.0
1676922052.557192,-157.71484375,-730.46875,-780.76171875,-82.03125,0.0
1676922052.5609431,-104.98046875,-890.13671875,-916.9921875,-94.23828125,0.0
1676922052.564694,-41.015625,-688.4765625,-757.32421875,-158.69140625,0.0
1676922052.568445,-66.89453125,-233.88671875,-383.30078125,-139.16015625,0.0
1676922052.5721958,-138.671875,-406.73828125,-516.6015625,-70.3125,0.0
1676922052.5759468,-122.0703125,-537.59765625,-620.1171875,-86.9140625,0.0
1676922052.5809498,-65.91796875,-473.14453125,-553.22265625,-153.3203125,0.0
1676922052.5859525,-83.0078125,-420.8984375,-493.65234375,-156.73828125,0.0
1676922052.5909555,-154.296875,-574.70703125,-619.62890625,-70.80078125,0.0
1676922052.5959585,-150.390625,-724.12109375,-743.1640625,-67.87109375,0.0
1676922052.6009612,-104.00390625,-379.39453125,-453.125,-142.578125,0.0
1676922052.6059642,-97.65625,-495.1171875,-500.9765625,-173.33984375,0.0
1676922052.6109672,-145.5078125,-812.01171875,-769.04296875,-107.421875,0.0
1676922052.61597,-166.015625,-832.03125,-842.28515625,-59.5703125,0.0
1676922052.6209729,-113.28125,-339.35546875,-427.24609375,-111.328125,0.0
1676922052.6259758,-66.89453125,-185.546875,-287.59765625,-136.71875,0.0
1676922052.6309786,-128.90625,-459.47265625,-492.1875,-117.67578125,0.0
1676922052.6359816,-165.0390625,-404.296875,-423.33984375,-94.23828125,0.0
1676922052.6384788,-124.51171875,-183.59375,-259.27734375,-139.6484375,0.0
1676922052.6409762,-105.46875,-268.5546875,-354.98046875,-212.890625,0.0
1676922052.6434734,-112.3046875,-479.00390625,-514.16015625,-182.6171875,0.0
1676922052.6459708,-145.5078125,-580.078125,-576.171875,-111.328125,0.0
1676922052.648468,-184.5703125,-559.5703125,-579.1015625,-152.83203125,0.0
1676922052.6509652,-175.78125,-638.671875,-634.765625,-229.00390625,0.0
1676922052.6534626,-146.97265625,-799.8046875,-791.015625,-247.55859375,0.0
1676922052.6559598,-183.10546875,-564.453125,-626.953125,-198.73046875,0.0
1676922052.6584573,-220.703125,-296.38671875,-376.953125,-202.63671875,0.0
1676922052.6609545,-181.15234375,-412.109375,-468.75,-305.17578125,0.0
1676922052.663452,-188.4765625,-842.7734375,-847.65625,-312.5,0.0
1676922052.665949,-241.2109375,-648.4375,-725.5859375,-249.51171875,0.0
1676922052.6697063,-269.53125,-255.37109375,-372.0703125,-254.39453125,0.0
1676922052.6734638,-259.27734375,-511.71875,-543.9453125,-333.0078125,0.0
1676922052.677221,-232.91015625,-616.69921875,-640.625,-371.58203125,0.0
1676922052.6809785,-261.71875,-378.41796875,-468.26171875,-347.65625,0.0
1676922052.6847358,-291.015625,-378.90625,-460.44921875,-281.73828125,0.0
1676922052.6884933,-266.11328125,-733.3984375,-747.55859375,-282.71484375,0.0
1676922052.6922505,-247.0703125,-961.42578125,-946.77734375,-328.61328125,0.0
1676922052.6960077,-259.765625,-629.8828125,-660.64453125,-323.73046875,0.0
1676922052.6997652,-266.11328125,-253.90625,-328.61328125,-257.32421875,0.0
1676922052.7035224,-268.5546875,-615.72265625,-630.859375,-227.5390625,0.0
1676922052.70728,-237.79296875,-822.265625,-838.8671875,-290.0390625,0.0
1676922052.7110372,-211.42578125,-338.8671875,-424.31640625,-314.453125,0.0
1676922052.716031,-236.328125,-247.55859375,-348.6328125,-201.66015625,0.0
1676922052.7210252,-254.39453125,-489.2578125,-523.4375,-160.15625,0.0
1676922052.7260191,-189.94140625,-441.40625,-473.6328125,-244.140625,0.0
1676922052.731013,-148.4375,-259.765625,-339.35546875,-238.28125,0.0
1676922052.7360072,-167.96875,-342.28515625,-387.6953125,-177.734375,0.0
1676922052.7410011,-173.828125,-671.875,-633.7890625,-123.046875,0.0
1676922052.745995,-163.57421875,-659.66796875,-645.99609375,-143.06640625,0.0
1676922052.7509892,-120.1171875,-279.78515625,-388.671875,-185.546875,0.0
1676922052.755983,-116.69921875,-324.21875,-419.921875,-127.9296875,0.0
1676922052.760977,-123.53515625,-807.6171875,-808.10546875,-31.25,0.0
1676922052.7659712,-128.90625,-694.82421875,-728.515625,-87.890625,0.0
1676922052.770965,-104.98046875,-194.3359375,-328.61328125,-183.10546875,0.0
1676922052.7747128,-66.40625,-415.52734375,-502.9296875,-135.25390625,0.0
1676922052.7784605,-119.140625,-749.51171875,-756.34765625,-83.49609375,0.0
1676922052.782208,-160.64453125,-462.40234375,-534.1796875,-95.703125,0.0
1676922052.7859557,-110.83984375,-195.3125,-329.1015625,-137.6953125,0.0
1676922052.7897034,-66.89453125,-410.64453125,-485.3515625,-130.37109375,0.0
1676922052.793451,-93.75,-700.68359375,-688.4765625,-33.203125,0.0
1676922052.7971988,-163.0859375,-522.94921875,-545.41015625,-29.78515625,0.0
1676922052.8009465,-153.80859375,-203.125,-294.43359375,-126.46484375,0.0
1676922052.8046942,-74.21875,-554.6875,-593.26171875,-129.39453125,0.0
1676922052.8084416,-95.21484375,-819.3359375,-832.03125,-97.16796875,0.0
1676922052.8121893,-127.44140625,-241.2109375,-336.42578125,-92.28515625,0.0
1676922052.815937,-99.12109375,-102.5390625,-193.84765625,-107.421875,0.0
1676922052.8197424,-79.58984375,-462.40234375,-465.8203125,-149.90234375,0.0
1676922052.8235478,-83.0078125,-485.83984375,-484.86328125,-104.4921875,0.0
1676922052.8273532,-109.375,-162.109375,-226.07421875,-34.1796875,0.0
1676922052.8311586,-111.81640625,-150.390625,-204.1015625,-57.6171875,0.0
1676922052.834964,-95.703125,-570.3125,-522.94921875,-96.19140625,0.0
1676922052.8387694,-83.0078125,-791.015625,-689.453125,-69.3359375,0.0
1676922052.842575,-105.95703125,-447.265625,-430.6640625,-33.69140625,0.0
1676922052.8463805,-139.16015625,-261.71875,-285.64453125,-59.08203125,0.0
1676922052.8501859,-127.9296875,-709.47265625,-702.63671875,-120.60546875,0.0
1676922052.8539913,-107.421875,-600.5859375,-643.06640625,-147.4609375,0.0
1676922052.8577967,-122.0703125,-152.83203125,-220.703125,-89.84375,0.0
1676922052.861602,-136.23046875,-446.77734375,-437.5,-53.7109375,0.0
1676922052.8652966,-112.3046875,-474.609375,-474.609375,-102.05078125,0.0
1676922052.8689911,-82.51953125,-215.33203125,-302.24609375,-135.7421875,0.0
1676922052.8726857,-76.171875,-145.5078125,-234.86328125,-91.796875,0.0
1676922052.8763802,-114.74609375,-496.58203125,-495.1171875,-35.15625,0.0
1676922052.8800747,-133.7890625,-697.265625,-668.45703125,-96.6796875,0.0
1676922052.8837693,-96.6796875,-588.8671875,-595.21484375,-174.31640625,0.0
1676922052.8874638,-103.515625,-489.74609375,-531.73828125,-141.11328125,0.0
1676922052.8911583,-122.55859375,-630.37109375,-663.0859375,-67.87109375,0.0
1676922052.8948529,-124.0234375,-909.1796875,-927.24609375,-65.4296875,0.0
1676922052.8985474,-89.35546875,-424.31640625,-550.29296875,-159.66796875,0.0
1676922052.902242,-82.51953125,-234.86328125,-383.7890625,-170.8984375,0.0
1676922052.9059365,-123.046875,-466.30859375,-573.2421875,-92.28515625,0.0
1676922052.9096906,-131.34765625,-462.40234375,-569.82421875,-77.1484375,0.0
1676922052.913445,-96.6796875,-299.31640625,-449.21875,-130.37109375,0.0
1676922052.9171991,-73.2421875,-332.03125,-500.0,-139.6484375,0.0
1676922052.9209533,-108.3984375,-504.39453125,-643.5546875,-99.609375,0.0
1676922052.9247077,-148.4375,-467.28515625,-621.09375,-54.6875,0.0
1676922052.9284618,-142.08984375,-650.390625,-768.5546875,-100.5859375,0.0
1676922052.932216,-112.3046875,-807.12890625,-890.13671875,-158.203125,0.0
1676922052.9359703,-110.3515625,-920.8984375,-948.73046875,-90.33203125,0.0
1676922052.9397244,-170.41015625,-854.4921875,-904.78515625,-52.734375,0.0
1676922052.9434786,-180.17578125,-348.6328125,-560.546875,-117.1875,0.0
1676922052.947233,-125.48828125,-431.640625,-637.6953125,-156.73828125,0.0
1676922052.950987,-131.34765625,-644.04296875,-811.03515625,-122.0703125,0.0
1676922052.954734,-180.6640625,-436.03515625,-653.3203125,-74.21875,0.0
1676922052.958481,-193.359375,-374.0234375,-629.8828125,-71.2890625,0.0
1676922052.9622283,-149.90234375,-648.92578125,-831.0546875,-125.0,0.0
1676922052.9659753,-131.34765625,-758.30078125,-902.34375,-139.16015625,0.0
1676922052.9697223,-147.4609375,-516.6015625,-748.53515625,-83.49609375,0.0
1676922052.9734693,-180.17578125,-687.5,-883.7890625,-79.58984375,0.0
1676922052.9772162,-147.4609375,-971.19140625,-1000.0,-125.9765625,0.0
1676922052.9809632,-110.83984375,-905.2734375,-962.40234375,-152.83203125,0.0
1676922052.9847102,-151.3671875,-549.31640625,-767.08984375,-113.76953125,0.0
1676922052.9884574,-149.4140625,-576.66015625,-789.0625,-58.59375,0.0
1676922052.9922044,-108.3984375,-884.27734375,-995.1171875,-83.0078125,0.0
1676922052.9959514,-91.796875,-718.26171875,-885.7421875,-153.80859375,0.0
1676922052.999701,-106.93359375,-395.99609375,-666.015625,-129.39453125,0.0
1676922053.0034509,-139.16015625,-390.13671875,-626.46484375,-50.78125,0.0
1676922053.0072005,-111.81640625,-741.2109375,-862.79296875,-98.14453125,0.0
1676922053.0109503,-38.57421875,-674.31640625,-823.73046875,-187.5,0.0
1676922053.0147,-52.734375,-351.5625,-595.21484375,-166.50390625,0.0
1676922053.0184498,-116.2109375,-546.875,-710.9375,-91.796875,0.0
1676922053.0221994,-124.0234375,-920.8984375,-951.66015625,-76.66015625,0.0
1676922053.025949,-73.2421875,-764.16015625,-862.3046875,-161.62109375,0.0
1676922053.0296988,-42.96875,-305.6640625,-543.9453125,-189.94140625,0.0
1676922053.0334485,-73.73046875,-403.80859375,-580.56640625,-97.65625,0.0
1676922053.0371983,-89.84375,-556.640625,-687.01171875,-81.54296875,0.0
1676922053.040948,-45.41015625,-350.5859375,-534.1796875,-153.80859375,0.0
1676922053.0448062,-24.90234375,-395.99609375,-554.19921875,-178.7109375,0.0
1676922053.0486643,-57.6171875,-738.76953125,-805.6640625,-97.16796875,0.0
1676922053.0525227,-109.375,-791.9921875,-853.02734375,-62.5,0.0
1676922053.056381,-81.0546875,-404.78515625,-581.0546875,-128.41796875,0.0
1676922053.060239,-30.2734375,-260.25390625,-462.40234375,-166.9921875,0.0
1676922053.0640974,-47.36328125,-674.31640625,-750.9765625,-129.39453125,0.0
1676922053.0679557,-83.0078125,-941.89453125,-958.984375,-63.96484375,0.0
1676922053.0718138,-67.87109375,-488.28125,-618.1640625,-87.890625,0.0
1676922053.0756721,-0.9765625,-140.13671875,-349.609375,-158.203125,0.0
1676922053.0795305,-20.99609375,-599.609375,-700.68359375,-141.6015625,0.0
1676922053.0833886,-85.44921875,-712.890625,-777.83203125,-59.08203125,0.0
1676922053.087247,-83.49609375,-228.02734375,-399.90234375,-58.59375,0.0
1676922053.0921397,-36.62109375,-220.21484375,-398.4375,-125.9765625,0.0
1676922053.0970323,-28.3203125,-425.78125,-567.3828125,-137.20703125,0.0
1676922053.1019251,-45.8984375,-373.53515625,-511.23046875,-70.80078125,0.0
1676922053.106818,-50.29296875,-362.3046875,-481.4453125,-8.30078125,0.0
1676922053.1117105,-44.43359375,-520.01953125,-612.3046875,-70.80078125,0.0
1676922053.1166034,-19.04296875,-825.1953125,-854.98046875,-125.9765625,0.0
1676922053.1214962,-42.96875,-808.10546875,-859.375,-64.94140625,0.0
1676922053.1263888,-86.42578125,-259.765625,-427.24609375,-29.78515625,0.0
1676922053.1312816,-61.5234375,-292.48046875,-426.7578125,-52.24609375,0.0
1676922053.1361744,-26.3671875,-477.05078125,-582.51953125,-115.234375,0.0
1676922053.141067,-50.78125,-289.0625,-447.75390625,-124.51171875,0.0
1676922053.1459599,-80.078125,-113.76953125,-307.12890625,-61.5234375,0.0
1676922053.1497152,-76.171875,-357.91015625,-492.1875,-50.29296875,0.0
1676922053.1534703,-47.36328125,-490.72265625,-598.6328125,-115.72265625,0.0
1676922053.1572256,-0.9765625,-250.0,-427.734375,-121.58203125,0.0
1676922053.160981,-34.1796875,-182.6171875,-365.72265625,-38.57421875,0.0
1676922053.164736,-91.796875,-437.01171875,-548.33984375,-36.62109375,0.0
1676922053.1684914,-74.21875,-767.578125,-799.8046875,-96.19140625,0.0
1676922053.1722467,-62.01171875,-733.3984375,-791.015625,-130.859375,0.0
1676922053.1760018,-84.9609375,-457.03125,-587.890625,-97.65625,0.0
1676922053.179757,-100.5859375,-601.07421875,-679.6875,-11.23046875,0.0
1676922053.1835124,-79.1015625,-959.47265625,-977.05078125,-75.1953125,0.0
1676922053.1872675,-53.22265625,-487.79296875,-621.09375,-179.6875,0.0
1676922053.1910229,-59.5703125,-229.4921875,-398.92578125,-115.72265625,0.0
1676922053.1947653,-104.98046875,-387.6953125,-524.90234375,-40.0390625,0.0
1676922053.198508,-92.28515625,-302.734375,-458.49609375,-83.984375,0.0
1676922053.2022505,-13.671875,-131.8359375,-340.33203125,-156.73828125,0.0
1676922053.2059932,-25.87890625,-214.35546875,-402.34375,-121.58203125,0.0
1676922053.2097356,-108.3984375,-433.10546875,-552.24609375,-49.8046875,0.0
1676922053.213478,-103.515625,-590.8203125,-658.203125,-72.75390625,0.0
1676922053.2172208,-57.6171875,-512.20703125,-610.3515625,-137.6953125,0.0
1676922053.2209632,-63.4765625,-338.37890625,-484.86328125,-157.71484375,0.0
1676922053.224706,-115.234375,-719.7265625,-779.296875,-87.40234375,0.0
1676922053.2284484,-114.74609375,-841.30859375,-885.7421875,-62.98828125,0.0
1676922053.232191,-70.80078125,-400.390625,-534.66796875,-125.9765625,0.0
1676922053.2359335,-20.99609375,-345.21484375,-491.2109375,-146.484375,0.0
1676922053.2396824,-49.8046875,-627.9296875,-714.84375,-83.49609375,0.0
1676922053.2434313,-91.796875,-372.0703125,-509.27734375,-37.59765625,0.0
1676922053.2471802,-35.64453125,-151.85546875,-324.21875,-68.359375,0.0
1676922053.250929,30.2734375,-391.11328125,-536.1328125,-112.3046875,0.0
1676922053.254678,30.2734375,-479.98046875,-612.79296875,-61.5234375,0.0
1676922053.2584267,-5.37109375,-453.61328125,-562.5,31.73828125,0.0
1676922053.2621756,12.6953125,-445.80078125,-556.15234375,9.27734375,0.0
1676922053.2659245,59.5703125,-636.71875,-716.30859375,-38.57421875,0.0
1676922053.2696733,37.59765625,-837.890625,-891.11328125,-18.5546875,0.0
1676922053.2734222,-6.8359375,-323.73046875,-505.37109375,24.90234375,0.0
1676922053.2771711,-4.39453125,-197.75390625,-381.34765625,10.7421875,0.0
1676922053.28092,38.57421875,-527.34375,-635.7421875,-63.4765625,0.0
1676922053.2847805,35.64453125,-637.6953125,-724.12109375,-69.82421875,0.0
1676922053.288641,16.11328125,-426.7578125,-556.15234375,24.90234375,0.0
1676922053.2925017,18.5546875,-294.921875,-468.75,53.7109375,0.0
1676922053.2963622,-3.41796875,-617.67578125,-735.83984375,-40.0390625,0.0
1676922053.3002226,4.8828125,-604.98046875,-724.609375,-68.84765625,0.0
1676922053.3040833,12.6953125,-499.0234375,-608.88671875,-23.92578125,0.0
1676922053.3079438,-40.0390625,-584.47265625,-649.4140625,16.11328125,0.0
1676922053.3118043,-7.32421875,-819.3359375,-846.19140625,-35.64453125,0.0
1676922053.3156648,45.41015625,-634.27734375,-743.1640625,-124.51171875,0.0
1676922053.3195252,-27.34375,-125.9765625,-298.33984375,-64.94140625,0.0
1676922053.323386,-51.26953125,-317.87109375,-408.203125,11.71875,0.0
1676922053.3272464,-36.1328125,-433.59375,-517.578125,-29.296875,0.0
1676922053.3308911,-0.9765625,-164.55078125,-300.78125,-119.140625,0.0
1676922053.3345358,16.11328125,-28.80859375,-188.96484375,-119.140625,0.0
1676922053.3381805,-26.3671875,-235.83984375,-323.2421875,-25.87890625,0.0
1676922053.341825,-46.875,-485.83984375,-482.421875,-6.8359375,0.0
1676922053.3454697,-13.18359375,-300.29296875,-322.75390625,-95.21484375,0.0
1676922053.3491144,6.34765625,-206.54296875,-236.81640625,-128.41796875,0.0
1676922053.3527591,-21.97265625,-511.23046875,-439.453125,-49.31640625,0.0
1676922053.3564038,-59.08203125,-894.53125,-760.7421875,-6.8359375,0.0
1676922053.3600483,-17.08984375,-371.09375,-372.55859375,-78.61328125,0.0
1676922053.363693,23.4375,146.484375,54.6875,-133.30078125,0.0
1676922053.3673377,-56.15234375,-98.14453125,-111.81640625,-99.12109375,0.0
1676922053.3709824,-95.703125,-40.52734375,-49.31640625,-56.640625,0.0
1676922053.3747957,-59.5703125,176.7578125,132.32421875,-97.65625,0.0
1676922053.378609,-20.5078125,128.41796875,106.4453125,-148.92578125,0.0
1676922053.3824224,-28.3203125,7.8125,18.5546875,-135.25390625,0.0
1676922053.3862357,-79.58984375,83.0078125,85.44921875,-74.70703125,0.0
1676922053.390049,-81.0546875,154.78515625,150.390625,-54.19921875,0.0
1676922053.3938622,-25.390625,-71.2890625,0.48828125,-125.0,0.0
1676922053.3976755,-23.4375,-699.70703125,-534.66796875,-131.34765625,0.0
1676922053.4014888,-114.74609375,-659.66796875,-542.96875,-64.94140625,0.0
1676922053.405302,-126.953125,133.7890625,123.53515625,-78.125,0.0
1676922053.4091156,-71.2890625,69.82421875,81.0546875,-121.58203125,0.0
1676922053.4129288,-69.82421875,-199.70703125,-123.046875,-139.6484375,0.0
1676922053.416742,-91.796875,-0.48828125,36.1328125,-90.8203125,0.0
1676922053.420436,-117.1875,169.921875,140.13671875,-60.05859375,0.0
1676922053.4241295,-71.2890625,-95.21484375,-68.359375,-100.5859375,0.0
1676922053.427823,-47.8515625,-234.86328125,-190.4296875,-151.3671875,0.0
1676922053.431517,-87.890625,-27.34375,-44.921875,-122.0703125,0.0
1676922053.4352107,-108.3984375,8.7890625,-1.46484375,-47.8515625,0.0
1676922053.4389043,-83.0078125,-468.26171875,-383.7890625,-47.36328125,0.0
1676922053.4425979,-27.34375,-770.01953125,-687.5,-120.1171875,0.0
1676922053.4462917,-58.10546875,-211.42578125,-270.99609375,-124.0234375,0.0
1676922053.4499855,-115.234375,11.71875,-54.19921875,-60.05859375,0.0
1676922053.453679,-114.2578125,-563.4765625,-523.4375,-61.5234375,0.0
1676922053.4573727,-95.703125,-848.14453125,-837.40234375,-126.953125,0.0
1676922053.4610665,-72.265625,-242.1875,-346.6796875,-138.18359375,0.0
1676922053.4660573,-85.44921875,-77.1484375,-184.5703125,-79.58984375,0.0
1676922053.471048,-133.30078125,-351.5625,-398.92578125,-66.40625,0.0
1676922053.476039,-128.41796875,-346.6796875,-400.87890625,-118.65234375,0.0
1676922053.4810297,-86.42578125,-176.7578125,-300.78125,-154.78515625,0.0
1676922053.4860206,-94.23828125,-216.796875,-325.1953125,-81.54296875,0.0
1676922053.4910116,-151.3671875,-563.4765625,-572.265625,-29.296875,0.0
1676922053.4960024,-142.578125,-719.23828125,-703.125,-111.328125,0.0
1676922053.5009933,-105.95703125,-359.375,-450.68359375,-158.69140625,0.0
1676922053.505984,-129.8828125,-274.90234375,-375.9765625,-99.12109375,0.0
1676922053.510975,-168.45703125,-716.30859375,-730.46875,-63.96484375,0.0
1676922053.5159657,-148.92578125,-560.546875,-652.34375,-118.65234375,0.0
1676922053.5209565,-108.3984375,-180.6640625,-343.75,-187.5,0.0
1676922053.5247073,-112.3046875,-456.54296875,-522.4609375,-151.3671875,0.0
1676922053.5284579,-154.296875,-644.53125,-664.55078125,-91.796875,0.0
1676922053.5322087,-184.5703125,-340.33203125,-460.44921875,-99.12109375,0.0
1676922053.5359592,-136.71875,-186.03515625,-356.4453125,-147.94921875,0.0
1676922053.53971,-101.07421875,-513.18359375,-601.5625,-166.50390625,0.0
1676922053.5434608,-131.34765625,-885.7421875,-870.1171875,-81.54296875,0.0
1676922053.5472114,-158.203125,-652.34375,-697.75390625,-55.6640625,0.0
1676922053.5509622,-147.4609375,-285.64453125,-421.38671875,-131.34765625,0.0
1676922053.5547128,-100.5859375,-580.56640625,-656.73828125,-157.2265625,0.0
1676922053.5584636,-145.5078125,-884.765625,-903.3203125,-88.37890625,0.0
1676922053.5622141,-204.58984375,-417.48046875,-524.90234375,-38.0859375,0.0
1676922053.565965,-163.0859375,-261.71875,-412.59765625,-72.265625,0.0
1676922053.5698507,-110.83984375,-517.08984375,-643.06640625,-142.08984375,0.0
1676922053.5737364,-120.60546875,-498.53515625,-637.6953125,-123.53515625,0.0
1676922053.5776222,-171.875,-292.96875,-458.984375,-48.828125,0.0
1676922053.581508,-178.7109375,-457.03125,-587.890625,-76.171875,0.0
1676922053.5853937,-130.37109375,-799.31640625,-879.39453125,-138.18359375,0.0
1676922053.5892792,-137.20703125,-887.6953125,-955.56640625,-134.27734375,0.0
1676922053.593165,-191.40625,-635.25390625,-765.13671875,-56.640625,0.0
1676922053.5970507,-182.6171875,-495.60546875,-680.6640625,-29.296875,0.0
1676922053.6009364,-133.30078125,-867.1875,-936.03515625,-81.0546875,0.0
1676922053.6048222,-123.53515625,-737.3046875,-850.5859375,-120.60546875,0.0
1676922053.608708,-163.57421875,-299.31640625,-547.36328125,-85.9375,0.0
1676922053.6125937,-203.125,-451.171875,-646.97265625,-34.1796875,0.0
1676922053.6162283,-185.546875,-662.59765625,-810.546875,-109.86328125,0.0
1676922053.619863,-136.71875,-490.72265625,-684.5703125,-162.109375,0.0
1676922053.6234977,-141.6015625,-339.35546875,-572.75390625,-107.421875,0.0
1676922053.6271324,-203.125,-565.91796875,-737.3046875,-53.22265625,0.0
1676922053.630767,-184.5703125,-709.47265625,-865.72265625,-83.49609375,0.0
1676922053.6344018,-121.09375,-762.20703125,-904.296875,-154.296875,0.0
1676922053.6380363,-138.18359375,-885.7421875,-996.58203125,-132.8125,0.0
1676922053.641671,-178.7109375,-907.2265625,-981.93359375,-59.08203125,0.0
1676922053.6453056,-183.59375,-995.1171875,-1000.0,-83.49609375,0.0
1676922053.6489403,-147.94921875,-660.15625,-825.1953125,-168.45703125,0.0
1676922053.652575,-125.0,-425.78125,-670.8984375,-147.94921875,0.0
1676922053.6562097,-172.36328125,-665.52734375,-835.44921875,-86.9140625,0.0
1676922053.6599422,-209.9609375,-626.46484375,-816.40625,-92.28515625,0.0
1676922053.6636748,-172.36328125,-465.8203125,-709.47265625,-157.71484375,0.0
1676922053.6674075,-147.94921875,-564.453125,-808.59375,-168.9453125,0.0
1676922053.67114,-178.22265625,-754.39453125,-933.10546875,-118.1640625,0.0
1676922053.6748724,-188.4765625,-745.60546875,-919.921875,-98.6328125,0.0
1676922053.678605,-159.1796875,-853.02734375,-958.984375,-157.71484375,0.0
1676922053.6823378,-156.73828125,-992.1875,-1000.0,-205.078125,0.0
1676922053.6860702,-207.51953125,-995.60546875,-1000.0,-152.34375,0.0
1676922053.6898026,-220.21484375,-824.70703125,-937.98828125,-123.53515625,0.0
1676922053.6935353,-178.7109375,-741.69921875,-917.96875,-159.1796875,0.0
1676922053.697268,-163.57421875,-982.421875,-1000.0,-195.3125,0.0
1676922053.7010005,-185.546875,-945.80078125,-999.0234375,-190.91796875,0.0
1676922053.704775,-217.7734375,-717.28515625,-930.17578125,-118.1640625,0.0
1676922053.7085495,-187.5,-610.3515625,-880.859375,-106.93359375,0.0
1676922053.7123241,-146.97265625,-836.42578125,-965.8203125,-200.1953125,0.0
1676922053.7160985,-158.203125,-887.6953125,-983.88671875,-190.4296875,0.0
1676922053.7198732,-147.4609375,-693.84765625,-937.98828125,-101.5625,0.0
1676922053.7236476,-135.25390625,-892.578125,-989.2578125,-84.9609375,0.0
1676922053.7274222,-135.7421875,-1000.0,-1000.0,-134.765625,0.0
1676922053.7311969,-134.765625,-937.98828125,-999.0234375,-168.9453125,0.0
1676922053.7349713,-169.921875,-708.0078125,-931.15234375,-136.23046875,0.0
1676922053.738746,-171.38671875,-585.44921875,-862.3046875,-75.1953125,0.0
1676922053.7425203,-123.046875,-791.015625,-951.66015625,-100.5859375,0.0
1676922053.746295,-66.89453125,-797.36328125,-985.83984375,-158.203125,0.0
1676922053.7501254,-86.9140625,-753.90625,-972.16796875,-134.27734375,0.0
1676922053.7539558,-143.5546875,-944.3359375,-998.53515625,-83.0078125,0.0
1676922053.7577865,-131.8359375,-1000.0,-1000.0,-117.1875,0.0
1676922053.761617,-95.21484375,-796.38671875,-958.984375,-191.89453125,0.0
1676922053.7654474,-55.6640625,-646.97265625,-919.921875,-180.17578125,0.0
1676922053.769278,-77.63671875,-899.90234375,-989.74609375,-72.75390625,0.0
1676922053.7731085,-133.30078125,-1000.0,-1000.0,-53.22265625,0.0
1676922053.776939,-115.72265625,-818.359375,-950.68359375,-150.390625,0.0
1676922053.7807693,-102.5390625,-449.21875,-750.9765625,-177.24609375,0.0
1676922053.7845998,-123.53515625,-543.9453125,-785.15625,-97.16796875,0.0
1676922053.7884305,-139.6484375,-737.79296875,-914.0625,-50.29296875,0.0
1676922053.792261,-90.8203125,-532.71484375,-783.69140625,-100.09765625,0.0
1676922053.795912,-56.15234375,-470.21484375,-774.90234375,-142.578125,0.0
1676922053.7995634,-109.86328125,-721.19140625,-915.52734375,-89.35546875,0.0
1676922053.8032146,-147.4609375,-810.546875,-952.1484375,-38.0859375,0.0
1676922053.8068657,-116.2109375,-734.86328125,-933.10546875,-83.984375,0.0
1676922053.810517,-77.63671875,-770.01953125,-973.14453125,-137.20703125,0.0
1676922053.8141682,-81.0546875,-841.30859375,-973.14453125,-99.12109375,0.0
1676922053.8178194,-129.8828125,-1000.0,-1000.0,-36.62109375,0.0
1676922053.8214707,-137.6953125,-768.5546875,-914.0625,-76.66015625,0.0
1676922053.8251219,-85.44921875,-509.27734375,-783.69140625,-130.37109375,0.0
1676922053.828773,-81.0546875,-682.12890625,-895.99609375,-122.0703125,0.0
1676922053.8324244,-121.58203125,-710.44921875,-925.78125,-61.03515625,0.0
1676922053.8360755,-129.39453125,-518.06640625,-814.94140625,-47.8515625,0.0
1676922053.8410716,-78.125,-573.73046875,-861.328125,-116.69921875,0.0
1676922053.846068,-67.3828125,-769.53125,-976.07421875,-138.18359375,0.0
1676922053.8510642,-113.76953125,-686.03515625,-916.015625,-65.91796875,0.0
1676922053.8560603,-134.27734375,-529.78515625,-821.77734375,-35.15625,0.0
1676922053.8610563,-103.02734375,-607.421875,-896.484375,-99.609375,0.0
1676922053.8660526,-40.0390625,-866.69921875,-984.86328125,-140.625,0.0
1676922053.871049,-76.171875,-1000.0,-1000.0,-86.9140625,0.0
1676922053.876045,-145.5078125,-865.72265625,-981.4453125,-33.203125,0.0
1676922053.881041,-116.69921875,-684.08203125,-953.61328125,-72.75390625,0.0
1676922053.8860373,-82.03125,-932.6171875,-1000.0,-125.48828125,0.0
1676922053.8910336,-97.16796875,-885.25390625,-966.796875,-130.37109375,0.0
1676922053.8960297,-115.72265625,-542.96875,-843.75,-73.2421875,0.0
1676922053.8997731,-143.06640625,-673.828125,-902.83203125,-65.4296875,0.0
1676922053.9035165,-107.91015625,-823.73046875,-985.3515625,-137.6953125,0.0
