timestamps,TP9,Fp1,Fp2,TP10,stim
1676924406.7121527,3.90625,-62.01171875,-90.8203125,-22.94921875,0.0
1676924406.7158473,-19.04296875,-79.1015625,-87.40234375,-2.9296875,0.0
1676924406.7195418,-24.90234375,-81.54296875,-85.9375,7.32421875,0.0
1676924406.7232363,-20.5078125,-69.3359375,-93.26171875,10.25390625,0.0
1676924406.727007,-7.8125,-65.91796875,-89.35546875,-4.39453125,0.0
1676924406.7307775,9.765625,-63.96484375,-90.33203125,-12.20703125,0.0
1676924406.734548,7.8125,-70.3125,-98.14453125,8.7890625,0.0
1676924406.7383187,0.0,-74.21875,-94.7265625,23.92578125,0.0
1676924406.7420893,-1.953125,-79.1015625,-93.26171875,16.11328125,0.0
1676924406.74586,-3.41796875,-84.9609375,-89.35546875,14.16015625,0.0
1676924406.7496307,6.34765625,-82.51953125,-82.51953125,17.08984375,0.0
1676924406.7534013,0.0,-80.078125,-78.61328125,12.6953125,0.0
1676924406.7571719,-9.765625,-83.0078125,-80.078125,-12.20703125,0.0
1676924406.7609425,5.37109375,-83.49609375,-77.1484375,-4.8828125,0.0
1676924406.764713,2.9296875,-83.984375,-79.58984375,15.625,0.0
1676924406.7684836,1.953125,-80.56640625,-88.37890625,-0.9765625,0.0
1676924406.7723968,4.39453125,-79.58984375,-91.30859375,-8.30078125,0.0
1676924406.77631,-5.37109375,-83.0078125,-92.28515625,6.8359375,0.0
1676924406.780223,-8.7890625,-78.125,-85.44921875,15.625,0.0
1676924406.784136,-2.9296875,-72.75390625,-77.1484375,20.01953125,0.0
1676924406.7880492,16.11328125,-68.84765625,-68.84765625,23.4375,0.0
1676924406.7919621,25.87890625,-73.73046875,-75.68359375,21.97265625,0.0
1676924406.7958753,19.53125,-71.2890625,-84.9609375,0.0,0.0
1676924406.7997885,8.30078125,-69.82421875,-83.0078125,-14.6484375,0.0
1676924406.8037016,11.23046875,-84.9609375,-84.47265625,12.6953125,0.0
1676924406.8076148,12.6953125,-81.0546875,-89.35546875,16.6015625,0.0
1676924406.8115277,12.6953125,-62.01171875,-98.6328125,-16.6015625,0.0
1676924406.815441,20.01953125,-57.12890625,-101.07421875,-5.37109375,0.0
1676924406.8202567,2.9296875,-57.12890625,-93.75,13.671875,0.0
1676924406.8250723,1.46484375,-55.17578125,-90.33203125,13.18359375,0.0
1676924406.829888,6.8359375,-56.15234375,-97.65625,15.625,0.0
1676924406.8347037,-13.18359375,-67.87109375,-105.46875,-5.37109375,0.0
1676924406.8395195,-19.53125,-74.70703125,-105.46875,-11.71875,0.0
1676924406.844335,-8.7890625,-79.58984375,-103.02734375,7.8125,0.0
1676924406.849151,-10.7421875,-80.56640625,-104.4921875,5.37109375,0.0
1676924406.8539667,-4.8828125,-82.51953125,-112.79296875,-0.9765625,0.0
1676924406.8587823,12.20703125,-84.47265625,-113.28125,-2.9296875,0.0
1676924406.863598,5.859375,-80.078125,-110.3515625,-6.34765625,0.0
1676924406.8684137,1.46484375,-75.68359375,-108.3984375,-1.46484375,0.0
1676924406.8732295,22.4609375,-68.84765625,-109.86328125,4.39453125,0.0
1676924406.8769627,13.671875,-72.75390625,-104.4921875,25.390625,0.0
1676924406.8806956,7.8125,-70.3125,-101.5625,15.625,0.0
1676924406.8844285,14.16015625,-72.75390625,-107.421875,4.8828125,0.0
1676924406.8881617,9.765625,-75.68359375,-109.86328125,17.578125,0.0
1676924406.8918948,21.97265625,-65.91796875,-109.86328125,17.578125,0.0
1676924406.8956277,14.6484375,-71.2890625,-110.3515625,18.06640625,0.0
1676924406.8993607,5.859375,-75.1953125,-114.2578125,0.48828125,0.0
1676924406.9030938,7.32421875,-73.2421875,-117.1875,-12.6953125,0.0
1676924406.906827,6.34765625,-77.1484375,-120.1171875,2.9296875,0.0
1676924406.91056,-3.41796875,-77.63671875,-124.51171875,9.765625,0.0
1676924406.9142928,-14.6484375,-83.49609375,-120.1171875,-2.44140625,0.0
1676924406.918026,-2.9296875,-88.8671875,-114.2578125,-14.6484375,0.0
1676924406.9217796,10.25390625,-84.47265625,-121.58203125,-14.16015625,0.0
1676924406.925533,11.23046875,-81.54296875,-127.9296875,-13.671875,0.0
1676924406.9292865,2.44140625,-81.0546875,-128.90625,-17.578125,0.0
1676924406.9330401,-13.18359375,-88.8671875,-128.90625,-7.8125,0.0
1676924406.9367938,-14.6484375,-92.7734375,-126.953125,-11.23046875,0.0
1676924406.9405472,-0.9765625,-83.0078125,-128.41796875,-19.04296875,0.0
1676924406.9443007,-6.34765625,-84.9609375,-127.9296875,-0.9765625,0.0
1676924406.9480543,-1.953125,-83.984375,-123.046875,8.30078125,0.0
1676924406.951808,11.71875,-81.54296875,-118.1640625,0.9765625,0.0
1676924406.9555614,-1.953125,-75.68359375,-107.421875,-11.23046875,0.0
1676924406.9593148,-16.11328125,-73.73046875,-107.421875,-13.671875,0.0
1676924406.9630685,-14.16015625,-78.125,-113.76953125,-10.7421875,0.0
1676924406.9668198,-14.16015625,-75.1953125,-108.88671875,-7.8125,0.0
1676924406.970571,-23.4375,-66.89453125,-105.95703125,-3.41796875,0.0
1676924406.974322,-11.71875,-66.89453125,-111.81640625,-0.9765625,0.0
1676924406.9780734,6.8359375,-63.4765625,-108.3984375,3.41796875,0.0
1676924406.9818246,14.6484375,-60.05859375,-92.28515625,9.27734375,0.0
1676924406.9855757,22.4609375,-56.640625,-79.1015625,12.20703125,0.0
1676924406.989327,19.04296875,-54.6875,-75.1953125,14.16015625,0.0
1676924406.9930782,16.6015625,-60.05859375,-75.68359375,26.3671875,0.0
1676924406.9968295,17.578125,-52.734375,-80.56640625,30.2734375,0.0
1676924407.0005808,13.671875,-48.828125,-90.8203125,18.06640625,0.0
1676924407.0043318,20.5078125,-56.640625,-104.4921875,9.27734375,0.0
1676924407.008083,11.71875,-59.5703125,-108.88671875,12.6953125,1.0
1676924407.0118568,7.32421875,-60.05859375,-104.98046875,10.7421875,0.0
1676924407.0156305,9.27734375,-58.10546875,-101.5625,7.8125,0.0
1676924407.019404,9.765625,-61.03515625,-104.4921875,6.8359375,0.0
1676924407.0231776,11.23046875,-62.5,-122.0703125,2.9296875,0.0
1676924407.0269513,12.20703125,-56.15234375,-132.32421875,2.44140625,0.0
1676924407.030725,17.08984375,-53.22265625,-130.37109375,5.859375,0.0
1676924407.0344987,15.625,-49.8046875,-116.69921875,17.578125,0.0
1676924407.0382724,5.37109375,-53.7109375,-107.91015625,17.578125,0.0
1676924407.042046,-5.37109375,-59.08203125,-103.515625,5.37109375,0.0
1676924407.0458195,-7.32421875,-62.98828125,-104.00390625,-5.37109375,0.0
1676924407.0495932,-5.37109375,-68.359375,-108.88671875,-17.578125,0.0
1676924407.053367,10.25390625,-62.5,-97.65625,1.46484375,0.0
1676924407.0572517,20.01953125,-50.78125,-83.49609375,18.5546875,0.0
1676924407.0611362,8.7890625,-50.29296875,-68.84765625,12.20703125,0.0
1676924407.065021,1.953125,-56.640625,-59.5703125,6.34765625,0.0
1676924407.0689058,-0.48828125,-62.98828125,-67.87109375,-6.8359375,0.0
1676924407.0727906,3.41796875,-68.359375,-70.80078125,-22.4609375,0.0
1676924407.0766754,11.71875,-55.17578125,-65.4296875,-12.20703125,0.0
1676924407.08056,3.90625,-38.57421875,-56.15234375,10.25390625,0.0
1676924407.0844448,-13.18359375,-44.921875,-45.8984375,15.625,0.0
1676924407.0883296,-34.66796875,-48.33984375,-55.17578125,-6.34765625,0.0
1676924407.092214,-39.0625,-51.26953125,-71.77734375,-31.25,0.0
1676924407.096099,-39.55078125,-47.36328125,-72.75390625,-41.50390625,0.0
1676924407.0999837,-51.26953125,-43.45703125,-64.453125,-48.33984375,0.0
1676924407.1037145,-65.4296875,-43.45703125,-66.40625,-67.87109375,0.0
1676924407.1074452,-97.16796875,-52.24609375,-82.51953125,-87.40234375,0.0
1676924407.111176,-116.2109375,-54.19921875,-71.77734375,-86.42578125,0.0
1676924407.1149065,-115.72265625,-42.48046875,-68.359375,-97.16796875,0.0
1676924407.1186373,-141.11328125,-52.734375,-83.0078125,-115.234375,0.0
1676924407.122368,-166.50390625,-56.640625,-83.0078125,-133.30078125,0.0
1676924407.1260989,-170.41015625,-42.96875,-85.9375,-140.625,0.0
1676924407.1298296,-183.59375,-32.71484375,-90.8203125,-147.4609375,0.0
1676924407.1335602,-189.94140625,-41.015625,-82.03125,-170.41015625,0.0
1676924407.137291,-195.80078125,-57.6171875,-77.63671875,-178.22265625,0.0
1676924407.1410217,-203.125,-60.05859375,-81.0546875,-181.640625,0.0
1676924407.1447525,-204.58984375,-64.94140625,-83.0078125,-182.6171875,0.0
1676924407.1509125,-191.89453125,-62.98828125,-78.125,-183.10546875,0.0
1676924407.1570725,-180.6640625,-64.94140625,-82.03125,-188.96484375,0.0
1676924407.1632328,-184.08203125,-65.91796875,-83.984375,-187.5,0.0
1676924407.1693928,-184.08203125,-57.12890625,-69.82421875,-181.15234375,0.0
1676924407.1755528,-179.19921875,-56.640625,-64.94140625,-186.03515625,0.0
1676924407.1817129,-181.15234375,-64.453125,-68.359375,-183.10546875,0.0
1676924407.187873,-186.03515625,-56.640625,-73.2421875,-162.59765625,0.0
1676924407.194033,-188.4765625,-45.8984375,-65.91796875,-145.5078125,0.0
1676924407.200193,-197.265625,-51.26953125,-64.453125,-132.32421875,0.0
1676924407.2063532,-175.78125,-54.19921875,-75.68359375,-129.39453125,0.0
1676924407.2125132,-140.13671875,-51.26953125,-81.0546875,-129.39453125,0.0
1676924407.2186732,-114.2578125,-51.7578125,-84.9609375,-100.5859375,0.0
1676924407.2211192,-95.21484375,-55.6640625,-91.796875,-85.9375,0.0
1676924407.2235649,-67.3828125,-51.26953125,-86.9140625,-72.75390625,0.0
1676924407.2260108,-49.31640625,-41.015625,-78.125,-56.15234375,0.0
1676924407.2284565,-55.17578125,-44.43359375,-81.0546875,-62.5,0.0
1676924407.2309024,-49.8046875,-55.6640625,-96.6796875,-58.10546875,0.0
1676924407.2333484,-29.296875,-52.734375,-99.609375,-41.015625,0.0
1676924407.235794,-9.27734375,-42.96875,-82.03125,-22.94921875,0.0
1676924407.23824,0.48828125,-44.43359375,-73.73046875,-13.18359375,0.0
1676924407.2406857,9.765625,-48.33984375,-78.61328125,-6.8359375,0.0
1676924407.2431316,27.83203125,-49.8046875,-86.9140625,3.90625,0.0
1676924407.2455773,30.2734375,-46.38671875,-84.47265625,16.6015625,0.0
1676924407.2480233,15.13671875,-48.828125,-82.51953125,21.97265625,0.0
1676924407.2542913,17.08984375,-57.12890625,-77.1484375,33.69140625,0.0
1676924407.260559,21.484375,-54.6875,-62.98828125,43.9453125,0.0
1676924407.266827,31.73828125,-42.96875,-62.5,47.8515625,0.0
1676924407.2730951,47.8515625,-38.57421875,-60.546875,53.22265625,0.0
1676924407.2793632,61.03515625,-36.1328125,-46.38671875,62.01171875,0.0
1676924407.2856312,83.49609375,-34.1796875,-41.50390625,65.4296875,0.0
1676924407.291899,77.63671875,-37.59765625,-46.38671875,64.94140625,0.0
1676924407.298167,60.05859375,-45.8984375,-53.7109375,64.453125,0.0
1676924407.304435,68.359375,-48.828125,-58.59375,70.3125,0.0
1676924407.3107028,61.5234375,-40.0390625,-53.7109375,77.63671875,0.0
1676924407.3169708,43.45703125,-38.0859375,-54.6875,73.2421875,0.0
1676924407.3232388,42.96875,-46.38671875,-65.91796875,69.82421875,0.0
1676924407.3244874,62.5,-41.50390625,-61.03515625,80.56640625,0.0
1676924407.325736,65.91796875,-32.2265625,-66.40625,83.0078125,0.0
1676924407.326985,60.546875,-38.0859375,-81.0546875,82.03125,0.0
1676924407.3282335,75.68359375,-45.41015625,-79.58984375,75.68359375,0.0
1676924407.329482,77.1484375,-44.921875,-73.73046875,68.359375,0.0
1676924407.3307307,59.5703125,-42.48046875,-76.171875,70.3125,0.0
1676924407.3319793,65.4296875,-41.015625,-74.70703125,70.80078125,0.0
1676924407.3332279,74.70703125,-50.29296875,-76.66015625,71.77734375,0.0
1676924407.3344765,78.61328125,-50.78125,-81.54296875,75.68359375,0.0
1676924407.3357253,86.42578125,-45.41015625,-76.171875,75.1953125,0.0
1676924407.336974,76.66015625,-58.10546875,-65.4296875,80.56640625,0.0
1676924407.3382225,69.3359375,-60.05859375,-62.5,88.8671875,0.0
1676924407.3419678,62.98828125,-60.546875,-62.5,73.73046875,0.0
1676924407.3457131,63.96484375,-61.5234375,-63.4765625,64.453125,0.0
1676924407.3494585,63.4765625,-58.10546875,-68.359375,66.40625,0.0
1676924407.3532038,62.98828125,-65.91796875,-71.77734375,69.82421875,0.0
1676924407.356949,74.21875,-70.3125,-73.2421875,69.3359375,0.0
1676924407.3606944,69.3359375,-63.96484375,-69.82421875,58.10546875,0.0
1676924407.3644395,56.640625,-57.6171875,-63.4765625,55.17578125,0.0
1676924407.3681848,60.05859375,-58.10546875,-80.078125,61.03515625,0.0
1676924407.3719301,59.08203125,-58.10546875,-106.4453125,54.19921875,0.0
1676924407.3756754,51.26953125,-51.26953125,-109.375,43.45703125,0.0
1676924407.3794208,37.109375,-59.5703125,-110.3515625,50.78125,0.0
1676924407.383166,31.25,-61.03515625,-100.5859375,44.921875,0.0
1676924407.387017,40.52734375,-49.8046875,-94.7265625,38.0859375,0.0
1676924407.3908682,39.55078125,-55.17578125,-98.14453125,48.828125,0.0
1676924407.3947191,46.875,-58.10546875,-99.609375,43.45703125,0.0
1676924407.39857,33.69140625,-60.546875,-97.65625,32.2265625,0.0
1676924407.402421,11.71875,-59.5703125,-97.65625,35.15625,0.0
1676924407.406272,22.4609375,-55.17578125,-98.6328125,37.109375,0.0
1676924407.410123,28.80859375,-62.98828125,-91.30859375,43.45703125,0.0
1676924407.413974,29.296875,-59.5703125,-83.0078125,55.6640625,0.0
1676924407.417825,33.69140625,-44.43359375,-68.359375,52.734375,0.0
1676924407.4216762,32.71484375,-40.0390625,-58.59375,51.26953125,0.0
1676924407.425527,42.48046875,-36.62109375,-64.453125,55.17578125,0.0
1676924407.429378,50.78125,-39.0625,-75.1953125,36.1328125,0.0
1676924407.4332194,44.43359375,-36.62109375,-76.171875,22.94921875,0.0
1676924407.4370608,37.109375,-41.015625,-68.359375,22.4609375,0.0
1676924407.4409022,36.1328125,-55.17578125,-65.4296875,18.5546875,0.0
1676924407.4447434,33.203125,-48.33984375,-58.10546875,7.32421875,0.0
1676924407.4485848,27.83203125,-41.50390625,-54.6875,5.859375,0.0
1676924407.4524262,34.1796875,-37.59765625,-54.6875,14.6484375,0.0
1676924407.4562676,33.69140625,-33.203125,-54.19921875,41.9921875,0.0
1676924407.460109,27.83203125,-38.0859375,-62.01171875,48.33984375,0.0
1676924407.4639502,20.01953125,-41.015625,-69.3359375,18.06640625,0.0
1676924407.4677916,14.16015625,-44.43359375,-75.68359375,14.6484375,0.0
1676924407.471633,18.5546875,-42.48046875,-69.3359375,15.625,0.0
1676924407.4754744,11.23046875,-43.9453125,-69.82421875,6.8359375,0.0
1676924407.4790373,4.8828125,-48.828125,-75.68359375,3.41796875,0.0
1676924407.4826002,7.8125,-51.7578125,-74.70703125,6.34765625,0.0
1676924407.4861631,13.671875,-50.78125,-79.58984375,9.27734375,0.0
1676924407.489726,11.71875,-51.26953125,-89.84375,9.27734375,0.0
1676924407.493289,8.7890625,-52.734375,-92.7734375,24.4140625,0.0
1676924407.496852,20.99609375,-49.8046875,-86.42578125,26.85546875,0.0
1676924407.5004146,35.15625,-41.9921875,-82.03125,19.04296875,0.0
1676924407.5039775,30.2734375,-33.69140625,-82.51953125,19.04296875,0.0
1676924407.5075405,13.671875,-36.1328125,-80.56640625,9.765625,0.0
1676924407.5111034,14.16015625,-39.55078125,-79.58984375,7.8125,0.0
1676924407.5146663,9.765625,-41.015625,-78.61328125,18.06640625,0.0
1676924407.5182292,0.48828125,-40.0390625,-79.58984375,11.23046875,0.0
1676924407.5232415,4.39453125,-41.50390625,-79.58984375,-3.41796875,0.0
1676924407.528254,7.32421875,-46.875,-82.03125,-2.9296875,0.0
1676924407.5332665,7.32421875,-48.828125,-94.23828125,1.953125,0.0
1676924407.5382788,4.39453125,-46.875,-92.28515625,4.39453125,0.0
1676924407.543291,8.30078125,-45.41015625,-88.8671875,8.30078125,0.0
1676924407.5483036,9.27734375,-48.828125,-98.6328125,6.8359375,0.0
1676924407.553316,0.48828125,-53.22265625,-98.14453125,6.8359375,0.0
1676924407.5583284,4.8828125,-47.36328125,-82.51953125,11.71875,0.0
1676924407.5633407,12.6953125,-46.38671875,-71.77734375,7.8125,0.0
1676924407.5683532,9.765625,-46.38671875,-77.1484375,3.41796875,0.0
1676924407.5733657,9.765625,-41.50390625,-76.171875,0.0,0.0
1676924407.578378,0.9765625,-50.29296875,-80.078125,-2.44140625,0.0
1676924407.5821452,9.765625,-62.01171875,-91.796875,2.44140625,0.0
1676924407.5859122,10.25390625,-53.7109375,-91.796875,-0.9765625,0.0
1676924407.5896792,8.30078125,-38.57421875,-79.58984375,-3.90625,0.0
1676924407.5934465,14.6484375,-34.66796875,-79.58984375,-6.34765625,0.0
1676924407.5972137,10.25390625,-44.43359375,-84.9609375,1.46484375,0.0
1676924407.6009808,5.37109375,-44.921875,-83.984375,7.8125,0.0
1676924407.6047478,7.32421875,-32.71484375,-86.42578125,7.32421875,0.0
1676924407.608515,12.20703125,-29.78515625,-83.0078125,8.30078125,0.0
1676924407.6122823,10.7421875,-41.9921875,-77.1484375,8.30078125,0.0
1676924407.6160493,16.6015625,-40.52734375,-64.453125,21.97265625,0.0
1676924407.6198163,17.578125,-26.85546875,-65.4296875,27.83203125,0.0
1676924407.6235836,14.6484375,-37.59765625,-82.03125,4.39453125,0.0
1676924407.6274068,19.04296875,-47.8515625,-85.44921875,-3.41796875,0.0
1676924407.63123,19.04296875,-40.52734375,-84.9609375,1.953125,0.0
1676924407.6350532,14.16015625,-31.25,-80.56640625,3.41796875,0.0
1676924407.6388764,11.23046875,-33.203125,-65.4296875,1.953125,0.0
1676924407.6426997,15.13671875,-40.0390625,-63.96484375,3.41796875,0.0
1676924407.646523,18.5546875,-32.71484375,-62.98828125,10.7421875,0.0
1676924407.6503463,14.6484375,-26.3671875,-49.8046875,9.27734375,0.0
1676924407.6541696,11.23046875,-34.1796875,-50.78125,1.953125,0.0
1676924407.6579928,28.3203125,-39.55078125,-51.7578125,-0.48828125,0.0
1676924407.661816,33.203125,-38.0859375,-44.43359375,3.41796875,0.0
1676924407.6656392,20.99609375,-29.296875,-39.0625,5.37109375,0.0
1676924407.6694624,9.27734375,-33.203125,-45.8984375,8.7890625,0.0
1676924407.6731079,0.0,-36.1328125,-51.26953125,8.30078125,0.0
1676924407.6767535,0.48828125,-34.66796875,-42.96875,9.765625,0.0
1676924407.680399,14.16015625,-31.25,-33.69140625,1.953125,0.0
1676924407.6840444,21.484375,-29.296875,-43.9453125,-3.41796875,0.0
1676924407.68769,15.625,-30.76171875,-52.24609375,-1.953125,0.0
1676924407.6913354,20.5078125,-22.4609375,-44.921875,-0.48828125,0.0
1676924407.6949809,24.4140625,-20.99609375,-45.8984375,4.39453125,0.0
1676924407.6986265,15.625,-23.92578125,-46.38671875,9.27734375,0.0
1676924407.702272,14.6484375,-24.4140625,-44.43359375,11.23046875,0.0
1676924407.7059174,15.625,-12.20703125,-37.109375,8.30078125,0.0
1676924407.709563,6.34765625,-10.7421875,-35.15625,-0.48828125,0.0
1676924407.7132084,7.32421875,-23.92578125,-42.96875,-1.953125,0.0
1676924407.7169638,16.11328125,-12.20703125,-38.0859375,9.27734375,0.0
1676924407.7207193,24.90234375,3.41796875,-29.78515625,13.671875,0.0
1676924407.7244747,26.85546875,0.9765625,-27.34375,24.4140625,0.0
1676924407.72823,22.4609375,3.90625,-32.2265625,31.25,0.0
1676924407.7319853,23.92578125,3.41796875,-32.71484375,18.06640625,0.0
1676924407.7357407,27.34375,-7.32421875,-25.87890625,10.7421875,0.0
1676924407.7394962,33.203125,-10.7421875,-30.2734375,4.8828125,0.0
1676924407.7432516,21.97265625,-11.23046875,-31.25,2.9296875,0.0
1676924407.747007,5.859375,-14.6484375,-23.4375,9.27734375,0.0
1676924407.7507625,-8.30078125,-17.578125,-28.3203125,-0.48828125,0.0
1676924407.7545178,-15.625,-24.90234375,-40.0390625,0.48828125,0.0
1676924407.7582731,1.46484375,-26.85546875,-40.52734375,2.9296875,0.0
1676924407.7632651,6.8359375,-21.97265625,-38.57421875,4.39453125,0.0
1676924407.7682571,0.0,-23.4375,-45.8984375,1.46484375,0.0
1676924407.7732491,-1.953125,-26.3671875,-50.78125,3.41796875,0.0
1676924407.7782412,-5.859375,-25.87890625,-47.8515625,-0.48828125,0.0
1676924407.7832332,-22.4609375,-25.390625,-54.19921875,-1.46484375,0.0
1676924407.7882252,-40.0390625,-29.78515625,-57.6171875,1.46484375,0.0
1676924407.7932172,-37.59765625,-29.296875,-53.7109375,-8.7890625,0.0
1676924407.7982092,-28.3203125,-25.87890625,-55.17578125,-3.41796875,0.0
1676924407.8032012,-23.92578125,-20.99609375,-55.17578125,6.8359375,0.0
1676924407.8081932,-26.85546875,-19.53125,-46.875,3.90625,0.0
1676924407.8131852,-16.11328125,-17.578125,-41.9921875,16.11328125,0.0
1676924407.8181772,-2.9296875,-18.06640625,-33.69140625,22.4609375,0.0
1676924407.8206728,-9.27734375,-18.5546875,-31.73828125,5.859375,0.0
1676924407.8231685,-8.7890625,-22.4609375,-41.9921875,-5.859375,0.0
1676924407.825664,-2.44140625,-27.34375,-41.50390625,4.39453125,0.0
1676924407.8281598,-3.90625,-24.4140625,-29.78515625,10.7421875,0.0
1676924407.8306553,0.48828125,-24.90234375,-24.90234375,7.32421875,0.0
1676924407.8331509,3.90625,-28.80859375,-26.3671875,8.7890625,0.0
1676924407.8356466,-0.48828125,-25.87890625,-26.85546875,-12.20703125,0.0
1676924407.8381422,2.44140625,-23.92578125,-32.71484375,-21.97265625,0.0
1676924407.840638,2.44140625,-28.80859375,-36.1328125,-23.4375,0.0
1676924407.8431334,5.859375,-32.71484375,-45.41015625,-22.4609375,0.0
1676924407.8456292,20.01953125,-34.1796875,-49.31640625,-3.41796875,0.0
1676924407.8481247,12.6953125,-31.73828125,-40.0390625,-1.953125,2.0
1676924407.8538008,-1.46484375,-32.71484375,-45.8984375,-6.8359375,0.0
1676924407.859477,-3.41796875,-34.66796875,-47.36328125,-1.953125,0.0
1676924407.865153,-5.37109375,-33.203125,-39.0625,1.46484375,0.0
1676924407.8708293,-3.90625,-41.50390625,-34.66796875,0.0,0.0
1676924407.8765054,-4.39453125,-50.29296875,-37.109375,0.48828125,0.0
1676924407.8821816,2.44140625,-50.29296875,-41.50390625,11.23046875,0.0
1676924407.8878577,12.20703125,-45.8984375,-34.66796875,17.578125,0.0
1676924407.8935337,3.90625,-36.1328125,-38.0859375,16.11328125,0.0
1676924407.89921,-11.71875,-40.52734375,-44.43359375,18.06640625,0.0
1676924407.904886,-14.6484375,-52.734375,-47.36328125,11.23046875,0.0
1676924407.9105623,-4.39453125,-39.55078125,-46.38671875,2.9296875,0.0
1676924407.9162383,-2.9296875,-32.2265625,-44.43359375,-6.34765625,0.0
1676924407.9182744,-2.44140625,-40.0390625,-48.828125,-12.20703125,0.0
1676924407.9203105,5.859375,-42.48046875,-52.734375,-10.25390625,0.0
1676924407.9223466,4.8828125,-35.15625,-51.26953125,-5.37109375,0.0
1676924407.9243827,0.0,-34.66796875,-56.640625,-5.37109375,0.0
1676924407.9264188,-6.8359375,-43.45703125,-61.5234375,-4.8828125,0.0
1676924407.9284549,-3.90625,-44.921875,-63.96484375,7.32421875,0.0
1676924407.9304912,0.0,-34.1796875,-74.21875,4.39453125,0.0
1676924407.9325273,-11.71875,-35.64453125,-66.89453125,-9.27734375,0.0
1676924407.9345634,-15.625,-41.50390625,-63.96484375,-13.671875,0.0
1676924407.9365995,-12.20703125,-41.50390625,-67.87109375,-9.765625,0.0
1676924407.9386356,-8.30078125,-36.62109375,-53.22265625,-3.90625,0.0
1676924407.9406717,-10.7421875,-35.64453125,-53.22265625,-7.8125,0.0
1676924407.9467106,-14.16015625,-41.9921875,-66.40625,4.39453125,0.0
1676924407.9527495,-14.16015625,-39.0625,-62.5,2.9296875,0.0
1676924407.9587884,-2.44140625,-31.73828125,-58.10546875,-10.25390625,0.0
1676924407.964827,4.39453125,-26.85546875,-67.3828125,-10.25390625,0.0
1676924407.970866,-0.9765625,-31.25,-70.3125,-3.41796875,0.0
1676924407.9769049,-5.37109375,-38.0859375,-61.03515625,-0.48828125,0.0
1676924407.9829438,-12.6953125,-39.55078125,-65.4296875,-7.8125,0.0
1676924407.9889827,-23.92578125,-39.55078125,-68.84765625,-12.6953125,0.0
1676924407.9950213,-27.83203125,-47.8515625,-67.3828125,-13.18359375,0.0
1676924408.0010602,-19.53125,-52.24609375,-68.359375,-9.27734375,0.0
1676924408.0070992,-13.671875,-40.0390625,-62.01171875,-12.20703125,0.0
1676924408.013138,-4.8828125,-38.0859375,-62.01171875,-8.7890625,0.0
1676924408.0162573,3.41796875,-35.15625,-65.4296875,-8.7890625,0.0
1676924408.0193765,0.0,-29.296875,-65.4296875,-22.4609375,0.0
1676924408.0224957,-1.46484375,-31.25,-67.3828125,-17.08984375,0.0
1676924408.0256147,6.8359375,-30.2734375,-70.80078125,0.9765625,0.0
1676924408.028734,0.48828125,-30.2734375,-72.265625,17.578125,0.0
1676924408.0318532,-7.32421875,-31.73828125,-69.3359375,12.20703125,0.0
1676924408.0349724,0.0,-28.80859375,-62.5,1.953125,0.0
1676924408.0380917,-1.953125,-28.80859375,-66.89453125,-6.34765625,0.0
1676924408.0412107,-1.953125,-38.0859375,-82.51953125,-13.18359375,0.0
1676924408.04433,1.46484375,-38.57421875,-87.40234375,-3.90625,0.0
1676924408.047449,-2.44140625,-27.34375,-78.125,-8.7890625,0.0
1676924408.0505683,-6.34765625,-34.1796875,-73.2421875,-8.30078125,0.0
1676924408.0537517,0.48828125,-33.203125,-67.3828125,-6.8359375,0.0
1676924408.0569348,1.953125,-26.85546875,-77.1484375,-0.9765625,0.0
1676924408.0601182,-16.6015625,-33.203125,-91.30859375,10.7421875,0.0
1676924408.0633016,-16.6015625,-34.1796875,-88.8671875,0.48828125,0.0
1676924408.066485,-3.41796875,-36.62109375,-85.9375,-1.46484375,0.0
1676924408.0696683,-6.8359375,-42.48046875,-84.9609375,4.39453125,0.0
1676924408.0728514,-6.34765625,-45.41015625,-84.47265625,-3.90625,0.0
1676924408.0760348,-0.48828125,-39.55078125,-83.0078125,3.90625,0.0
1676924408.0792181,1.46484375,-36.1328125,-85.9375,21.97265625,0.0
1676924408.0824013,-0.48828125,-36.1328125,-87.40234375,11.23046875,0.0
1676924408.0855846,-10.7421875,-41.015625,-82.03125,-3.90625,0.0
1676924408.088768,-16.6015625,-49.8046875,-82.51953125,-3.90625,0.0
1676924408.0928178,-16.6015625,-49.8046875,-89.35546875,0.9765625,0.0
1676924408.0968673,-17.578125,-41.50390625,-87.890625,5.37109375,0.0
1676924408.100917,-19.04296875,-37.109375,-67.87109375,5.859375,0.0
1676924408.1049669,-15.625,-47.36328125,-58.59375,-0.48828125,0.0
1676924408.1090164,-7.8125,-51.7578125,-65.4296875,-19.04296875,0.0
1676924408.1130662,-14.16015625,-49.31640625,-72.75390625,-22.94921875,0.0
1676924408.117116,-15.625,-50.29296875,-79.58984375,-12.6953125,0.0
1676924408.1211655,-19.04296875,-48.828125,-81.54296875,-23.4375,0.0
1676924408.1252153,-18.06640625,-43.9453125,-66.40625,-13.671875,0.0
1676924408.129265,-14.6484375,-39.0625,-55.17578125,-4.39453125,0.0
1676924408.1333146,-9.765625,-43.45703125,-61.5234375,-19.04296875,0.0
1676924408.1373644,-1.953125,-42.96875,-65.91796875,-20.5078125,0.0
1676924408.140832,-8.7890625,-39.0625,-62.5,-19.53125,0.0
1676924408.1442993,-6.8359375,-34.66796875,-59.5703125,-12.20703125,0.0
1676924408.1477668,-4.39453125,-39.55078125,-51.7578125,-4.8828125,0.0
1676924408.1512341,-7.8125,-38.57421875,-44.43359375,0.0,0.0
1676924408.1547017,-5.37109375,-27.83203125,-53.22265625,-2.44140625,0.0
1676924408.1581693,-9.27734375,-31.25,-56.640625,0.9765625,0.0
1676924408.1616366,-13.671875,-33.203125,-54.6875,16.11328125,0.0
1676924408.1651042,-6.34765625,-35.15625,-60.546875,10.25390625,0.0
1676924408.1685715,-2.44140625,-34.1796875,-58.10546875,-1.46484375,0.0
1676924408.172039,-4.39453125,-33.69140625,-51.7578125,-2.9296875,0.0
1676924408.1755064,3.90625,-36.1328125,-58.10546875,-0.48828125,0.0
1676924408.178974,0.9765625,-36.62109375,-62.01171875,-5.37109375,0.0
1676924408.1826868,-8.7890625,-37.59765625,-57.12890625,-10.25390625,0.0
1676924408.1863997,-7.8125,-33.69140625,-59.08203125,-5.37109375,0.0
1676924408.1901126,-4.39453125,-31.25,-56.15234375,0.48828125,0.0
1676924408.1938255,-4.8828125,-24.90234375,-49.31640625,4.8828125,0.0
1676924408.1975384,-8.7890625,-31.25,-57.12890625,-6.34765625,0.0
1676924408.2012513,-12.6953125,-49.8046875,-61.03515625,-22.94921875,0.0
1676924408.2049642,-6.8359375,-55.17578125,-54.6875,-15.13671875,0.0
1676924408.208677,1.46484375,-43.45703125,-41.015625,-3.41796875,0.0
1676924408.21239,2.9296875,-36.62109375,-35.15625,-13.671875,0.0
1676924408.2161028,9.765625,-46.38671875,-46.875,-13.671875,0.0
1676924408.2198157,15.625,-48.33984375,-52.24609375,-0.9765625,0.0
1676924408.2235286,6.34765625,-40.0390625,-47.36328125,-10.25390625,0.0
1676924408.2276986,-4.8828125,-43.9453125,-51.26953125,-30.2734375,0.0
1676924408.2318687,-9.27734375,-51.7578125,-53.22265625,-31.25,0.0
1676924408.2360387,-14.6484375,-52.24609375,-47.36328125,-27.34375,0.0
1676924408.2402089,-20.5078125,-51.26953125,-51.26953125,-23.92578125,0.0
1676924408.2443788,-18.06640625,-52.24609375,-58.59375,-16.6015625,0.0
1676924408.248549,-10.25390625,-52.734375,-64.453125,-8.7890625,0.0
1676924408.252719,-2.44140625,-48.828125,-67.3828125,-2.44140625,0.0
1676924408.2568889,-0.9765625,-43.9453125,-62.01171875,-7.8125,0.0
1676924408.261059,3.90625,-39.0625,-57.12890625,5.859375,0.0
1676924408.265229,12.6953125,-38.57421875,-61.03515625,4.39453125,0.0
1676924408.2693992,5.37109375,-31.73828125,-69.3359375,-8.7890625,0.0
1676924408.273569,-3.41796875,-22.94921875,-69.3359375,3.90625,0.0
1676924408.277662,-4.39453125,-26.3671875,-63.96484375,-3.41796875,0.0
1676924408.281755,-10.25390625,-35.64453125,-64.94140625,1.46484375,0.0
1676924408.285848,-3.41796875,-33.203125,-59.08203125,12.6953125,0.0
1676924408.2899408,3.41796875,-23.92578125,-57.12890625,-0.48828125,0.0
1676924408.2940338,-6.34765625,-33.69140625,-69.3359375,-3.90625,0.0
1676924408.2981267,-12.20703125,-44.921875,-79.58984375,-16.6015625,0.0
1676924408.3022194,-14.16015625,-39.55078125,-74.21875,-28.80859375,0.0
1676924408.3063123,-13.18359375,-32.2265625,-68.84765625,-30.2734375,0.0
1676924408.3104053,-11.23046875,-35.15625,-63.4765625,-23.4375,0.0
1676924408.3144982,-8.30078125,-39.0625,-55.17578125,-19.53125,0.0
1676924408.318591,0.48828125,-37.109375,-61.5234375,-18.06640625,0.0
1676924408.322684,4.39453125,-35.15625,-67.3828125,-8.7890625,0.0
1676924408.3270965,5.37109375,-38.57421875,-67.3828125,6.34765625,0.0
1676924408.3315089,8.7890625,-37.59765625,-69.82421875,9.27734375,0.0
1676924408.3359213,5.859375,-31.25,-65.91796875,0.9765625,0.0
1676924408.3403337,0.9765625,-35.64453125,-69.82421875,-4.8828125,0.0
1676924408.344746,-3.90625,-42.96875,-82.03125,-3.41796875,0.0
1676924408.3491583,-4.8828125,-34.66796875,-78.61328125,11.23046875,0.0
1676924408.3535707,-0.9765625,-22.94921875,-68.359375,5.37109375,0.0
1676924408.357983,8.7890625,-20.99609375,-71.2890625,-6.34765625,0.0
1676924408.3623955,14.16015625,-28.80859375,-72.265625,0.9765625,0.0
1676924408.366808,0.9765625,-35.64453125,-64.94140625,7.8125,0.0
1676924408.3712204,-9.765625,-36.62109375,-63.96484375,2.44140625,0.0
1676924408.3756328,-4.39453125,-37.109375,-62.98828125,4.39453125,0.0
1676924408.3793802,-0.9765625,-33.69140625,-62.5,15.13671875,0.0
1676924408.3831277,2.9296875,-32.71484375,-65.4296875,8.7890625,0.0
1676924408.3868752,0.0,-33.69140625,-62.98828125,-3.90625,0.0
1676924408.3906224,1.46484375,-34.66796875,-66.89453125,-5.859375,0.0
1676924408.3943698,10.7421875,-35.64453125,-72.265625,5.37109375,0.0
1676924408.3981173,5.37109375,-31.73828125,-64.453125,12.6953125,0.0
1676924408.4018648,-8.30078125,-29.296875,-66.40625,9.765625,0.0
1676924408.4056122,-13.671875,-33.203125,-71.2890625,22.4609375,0.0
1676924408.4093595,-12.6953125,-30.76171875,-60.546875,27.83203125,0.0
1676924408.413107,-2.44140625,-27.83203125,-49.31640625,11.71875,0.0
1676924408.4168544,1.46484375,-27.83203125,-53.22265625,2.44140625,0.0
1676924408.4206018,-2.9296875,-25.390625,-60.05859375,9.27734375,0.0
1676924408.4270499,12.6953125,-20.5078125,-60.05859375,20.99609375,0.0
1676924408.4334981,17.578125,-20.01953125,-59.5703125,0.0,0.0
1676924408.4399462,-1.953125,-25.390625,-54.19921875,-8.7890625,0.0
1676924408.4463942,-2.9296875,-30.2734375,-51.7578125,-0.48828125,0.0
1676924408.4528425,3.41796875,-32.71484375,-51.7578125,-8.7890625,0.0
1676924408.4592905,3.90625,-32.2265625,-47.36328125,-8.30078125,0.0
1676924408.4657385,2.44140625,-33.69140625,-50.29296875,-15.13671875,0.0
1676924408.4721868,-2.44140625,-31.25,-51.7578125,-16.6015625,0.0
1676924408.4786348,2.9296875,-32.2265625,-54.19921875,-7.8125,0.0
1676924408.4850829,-5.37109375,-29.296875,-55.6640625,-7.8125,0.0
1676924408.4915311,-20.01953125,-27.34375,-51.7578125,-20.01953125,0.0
1676924408.4979792,-9.27734375,-35.64453125,-52.734375,-16.6015625,0.0
1676924408.4991012,-0.9765625,-31.73828125,-54.19921875,-0.48828125,0.0
1676924408.500223,-2.9296875,-25.390625,-56.15234375,-0.48828125,0.0
1676924408.501345,-13.671875,-41.9921875,-57.6171875,-6.8359375,0.0
1676924408.5024667,-21.97265625,-43.9453125,-52.734375,3.41796875,0.0
1676924408.5035887,-22.4609375,-32.71484375,-51.7578125,-1.46484375,0.0
1676924408.5047107,-18.5546875,-40.0390625,-54.6875,-15.625,0.0
1676924408.5058324,-10.25390625,-40.0390625,-49.31640625,-11.23046875,0.0
1676924408.5069544,-9.765625,-41.015625,-51.7578125,-12.20703125,0.0
1676924408.5080762,-15.13671875,-45.8984375,-59.08203125,-14.6484375,0.0
1676924408.5091982,-17.08984375,-47.8515625,-65.91796875,-10.25390625,0.0
1676924408.51032,-8.7890625,-47.36328125,-62.98828125,-12.6953125,0.0
1676924408.511442,-0.48828125,-52.24609375,-67.87109375,-5.859375,0.0
1676924408.6157377,-1.46484375,-26.3671875,-54.19921875,1.46484375,0.0
1676924408.6157384,-11.71875,-31.25,-41.015625,-8.7890625,0.0
1676924408.6157389,-11.71875,-35.15625,-52.24609375,-3.41796875,0.0
1676924408.6157396,-9.765625,-31.73828125,-55.6640625,1.953125,0.0
1676924408.61574,-13.671875,-26.85546875,-55.17578125,-9.27734375,0.0
1676924408.6157408,-24.4140625,-28.80859375,-59.5703125,-8.30078125,0.0
1676924408.6157413,-22.94921875,-35.15625,-69.3359375,7.8125,0.0
1676924408.6157417,-5.859375,-37.59765625,-70.80078125,8.7890625,0.0
1676924408.6157424,3.90625,-26.85546875,-63.96484375,-3.90625,0.0
1676924408.615743,-2.9296875,-27.83203125,-71.77734375,-15.625,0.0
1676924408.6157436,-6.8359375,-33.203125,-75.68359375,-20.99609375,0.0
1676924408.615744,0.9765625,-31.73828125,-64.94140625,-14.16015625,0.0
1676924408.6183038,-3.90625,-26.3671875,-52.24609375,-11.71875,0.0
1676924408.6208637,-18.06640625,-25.390625,-51.26953125,-22.94921875,0.0
1676924408.6234233,-18.5546875,-22.4609375,-56.15234375,-21.97265625,0.0
1676924408.6259832,-15.13671875,-21.484375,-49.31640625,-0.9765625,0.0
1676924408.628543,-13.18359375,-23.92578125,-47.36328125,5.37109375,0.0
1676924408.6311026,-8.30078125,-24.4140625,-59.08203125,-8.30078125,0.0
1676924408.6336625,-2.9296875,-31.25,-63.96484375,-5.859375,0.0
1676924408.6362221,-5.37109375,-28.3203125,-57.6171875,-2.9296875,0.0
1676924408.638782,-13.18359375,-31.73828125,-68.84765625,-11.23046875,0.0
1676924408.6413417,-14.16015625,-41.015625,-84.47265625,-4.39453125,0.0
1676924408.6439016,-16.6015625,-32.2265625,-76.66015625,-10.25390625,0.0
1676924408.6464612,-17.08984375,-28.3203125,-62.5,2.44140625,1.0
1676924408.6496005,-6.8359375,-32.2265625,-56.15234375,9.27734375,0.0
1676924408.65274,-12.6953125,-43.45703125,-63.96484375,-13.18359375,0.0
1676924408.6558793,-14.6484375,-47.36328125,-65.4296875,-14.6484375,0.0
1676924408.6590185,-13.671875,-38.0859375,-67.87109375,-8.30078125,0.0
1676924408.6621578,-8.7890625,-32.71484375,-80.078125,-21.97265625,0.0
1676924408.665297,-9.765625,-31.73828125,-85.44921875,-26.3671875,0.0
1676924408.6684365,-8.7890625,-25.390625,-70.80078125,-10.7421875,0.0
1676924408.6715758,-11.23046875,-18.5546875,-56.640625,-13.671875,0.0
1676924408.674715,-6.8359375,-21.484375,-58.59375,-9.27734375,0.0
1676924408.6778545,0.0,-24.90234375,-67.87109375,5.37109375,0.0
1676924408.6809938,-0.48828125,-16.11328125,-71.77734375,0.9765625,0.0
1676924408.684133,-4.8828125,-15.13671875,-70.80078125,3.90625,0.0
1676924408.692761,-0.9765625,-20.5078125,-68.359375,4.39453125,0.0
1676924408.7013888,4.39453125,-18.5546875,-70.80078125,-1.46484375,0.0
1676924408.7100167,2.9296875,-20.99609375,-83.0078125,8.30078125,0.0
1676924408.7186446,0.9765625,-24.90234375,-84.9609375,0.48828125,0.0
1676924408.7272725,-2.44140625,-32.71484375,-80.078125,-2.9296875,0.0
1676924408.7359004,-4.8828125,-34.66796875,-81.0546875,-0.48828125,0.0
1676924408.7445285,-6.34765625,-32.71484375,-80.56640625,-5.37109375,0.0
1676924408.7531564,-0.48828125,-37.59765625,-70.3125,0.48828125,0.0
1676924408.7617843,-6.8359375,-39.0625,-72.75390625,-7.8125,0.0
1676924408.7704122,-8.30078125,-34.66796875,-77.1484375,-3.90625,0.0
1676924408.77904,2.9296875,-22.4609375,-67.87109375,6.34765625,0.0
1676924408.787668,3.41796875,-23.92578125,-60.546875,5.859375,0.0
1676924408.7891698,5.859375,-30.76171875,-49.31640625,15.625,0.0
1676924408.7906716,8.7890625,-25.87890625,-42.48046875,29.78515625,0.0
1676924408.7921734,4.39453125,-27.34375,-41.50390625,14.6484375,0.0
1676924408.7936754,-3.41796875,-33.203125,-35.64453125,10.25390625,0.0
1676924408.7951772,-7.32421875,-33.203125,-27.34375,15.625,0.0
1676924408.796679,-11.23046875,-37.109375,-30.76171875,-15.13671875,0.0
1676924408.7981808,-11.71875,-34.1796875,-34.1796875,-22.4609375,0.0
1676924408.7996826,-12.6953125,-33.69140625,-34.66796875,-7.8125,0.0
1676924408.8011847,-7.8125,-39.0625,-36.62109375,11.71875,0.0
1676924408.8026865,-1.953125,-32.2265625,-32.71484375,18.5546875,0.0
1676924408.8041883,-7.8125,-31.73828125,-24.4140625,0.9765625,0.0
1676924408.80569,-8.7890625,-43.9453125,-30.2734375,1.46484375,0.0
1676924408.8101926,-9.765625,-49.31640625,-41.50390625,12.6953125,0.0
1676924408.8146951,-19.53125,-43.45703125,-48.828125,2.9296875,0.0
1676924408.8191977,-20.01953125,-40.52734375,-53.22265625,-0.48828125,0.0
1676924408.8237,-9.765625,-38.57421875,-51.7578125,6.34765625,0.0
1676924408.8282025,-7.8125,-39.55078125,-55.17578125,-2.44140625,0.0
1676924408.832705,-9.27734375,-41.9921875,-61.5234375,-7.8125,0.0
1676924408.8372076,-10.7421875,-34.1796875,-66.40625,-13.18359375,0.0
1676924408.84171,-13.671875,-32.71484375,-66.40625,-14.6484375,0.0
1676924408.8462124,-13.18359375,-31.25,-65.91796875,-8.7890625,0.0
1676924408.850715,-14.16015625,-26.85546875,-66.89453125,-21.97265625,0.0
1676924408.8552175,-11.71875,-31.25,-69.3359375,-22.4609375,0.0
1676924408.85972,-3.90625,-35.15625,-71.2890625,-18.06640625,0.0
1676924408.8629043,-3.41796875,-40.52734375,-59.08203125,-14.6484375,0.0
1676924408.8660889,-5.859375,-39.0625,-50.78125,-6.8359375,0.0
1676924408.8692732,-1.46484375,-41.9921875,-58.59375,-0.9765625,0.0
1676924408.8724575,9.27734375,-44.921875,-70.80078125,1.46484375,0.0
1676924408.875642,15.13671875,-43.9453125,-71.77734375,0.0,0.0
1676924408.8788264,9.27734375,-41.50390625,-62.5,13.18359375,0.0
1676924408.8820107,7.8125,-40.0390625,-62.5,10.25390625,0.0
1676924408.8851953,13.18359375,-45.41015625,-74.21875,9.27734375,0.0
1676924408.8883796,10.25390625,-41.50390625,-84.47265625,13.18359375,0.0
1676924408.891564,0.9765625,-31.73828125,-81.54296875,-3.90625,0.0
1676924408.8947484,-7.32421875,-37.109375,-80.56640625,-0.48828125,0.0
1676924408.8979328,-3.41796875,-41.50390625,-78.125,15.625,0.0
1676924408.9772263,5.859375,-34.66796875,-92.7734375,-3.90625,0.0
1676924408.977227,-0.48828125,-32.2265625,-97.65625,2.9296875,0.0
1676924408.9772277,-1.953125,-41.50390625,-97.16796875,12.20703125,0.0
1676924408.9772284,6.34765625,-39.0625,-91.796875,-2.9296875,0.0
1676924408.977229,10.25390625,-36.62109375,-84.47265625,-1.953125,0.0
1676924408.97723,5.859375,-40.0390625,-81.54296875,16.11328125,0.0
1676924408.9772308,2.9296875,-41.50390625,-82.51953125,8.30078125,0.0
1676924408.9772315,3.90625,-41.50390625,-96.19140625,4.8828125,0.0
1676924408.9772322,0.0,-37.109375,-113.76953125,7.8125,0.0
1676924408.977233,0.0,-35.15625,-108.3984375,-10.25390625,0.0
1676924408.9772336,-1.953125,-41.9921875,-105.95703125,-5.859375,0.0
1676924408.9772344,-1.46484375,-41.50390625,-108.3984375,12.20703125,0.0
1676924408.97726,13.18359375,-30.76171875,-112.3046875,8.7890625,0.0
1676924408.9772859,9.765625,-35.15625,-114.2578125,-1.46484375,0.0
1676924408.9773118,10.25390625,-45.41015625,-93.26171875,6.8359375,0.0
1676924408.9773376,10.7421875,-42.96875,-83.0078125,7.32421875,0.0
1676924408.9773633,14.6484375,-36.62109375,-91.796875,2.44140625,0.0
1676924408.9773893,14.6484375,-33.203125,-97.16796875,-3.41796875,0.0
1676924408.977415,14.6484375,-33.203125,-94.23828125,7.8125,0.0
1676924408.9774408,10.7421875,-33.203125,-96.19140625,7.32421875,0.0
1676924408.9774666,-0.9765625,-35.15625,-96.6796875,-2.44140625,0.0
1676924408.9774923,2.44140625,-37.59765625,-92.7734375,7.8125,0.0
1676924408.9775183,6.8359375,-42.96875,-96.19140625,11.23046875,0.0
1676924408.977544,4.8828125,-40.0390625,-96.6796875,11.23046875,0.0
1676924408.9837103,3.90625,-31.73828125,-95.21484375,13.18359375,0.0
1676924408.9898763,9.27734375,-34.66796875,-99.12109375,17.08984375,0.0
1676924408.9960425,9.27734375,-27.83203125,-103.02734375,12.20703125,0.0
1676924409.0022085,10.25390625,-21.97265625,-100.5859375,11.71875,0.0
1676924409.0083747,15.625,-22.94921875,-96.6796875,22.94921875,0.0
1676924409.0145407,10.7421875,-26.85546875,-108.3984375,13.18359375,0.0
1676924409.020707,1.46484375,-29.78515625,-113.76953125,-9.27734375,0.0
1676924409.026873,-0.9765625,-26.85546875,-87.890625,-13.18359375,0.0
1676924409.033039,0.9765625,-29.78515625,-75.1953125,-5.37109375,0.0
1676924409.0392053,-5.37109375,-36.62109375,-83.984375,-0.48828125,0.0
1676924409.0453713,-6.8359375,-37.59765625,-77.1484375,3.41796875,0.0
1676924409.0515375,-5.859375,-33.203125,-64.453125,0.9765625,0.0
1676924409.0543296,-0.48828125,-26.85546875,-75.1953125,-1.46484375,0.0
1676924409.0571218,0.0,-26.3671875,-63.4765625,-1.46484375,0.0
1676924409.0599139,0.9765625,-33.203125,-58.59375,-6.34765625,0.0
1676924409.062706,0.9765625,-29.78515625,-58.10546875,-11.71875,0.0
1676924409.065498,-7.32421875,-27.83203125,-60.546875,-4.8828125,0.0
1676924409.0682902,-9.765625,-38.0859375,-61.03515625,8.30078125,0.0
1676924409.0710826,-13.18359375,-39.55078125,-59.08203125,0.9765625,0.0
1676924409.0738747,-17.578125,-33.203125,-57.12890625,-9.765625,0.0
1676924409.0766668,-17.578125,-31.73828125,-64.453125,-4.39453125,0.0
1676924409.079459,-16.6015625,-33.69140625,-72.265625,-7.8125,0.0
1676924409.082251,-16.6015625,-29.296875,-73.73046875,-12.20703125,0.0
1676924409.0850432,-22.4609375,-29.78515625,-74.21875,-1.46484375,0.0
1676924409.0926588,-19.53125,-60.05859375,-60.546875,-12.6953125,0.0
1676924409.100274,-12.20703125,-47.8515625,-55.6640625,-24.90234375,0.0
1676924409.1078897,-10.7421875,-46.875,-60.05859375,-16.6015625,0.0
1676924409.115505,-7.8125,-47.36328125,-70.3125,-11.23046875,0.0
1676924409.1231205,0.48828125,-44.921875,-76.171875,-14.16015625,0.0
1676924409.1307359,1.953125,-42.48046875,-72.265625,-6.34765625,0.0
1676924409.1383514,-0.9765625,-35.64453125,-73.73046875,4.39453125,0.0
1676924409.145967,-5.859375,-38.0859375,-77.63671875,-4.39453125,0.0
1676924409.1535823,-13.671875,-46.875,-75.68359375,-3.90625,0.0
1676924409.161198,-14.6484375,-43.45703125,-63.96484375,-6.34765625,0.0
1676924409.1688132,-19.53125,-38.57421875,-61.03515625,-17.08984375,0.0
1676924409.1764288,-18.5546875,-43.45703125,-68.84765625,-15.625,0.0
1676924409.1807117,0.0,-29.296875,-71.77734375,-1.953125,0.0
1676924409.1849947,-3.41796875,-26.85546875,-71.77734375,-4.8828125,0.0
1676924409.1892774,1.46484375,-31.25,-77.63671875,-8.30078125,0.0
1676924409.1935604,5.37109375,-32.2265625,-80.56640625,8.7890625,0.0
1676924409.1978433,12.20703125,-29.296875,-87.40234375,0.9765625,0.0
1676924409.202126,10.7421875,-24.4140625,-84.9609375,-4.8828125,0.0
1676924409.206409,9.765625,-20.99609375,-82.03125,-5.37109375,0.0
1676924409.210692,11.71875,-26.85546875,-87.890625,-4.8828125,0.0
1676924409.2149749,-0.9765625,-29.78515625,-80.078125,0.0,0.0
1676924409.2192578,-12.6953125,-30.76171875,-72.75390625,-15.625,0.0
1676924409.2235405,-18.5546875,-42.96875,-77.63671875,-9.765625,0.0
1676924409.2278235,-14.6484375,-49.8046875,-80.078125,9.27734375,0.0
1676924409.2357721,-7.32421875,-43.45703125,-73.73046875,-1.953125,0.0
1676924409.2437205,-7.8125,-34.1796875,-80.56640625,-19.04296875,0.0
1676924409.2516692,-12.20703125,-32.2265625,-86.9140625,-21.484375,0.0
1676924409.2596178,-13.671875,-38.0859375,-82.03125,-17.08984375,0.0
1676924409.2675664,-13.18359375,-39.55078125,-83.49609375,-16.6015625,0.0
1676924409.275515,-16.6015625,-33.69140625,-88.8671875,-18.5546875,0.0
1676924409.2834635,-15.13671875,-33.69140625,-93.26171875,-19.04296875,0.0
1676924409.291412,-20.99609375,-40.0390625,-87.40234375,0.0,0.0
1676924409.2993608,-36.1328125,-35.15625,-77.63671875,5.859375,0.0
1676924409.3073092,-34.66796875,-35.15625,-78.61328125,-14.6484375,0.0
1676924409.3152578,-26.3671875,-38.0859375,-75.68359375,-18.06640625,0.0
1676924409.3232064,-24.90234375,-35.64453125,-75.68359375,-10.7421875,0.0
1676924409.3287628,-22.4609375,-31.25,-83.49609375,-13.18359375,0.0
1676924409.334319,-15.13671875,-32.2265625,-84.9609375,-11.71875,0.0
1676924409.3398752,-9.765625,-37.109375,-88.8671875,-1.46484375,0.0
1676924409.3454316,-17.08984375,-35.15625,-90.33203125,-3.41796875,0.0
1676924409.350988,-21.97265625,-38.0859375,-99.12109375,-16.11328125,0.0
1676924409.3565443,-17.08984375,-42.96875,-104.00390625,-19.04296875,0.0
1676924409.3621006,-19.53125,-43.45703125,-104.00390625,-10.25390625,0.0
1676924409.367657,-22.94921875,-36.62109375,-93.75,0.48828125,0.0
1676924409.3732133,-28.3203125,-34.1796875,-87.40234375,-16.6015625,0.0
1676924409.3787694,-28.3203125,-41.9921875,-93.26171875,-21.97265625,0.0
1676924409.3843257,-19.53125,-42.48046875,-89.35546875,-20.01953125,0.0
1676924409.389882,-14.6484375,-43.45703125,-90.8203125,-30.76171875,0.0
1676924409.3917108,-4.8828125,-43.9453125,-95.703125,-19.53125,0.0
1676924409.3935397,0.48828125,-39.55078125,-86.9140625,-3.90625,0.0
1676924409.3953683,-2.9296875,-38.57421875,-75.1953125,-4.8828125,0.0
1676924409.397197,-14.6484375,-48.33984375,-82.51953125,-11.23046875,0.0
1676924409.399026,-15.625,-52.734375,-85.44921875,-14.16015625,0.0
1676924409.4008546,-8.30078125,-45.41015625,-74.21875,-13.671875,0.0
1676924409.4026833,-1.953125,-50.29296875,-72.265625,-9.27734375,0.0
1676924409.4045122,-0.48828125,-47.8515625,-79.58984375,-10.7421875,0.0
1676924409.4063408,-10.7421875,-47.36328125,-83.984375,-16.11328125,0.0
1676924409.4081695,-16.6015625,-58.10546875,-86.9140625,-13.671875,0.0
1676924409.4099984,-16.11328125,-56.15234375,-80.078125,-13.671875,0.0
1676924409.411827,-19.04296875,-52.24609375,-76.66015625,-9.765625,0.0
1676924409.4166589,-20.5078125,-50.29296875,-83.0078125,-7.32421875,0.0
1676924409.4214907,-12.6953125,-52.24609375,-83.984375,-17.08984375,0.0
1676924409.4263227,-11.71875,-56.640625,-79.58984375,-21.97265625,0.0
1676924409.4311545,-12.20703125,-50.29296875,-80.078125,-19.04296875,0.0
1676924409.4359863,-17.08984375,-49.31640625,-85.44921875,-14.16015625,0.0
1676924409.4408183,-20.99609375,-60.05859375,-80.56640625,-3.41796875,0.0
1676924409.44565,-12.20703125,-53.22265625,-74.70703125,-5.37109375,0.0
1676924409.450482,-7.32421875,-48.828125,-78.61328125,-10.25390625,0.0
1676924409.4553137,-11.23046875,-51.26953125,-80.078125,-9.765625,0.0
1676924409.4601455,-9.27734375,-51.7578125,-82.51953125,-2.44140625,0.0
1676924409.4649775,-2.44140625,-44.43359375,-79.1015625,3.90625,0.0
1676924409.4698093,-5.37109375,-39.0625,-79.58984375,-0.48828125,0.0
1676924409.4727514,-13.18359375,-48.33984375,-81.54296875,-2.9296875,0.0
1676924409.4756935,-19.53125,-46.38671875,-80.078125,-5.37109375,0.0
1676924409.4786358,-11.23046875,-49.8046875,-82.51953125,-4.39453125,0.0
1676924409.4815779,-2.44140625,-47.8515625,-71.2890625,0.48828125,0.0
1676924409.48452,-0.9765625,-43.45703125,-68.359375,-5.859375,0.0
1676924409.487462,-1.953125,-45.41015625,-81.0546875,-14.6484375,0.0
1676924409.4904041,-8.7890625,-46.38671875,-84.47265625,-18.5546875,0.0
1676924409.4933462,-18.06640625,-48.828125,-83.0078125,-17.578125,0.0
1676924409.4962883,-20.99609375,-55.6640625,-97.16796875,-16.11328125,0.0
1676924409.4992306,-14.16015625,-53.22265625,-108.3984375,-19.53125,0.0
1676924409.5021727,-11.71875,-44.921875,-108.88671875,-21.97265625,0.0
1676924409.5051148,-10.25390625,-46.875,-124.0234375,-22.4609375,0.0
1676924409.6113775,-6.8359375,-50.78125,-93.26171875,-7.32421875,0.0
1676924409.611378,0.9765625,-49.31640625,-94.23828125,1.953125,0.0
1676924409.6113787,0.9765625,-46.875,-95.703125,3.90625,0.0
1676924409.6113794,5.37109375,-50.78125,-88.8671875,5.859375,0.0
1676924409.6113799,5.859375,-55.17578125,-87.890625,8.7890625,0.0
1676924409.6113806,-1.46484375,-49.31640625,-87.890625,9.765625,0.0
1676924409.6113813,-3.41796875,-34.66796875,-86.9140625,5.859375,0.0
1676924409.6113818,1.953125,-33.69140625,-91.30859375,8.7890625,0.0
1676924409.6113825,-1.46484375,-31.25,-91.796875,15.625,0.0
1676924409.6113832,0.0,-21.97265625,-91.796875,14.6484375,0.0
1676924409.6113837,1.46484375,-29.78515625,-84.9609375,18.06640625,0.0
1676924409.6113844,-8.30078125,-38.0859375,-86.42578125,17.578125,2.0
1676924409.6113884,-9.765625,-38.0859375,-91.30859375,-0.9765625,0.0
1676924409.6113925,-5.859375,-41.015625,-83.984375,-12.6953125,0.0
1676924409.6113963,-9.27734375,-42.48046875,-95.21484375,-20.01953125,0.0
1676924409.6114004,-7.32421875,-38.0859375,-93.75,-11.71875,0.0
1676924409.6114044,-2.9296875,-42.96875,-86.42578125,-12.20703125,0.0
1676924409.6114082,3.90625,-48.828125,-90.33203125,-17.08984375,0.0
1676924409.6114123,3.90625,-42.96875,-90.8203125,0.48828125,0.0
1676924409.6114163,-1.953125,-34.1796875,-91.30859375,-6.8359375,0.0
1676924409.6114204,-5.859375,-31.73828125,-92.7734375,-10.7421875,0.0
1676924409.6114244,-9.27734375,-30.2734375,-88.8671875,-4.39453125,0.0
1676924409.6114283,-4.8828125,-31.73828125,-94.7265625,-17.08984375,0.0
1676924409.6114323,-14.6484375,-41.9921875,-88.8671875,-17.08984375,0.0
1676924409.6154718,-19.04296875,-43.45703125,-87.890625,-15.13671875,0.0
1676924409.6195111,-7.32421875,-33.203125,-98.6328125,-13.671875,0.0
1676924409.6235507,-8.30078125,-42.96875,-95.703125,-8.7890625,0.0
1676924409.6275902,-14.16015625,-53.7109375,-91.30859375,-9.765625,0.0
1676924409.6316295,-15.13671875,-48.828125,-98.6328125,-6.34765625,0.0
1676924409.635669,-7.8125,-41.9921875,-99.609375,-3.41796875,0.0
1676924409.6397085,1.46484375,-33.69140625,-87.890625,10.25390625,0.0
1676924409.6437478,4.39453125,-39.55078125,-85.9375,18.5546875,0.0
1676924409.6477873,1.953125,-43.45703125,-79.58984375,-1.953125,0.0
1676924409.6518269,-4.39453125,-29.78515625,-69.82421875,-12.20703125,0.0
1676924409.6558661,-7.32421875,-32.2265625,-79.58984375,-6.8359375,0.0
1676924409.6599057,-0.48828125,-41.015625,-84.47265625,-3.90625,0.0
1676924409.664356,0.48828125,-44.43359375,-80.078125,-5.859375,0.0
1676924409.6688066,-6.34765625,-40.0390625,-79.1015625,-9.765625,0.0
1676924409.6732569,-1.46484375,-38.57421875,-69.3359375,-5.37109375,0.0
1676924409.6777072,0.0,-34.66796875,-62.5,-7.8125,0.0
1676924409.6821578,-10.7421875,-29.78515625,-66.89453125,-8.7890625,0.0
1676924409.686608,-13.18359375,-37.109375,-70.80078125,-5.37109375,0.0
1676924409.6910584,-14.16015625,-38.0859375,-71.2890625,-4.39453125,0.0
1676924409.695509,-12.6953125,-38.57421875,-62.01171875,2.9296875,0.0
1676924409.6999593,-9.27734375,-33.203125,-60.546875,-10.25390625,0.0
1676924409.7044096,-3.41796875,-25.87890625,-79.58984375,-11.23046875,0.0
1676924409.7088602,0.9765625,-29.296875,-77.1484375,2.44140625,0.0
1676924409.7133105,-0.9765625,-33.203125,-64.94140625,3.90625,0.0
1676924409.7171283,-1.953125,-29.78515625,-69.3359375,2.9296875,0.0
1676924409.7209458,-3.90625,-30.76171875,-73.2421875,6.34765625,0.0
1676924409.7247636,1.953125,-37.109375,-64.453125,10.7421875,0.0
1676924409.7285814,8.7890625,-36.62109375,-67.87109375,4.8828125,0.0
1676924409.732399,5.37109375,-32.2265625,-86.42578125,10.7421875,0.0
1676924409.7362168,1.46484375,-32.71484375,-91.30859375,5.37109375,0.0
1676924409.7400346,-3.41796875,-36.62109375,-90.33203125,-16.11328125,0.0
1676924409.7438521,-17.08984375,-36.1328125,-92.28515625,-23.4375,0.0
1676924409.74767,-24.90234375,-30.76171875,-87.890625,-27.83203125,0.0
1676924409.7514877,-14.6484375,-29.78515625,-89.84375,-20.01953125,0.0
1676924409.7553053,0.0,-34.1796875,-90.33203125,-3.90625,0.0
1676924409.759123,-7.32421875,-39.55078125,-71.77734375,-4.8828125,0.0
1676924409.7628381,-12.6953125,-28.80859375,-64.453125,-4.39453125,0.0
1676924409.766553,-4.8828125,-29.78515625,-64.94140625,10.25390625,0.0
1676924409.770268,0.9765625,-28.3203125,-58.10546875,15.625,0.0
1676924409.773983,14.6484375,-24.90234375,-62.01171875,14.6484375,0.0
1676924409.777698,15.625,-24.90234375,-65.4296875,22.94921875,0.0
1676924409.781413,14.6484375,-35.64453125,-54.6875,19.04296875,0.0
1676924409.7851279,15.625,-34.1796875,-52.734375,16.6015625,0.0
1676924409.788843,16.6015625,-29.296875,-54.19921875,14.16015625,0.0
1676924409.792558,17.578125,-39.0625,-56.15234375,0.0,0.0
1676924409.7962728,9.27734375,-53.22265625,-67.3828125,5.859375,0.0
1676924409.7999878,-6.34765625,-50.78125,-66.40625,10.7421875,0.0
1676924409.8037028,-1.953125,-36.1328125,-55.6640625,4.39453125,0.0
1676924409.8112187,-2.9296875,-47.36328125,-60.546875,-0.48828125,0.0
1676924409.8187344,-14.16015625,-50.78125,-61.03515625,1.46484375,0.0
1676924409.8262503,-11.71875,-47.36328125,-60.05859375,5.859375,0.0
1676924409.8337662,-5.37109375,-49.31640625,-62.98828125,5.859375,0.0
1676924409.841282,-4.8828125,-47.8515625,-69.82421875,1.953125,0.0
1676924409.8487978,-7.8125,-45.41015625,-72.75390625,-3.41796875,0.0
1676924409.8563137,-4.8828125,-32.71484375,-62.01171875,-9.765625,0.0
1676924409.8638294,-4.39453125,-28.3203125,-65.91796875,-18.5546875,0.0
1676924409.8713453,-8.30078125,-36.62109375,-76.171875,-20.5078125,0.0
1676924409.8788612,-12.20703125,-37.109375,-78.61328125,-10.7421875,0.0
1676924409.8863769,-9.765625,-34.66796875,-72.265625,4.8828125,0.0
1676924409.8938928,-9.765625,-35.15625,-63.96484375,7.32421875,0.0
1676924409.8962138,-4.8828125,-33.203125,-71.2890625,-5.859375,0.0
1676924409.8985348,3.41796875,-33.203125,-78.61328125,7.8125,0.0
1676924409.9008558,5.859375,-38.0859375,-72.75390625,18.5546875,0.0
1676924409.9031768,3.41796875,-40.52734375,-75.68359375,5.37109375,0.0
1676924409.9054978,0.48828125,-38.57421875,-82.03125,10.25390625,0.0
1676924409.9078188,4.39453125,-33.69140625,-70.80078125,14.6484375,0.0
1676924409.9101398,-1.953125,-28.80859375,-74.21875,6.8359375,0.0
1676924409.9124608,-14.16015625,-35.15625,-88.8671875,-1.46484375,0.0
1676924409.9147818,-13.18359375,-48.33984375,-87.40234375,-1.46484375,0.0
1676924409.9171028,-8.7890625,-45.8984375,-89.35546875,7.32421875,0.0
1676924409.9194238,-7.32421875,-39.0625,-87.890625,-6.34765625,0.0
1676924409.9217448,-5.37109375,-45.8984375,-86.42578125,-19.53125,0.0
1676924409.9251986,-8.7890625,-46.38671875,-84.47265625,-6.34765625,0.0
1676924409.9286523,-14.6484375,-41.9921875,-83.49609375,-9.27734375,0.0
1676924409.932106,-13.18359375,-44.43359375,-87.40234375,-24.4140625,0.0
1676924409.9355595,-5.37109375,-46.38671875,-83.984375,-16.11328125,0.0
1676924409.9390132,-1.953125,-37.109375,-79.58984375,-11.23046875,0.0
1676924409.942467,-6.34765625,-40.0390625,-85.9375,-7.8125,0.0
1676924409.9459207,-10.7421875,-47.8515625,-86.42578125,-9.27734375,0.0
1676924409.9493744,-16.6015625,-46.875,-90.8203125,-14.6484375,0.0
1676924409.952828,-12.6953125,-43.9453125,-104.4921875,-8.7890625,0.0
1676924409.9562817,-9.765625,-37.59765625,-112.79296875,-12.6953125,0.0
1676924409.9597354,-14.16015625,-30.2734375,-105.46875,0.9765625,0.0
1676924409.9631891,-16.11328125,-33.203125,-94.23828125,5.37109375,0.0
1676924409.9682002,-4.8828125,-37.109375,-86.9140625,-11.71875,0.0
1676924409.973211,6.8359375,-29.78515625,-80.56640625,-5.37109375,0.0
1676924409.9782221,0.0,-32.71484375,-81.0546875,-1.953125,0.0
1676924409.983233,0.48828125,-36.62109375,-74.21875,1.953125,0.0
1676924409.988244,-4.8828125,-41.50390625,-75.1953125,-3.41796875,0.0
1676924409.9932551,-14.16015625,-45.8984375,-87.890625,-14.6484375,0.0
1676924409.998266,-14.16015625,-46.875,-91.796875,-14.16015625,0.0
1676924410.003277,-5.859375,-44.921875,-86.9140625,9.27734375,0.0
1676924410.008288,6.34765625,-36.1328125,-77.63671875,14.6484375,0.0
1676924410.013299,2.44140625,-32.2265625,-70.80078125,-10.25390625,0.0
1676924410.0183098,4.8828125,-41.9921875,-72.75390625,-11.23046875,0.0
1676924410.023321,17.08984375,-31.73828125,-73.73046875,1.46484375,0.0
1676924410.0259006,25.390625,-18.06640625,-71.77734375,11.23046875,0.0
1676924410.0284805,11.23046875,-20.5078125,-70.80078125,3.41796875,0.0
1676924410.0310602,-0.48828125,-23.92578125,-73.2421875,-2.44140625,0.0
1676924410.0336401,0.48828125,-20.99609375,-66.40625,10.7421875,0.0
1676924410.0362198,-3.41796875,-20.99609375,-65.91796875,7.32421875,0.0
1676924410.0387998,1.46484375,-31.73828125,-80.078125,2.44140625,0.0
1676924410.0413795,2.9296875,-32.2265625,-83.49609375,-5.859375,0.0
1676924410.0439591,0.0,-34.66796875,-88.37890625,-21.97265625,0.0
1676924410.046539,-7.32421875,-39.0625,-93.75,-19.04296875,0.0
1676924410.0491188,-4.8828125,-34.1796875,-91.796875,-11.71875,0.0
1676924410.0516987,2.44140625,-33.203125,-92.7734375,-10.7421875,0.0
1676924410.0542784,-0.48828125,-36.1328125,-94.7265625,-14.16015625,0.0
1676924410.0579438,-9.27734375,-36.1328125,-86.42578125,-19.53125,0.0
1676924410.0616093,-6.34765625,-38.0859375,-89.84375,-15.625,0.0
1676924410.0652747,9.27734375,-40.0390625,-94.23828125,-4.8828125,0.0
1676924410.0689402,3.41796875,-40.0390625,-87.890625,-6.34765625,0.0
1676924410.0726056,0.9765625,-37.109375,-84.9609375,-10.25390625,0.0
1676924410.076271,3.90625,-42.48046875,-93.75,-0.9765625,0.0
1676924410.0799363,2.44140625,-51.26953125,-107.91015625,4.39453125,0.0
1676924410.0836017,4.8828125,-54.6875,-108.88671875,16.6015625,0.0
1676924410.0872672,-2.44140625,-65.91796875,-96.19140625,11.71875,0.0
1676924410.0909326,-6.34765625,-76.66015625,-95.703125,-0.9765625,0.0
1676924410.094598,-8.7890625,-84.47265625,-97.16796875,4.39453125,0.0
1676924410.0982635,-10.7421875,-84.9609375,-86.42578125,5.37109375,0.0
1676924410.1020117,-8.7890625,-77.63671875,-85.9375,-4.8828125,0.0
1676924410.1057599,-8.30078125,-80.078125,-100.09765625,-8.30078125,0.0
1676924410.109508,-4.39453125,-79.58984375,-104.00390625,0.0,0.0
1676924410.1132565,-2.44140625,-74.21875,-89.84375,0.0,0.0
1676924410.1170046,-1.46484375,-72.265625,-90.33203125,-7.8125,0.0
1676924410.1207528,-3.90625,-79.58984375,-92.28515625,1.46484375,0.0
1676924410.124501,-11.71875,-83.984375,-84.47265625,7.8125,0.0
1676924410.1282492,-8.7890625,-70.80078125,-69.82421875,-0.48828125,0.0
1676924410.1319976,-8.30078125,-65.91796875,-66.89453125,-3.41796875,0.0
1676924410.1357458,-8.30078125,-75.1953125,-73.2421875,0.0,0.0
1676924410.139494,-4.8828125,-75.1953125,-71.77734375,-8.30078125,0.0
1676924410.1432421,-13.18359375,-68.359375,-74.70703125,-12.6953125,0.0
1676924410.1469848,-14.6484375,-67.87109375,-82.51953125,-5.37109375,0.0
1676924410.1507273,-7.8125,-69.3359375,-85.44921875,3.41796875,0.0
1676924410.15447,-11.71875,-71.77734375,-91.796875,-1.46484375,0.0
1676924410.1582127,-12.20703125,-71.77734375,-92.28515625,-10.25390625,0.0
1676924410.1619554,-2.9296875,-66.89453125,-90.33203125,0.48828125,0.0
1676924410.165698,1.46484375,-75.1953125,-98.6328125,-3.41796875,0.0
1676924410.1694405,3.41796875,-73.73046875,-88.8671875,-4.8828125,0.0
1676924410.1731832,-5.37109375,-62.5,-77.63671875,5.37109375,0.0
1676924410.176926,-8.7890625,-75.1953125,-87.40234375,1.953125,0.0
1676924410.1806684,-9.27734375,-79.58984375,-93.75,-4.39453125,0.0
1676924410.184411,-13.671875,-74.21875,-89.35546875,-17.08984375,0.0
1676924410.1881537,-15.625,-73.2421875,-86.9140625,-24.4140625,0.0
1676924410.193146,-21.97265625,-71.77734375,-89.35546875,-22.4609375,0.0
1676924410.1981385,-13.671875,-69.3359375,-90.8203125,-7.8125,0.0
1676924410.2031307,-11.71875,-57.6171875,-91.30859375,-4.8828125,0.0
1676924410.2081232,-21.484375,-57.12890625,-97.16796875,-21.484375,0.0
1676924410.2131155,-15.625,-63.4765625,-102.05078125,-20.5078125,0.0
1676924410.2181077,-17.08984375,-63.4765625,-96.19140625,-14.6484375,0.0
1676924410.2231002,-17.08984375,-62.98828125,-90.8203125,-13.671875,0.0
1676924410.2280924,-15.625,-62.01171875,-87.40234375,-23.92578125,0.0
1676924410.233085,-20.99609375,-65.91796875,-86.9140625,-17.08984375,0.0
1676924410.2380772,-14.16015625,-58.59375,-90.8203125,-3.41796875,0.0
1676924410.2430696,-13.18359375,-43.45703125,-86.9140625,-23.92578125,0.0
1676924410.248062,-8.30078125,-43.45703125,-83.49609375,-32.2265625,0.0
1676924410.2518172,1.46484375,-44.43359375,-79.58984375,-11.23046875,0.0
1676924410.2555726,-6.34765625,-42.96875,-83.49609375,-7.32421875,0.0
1676924410.259328,-10.7421875,-44.921875,-90.33203125,-15.625,0.0
1676924410.2630832,-6.34765625,-56.15234375,-97.16796875,-20.01953125,0.0
1676924410.2668386,0.0,-63.96484375,-104.98046875,-3.41796875,0.0
1676924410.2705941,4.39453125,-62.01171875,-96.19140625,13.18359375,0.0
1676924410.2743495,10.25390625,-52.734375,-94.23828125,-4.8828125,0.0
1676924410.2781048,-0.48828125,-46.875,-97.16796875,-7.8125,0.0
1676924410.28186,-4.39453125,-53.22265625,-101.07421875,10.25390625,0.0
1676924410.2856154,6.8359375,-48.33984375,-98.14453125,11.23046875,0.0
1676924410.2893708,8.7890625,-41.015625,-93.75,-0.48828125,0.0
1676924410.293126,8.7890625,-46.38671875,-95.21484375,4.39453125,0.0
1676924410.2968886,6.8359375,-44.921875,-84.47265625,4.39453125,0.0
1676924410.3006508,5.37109375,-41.015625,-78.61328125,1.46484375,0.0
1676924410.3044133,-9.27734375,-46.875,-79.58984375,-9.27734375,0.0
1676924410.3081756,-27.83203125,-57.6171875,-89.84375,-7.32421875,0.0
1676924410.311938,-26.85546875,-65.91796875,-91.796875,-10.7421875,0.0
1676924410.3157005,-21.97265625,-63.4765625,-83.0078125,-22.94921875,0.0
1676924410.3194628,-27.34375,-55.6640625,-86.42578125,-23.92578125,0.0
1676924410.3232253,-25.390625,-53.22265625,-92.7734375,-24.90234375,0.0
1676924410.3269875,-26.85546875,-52.734375,-94.7265625,-10.7421875,0.0
1676924410.33075,-28.3203125,-47.36328125,-98.6328125,-7.32421875,0.0
1676924410.3345122,-18.06640625,-42.96875,-97.16796875,-1.953125,0.0
1676924410.3382747,-12.6953125,-43.45703125,-88.37890625,8.30078125,0.0
1676924410.3420093,-7.8125,-40.0390625,-89.84375,0.0,0.0
1676924410.345744,2.9296875,-36.1328125,-85.9375,-4.8828125,0.0
1676924410.3494782,-0.48828125,-43.45703125,-82.03125,-11.23046875,0.0
1676924410.3532128,-4.8828125,-46.38671875,-83.49609375,-15.13671875,0.0
1676924410.3569474,3.90625,-41.9921875,-82.03125,-12.20703125,0.0
1676924410.360682,7.32421875,-43.9453125,-83.984375,-8.7890625,0.0
1676924410.3644166,15.625,-35.64453125,-78.61328125,2.44140625,0.0
1676924410.3681512,11.71875,-33.69140625,-70.80078125,10.7421875,0.0
1676924410.3718858,0.48828125,-39.0625,-81.0546875,2.9296875,0.0
1676924410.3756201,3.90625,-28.80859375,-89.35546875,6.34765625,0.0
1676924410.3793547,9.765625,-25.390625,-93.26171875,0.0,0.0
1676924410.3830893,11.23046875,-34.1796875,-98.6328125,-1.46484375,0.0
1676924410.388097,10.25390625,-30.76171875,-83.49609375,15.13671875,0.0
1676924410.393105,7.8125,-28.3203125,-76.171875,0.0,0.0
1676924410.3981128,9.27734375,-34.1796875,-83.49609375,-2.9296875,0.0
1676924410.4031205,8.7890625,-26.3671875,-76.66015625,16.11328125,0.0
1676924410.4081285,2.44140625,-25.87890625,-81.0546875,12.20703125,0.0
1676924410.4131362,2.44140625,-33.69140625,-87.890625,-1.46484375,0.0
1676924410.418144,8.7890625,-31.73828125,-81.0546875,-1.953125,0.0
1676924410.423152,9.27734375,-30.2734375,-76.66015625,10.7421875,0.0
1676924410.4281597,0.48828125,-26.3671875,-83.0078125,13.18359375,0.0
1676924410.4331675,0.0,-26.3671875,-92.28515625,16.11328125,0.0
1676924410.4381754,14.16015625,-29.296875,-88.8671875,19.04296875,0.0
1676924410.4431832,8.30078125,-28.80859375,-86.42578125,10.25390625,1.0
1676924410.4469414,-4.39453125,-26.85546875,-90.8203125,-6.34765625,0.0
1676924410.4506996,-7.32421875,-32.2265625,-95.21484375,-16.11328125,0.0
1676924410.4544578,-4.8828125,-37.109375,-97.65625,-0.9765625,0.0
1676924410.458216,-1.46484375,-37.109375,-86.9140625,4.39453125,0.0
1676924410.4619741,-1.953125,-40.0390625,-79.58984375,-6.8359375,0.0
1676924410.4657323,-2.9296875,-44.43359375,-81.0546875,-14.6484375,0.0
1676924410.4694905,-2.9296875,-44.43359375,-79.1015625,-3.41796875,0.0
1676924410.4732487,-4.39453125,-40.52734375,-75.68359375,5.37109375,0.0
1676924410.477007,-10.7421875,-41.015625,-80.078125,2.9296875,0.0
1676924410.480765,-5.859375,-40.0390625,-79.58984375,-3.90625,0.0
1676924410.4845233,-8.7890625,-45.41015625,-73.2421875,-3.90625,0.0
1676924410.4882815,-19.04296875,-51.7578125,-72.265625,1.46484375,0.0
1676924410.4908726,-8.7890625,-44.921875,-72.75390625,-9.765625,0.0
1676924410.493464,-1.953125,-51.26953125,-67.87109375,-10.7421875,0.0
1676924410.4960551,-7.8125,-57.6171875,-66.89453125,-8.7890625,0.0
1676924410.4986463,-4.8828125,-49.8046875,-70.3125,-12.6953125,0.0
1676924410.5012376,-2.9296875,-49.8046875,-62.01171875,-1.953125,0.0
1676924410.5038288,-9.765625,-55.17578125,-64.453125,-2.44140625,0.0
1676924410.50642,-4.8828125,-55.6640625,-78.61328125,-21.97265625,0.0
1676924410.5090113,5.859375,-48.33984375,-80.56640625,-15.13671875,0.0
1676924410.5116024,3.41796875,-46.875,-83.0078125,-13.671875,0.0
1676924410.5141935,1.46484375,-54.19921875,-89.35546875,-18.06640625,0.0
1676924410.516785,0.48828125,-48.828125,-89.84375,-4.39453125,0.0
1676924410.519376,0.48828125,-42.96875,-88.8671875,0.48828125,0.0
1676924410.5230365,0.9765625,-43.9453125,-84.9609375,-0.9765625,0.0
1676924410.5266972,4.39453125,-41.9921875,-68.84765625,-1.953125,0.0
1676924410.5303576,11.71875,-46.38671875,-66.40625,-0.9765625,0.0
1676924410.534018,7.8125,-42.48046875,-73.73046875,3.41796875,0.0
1676924410.5376785,6.34765625,-35.15625,-76.66015625,-1.46484375,0.0
1676924410.541339,6.34765625,-41.9921875,-73.2421875,6.8359375,0.0
1676924410.5449996,4.8828125,-39.0625,-69.82421875,22.4609375,0.0
1676924410.54866,6.8359375,-25.390625,-66.89453125,12.6953125,0.0
1676924410.5523205,8.7890625,-26.85546875,-62.5,0.48828125,0.0
1676924410.5559812,-1.953125,-33.69140625,-60.546875,0.9765625,0.0
1676924410.5596416,-7.32421875,-35.64453125,-63.96484375,-1.46484375,0.0
1676924410.563302,-5.37109375,-35.64453125,-68.359375,4.39453125,0.0
1676924410.5695448,-5.37109375,-36.1328125,-68.359375,8.7890625,0.0
1676924410.5757878,-5.37109375,-28.3203125,-64.94140625,2.9296875,0.0
1676924410.5820308,-3.90625,-22.94921875,-63.96484375,0.9765625,0.0
1676924410.5882735,8.7890625,-24.4140625,-68.359375,1.46484375,0.0
1676924410.5945163,3.41796875,-29.296875,-78.125,3.90625,0.0
1676924410.6007593,-12.20703125,-30.2734375,-72.265625,13.18359375,0.0
1676924410.6070023,-13.671875,-27.34375,-65.91796875,10.7421875,0.0
1676924410.613245,-12.6953125,-26.3671875,-72.265625,-6.8359375,0.0
1676924410.6194878,-11.23046875,-37.59765625,-77.1484375,-12.6953125,0.0
1676924410.6257308,-12.20703125,-45.41015625,-79.58984375,-6.8359375,0.0
1676924410.6319737,-15.625,-38.0859375,-75.68359375,-6.8359375,0.0
1676924410.6382165,-14.16015625,-33.203125,-74.70703125,-15.13671875,0.0
1676924410.6407151,-7.32421875,-33.69140625,-79.1015625,-10.7421875,0.0
1676924410.6432137,-10.7421875,-35.64453125,-83.49609375,-16.6015625,0.0
1676924410.6457121,-11.71875,-35.64453125,-84.47265625,-17.08984375,0.0
1676924410.6482108,-3.41796875,-32.71484375,-80.56640625,0.0,0.0
1676924410.6507094,-4.39453125,-34.1796875,-78.125,1.46484375,0.0
1676924410.6532078,-0.48828125,-33.203125,-79.58984375,-2.44140625,0.0
1676924410.6557064,8.7890625,-25.87890625,-79.1015625,4.8828125,0.0
1676924410.658205,7.32421875,-29.296875,-78.61328125,15.13671875,0.0
1676924410.6607037,10.25390625,-38.57421875,-82.51953125,16.11328125,0.0
1676924410.6632023,18.5546875,-34.66796875,-75.1953125,10.25390625,0.0
1676924410.6657007,15.625,-27.83203125,-63.96484375,13.671875,0.0
1676924410.6681993,-0.48828125,-38.57421875,-62.98828125,8.30078125,0.0
1676924410.6719477,-10.25390625,-52.734375,-75.68359375,1.46484375,0.0
1676924410.6756961,0.48828125,-47.8515625,-81.54296875,8.7890625,0.0
1676924410.6794448,-0.48828125,-39.55078125,-79.58984375,1.46484375,0.0
1676924410.6831932,-7.32421875,-38.57421875,-80.56640625,-10.25390625,0.0
1676924410.6869416,-9.765625,-42.96875,-78.61328125,-17.578125,0.0
1676924410.69069,-12.20703125,-44.921875,-72.265625,-15.13671875,0.0
1676924410.6944385,-11.71875,-36.1328125,-59.5703125,-5.859375,0.0
1676924410.6981869,-10.7421875,-40.0390625,-63.96484375,-6.34765625,0.0
1676924410.7019353,-2.9296875,-48.33984375,-67.3828125,-0.48828125,0.0
1676924410.705684,2.9296875,-39.55078125,-50.29296875,7.32421875,0.0
1676924410.7094324,-2.9296875,-40.0390625,-45.8984375,-9.27734375,0.0
1676924410.7131808,-7.8125,-48.33984375,-52.734375,-15.625,0.0
1676924410.7170503,-5.37109375,-42.48046875,-47.36328125,10.25390625,0.0
1676924410.7209198,-13.671875,-41.50390625,-39.0625,6.8359375,0.0
1676924410.7247894,-20.01953125,-45.41015625,-53.22265625,-12.6953125,0.0
1676924410.728659,-10.7421875,-38.57421875,-52.734375,-4.8828125,0.0
1676924410.7325284,1.46484375,-33.69140625,-45.8984375,1.953125,0.0
1676924410.7363977,0.0,-35.15625,-53.7109375,-7.32421875,0.0
1676924410.7402673,-6.34765625,-41.50390625,-60.05859375,-6.34765625,0.0
1676924410.7441368,-3.41796875,-52.24609375,-70.80078125,5.859375,0.0
1676924410.7480063,-4.39453125,-52.24609375,-73.73046875,-3.90625,0.0
1676924410.7518759,-9.27734375,-45.8984375,-73.73046875,-18.5546875,0.0
1676924410.7557454,-0.48828125,-43.45703125,-74.21875,-16.6015625,0.0
1676924410.759615,-0.48828125,-46.38671875,-67.87109375,-12.6953125,0.0
1676924410.7632518,-8.7890625,-50.78125,-67.3828125,-18.5546875,0.0
1676924410.7668886,-9.27734375,-45.8984375,-63.96484375,-11.71875,0.0
1676924410.7705255,-3.90625,-40.52734375,-52.24609375,2.44140625,0.0
1676924410.7741623,4.39453125,-31.25,-51.7578125,-4.8828125,0.0
1676924410.7777991,8.30078125,-23.92578125,-64.453125,-6.34765625,0.0
1676924410.781436,5.859375,-31.73828125,-66.89453125,5.37109375,0.0
1676924410.785073,-4.39453125,-39.0625,-62.01171875,2.9296875,0.0
1676924410.7887099,-6.8359375,-44.921875,-61.5234375,0.48828125,0.0
1676924410.7923467,-6.8359375,-37.109375,-61.5234375,6.34765625,0.0
1676924410.7959836,-12.6953125,-35.64453125,-68.359375,0.48828125,0.0
1676924410.7996204,-9.765625,-43.9453125,-67.3828125,-2.44140625,0.0
1676924410.8032572,-7.8125,-37.59765625,-60.05859375,15.625,0.0
1676924410.8070037,-9.765625,-33.69140625,-55.6640625,26.3671875,0.0
1676924410.81075,-14.6484375,-36.62109375,-49.8046875,2.44140625,0.0
1676924410.8144965,-4.8828125,-33.69140625,-50.29296875,-1.46484375,0.0
1676924410.818243,5.37109375,-26.3671875,-52.24609375,5.37109375,0.0
1676924410.8219893,0.48828125,-21.97265625,-51.26953125,1.46484375,0.0
1676924410.8257358,-3.90625,-20.01953125,-53.22265625,3.41796875,0.0
1676924410.8294823,3.41796875,-24.90234375,-51.7578125,13.671875,0.0
1676924410.8332286,8.30078125,-25.390625,-46.875,31.73828125,0.0
1676924410.836975,4.8828125,-10.25390625,-37.59765625,32.71484375,0.0
1676924410.8407216,16.6015625,-6.8359375,-34.1796875,14.6484375,0.0
1676924410.8444679,25.390625,-6.8359375,-32.2265625,16.11328125,0.0
1676924410.8482144,22.4609375,-2.44140625,-29.78515625,18.06640625,0.0
1676924410.8520074,18.5546875,-5.859375,-26.85546875,17.578125,0.0
1676924410.8558004,11.71875,-17.578125,-38.0859375,12.20703125,0.0
1676924410.8595934,8.7890625,-21.484375,-45.41015625,10.25390625,0.0
1676924410.8633864,10.7421875,-21.97265625,-45.41015625,9.27734375,0.0
1676924410.8671794,9.765625,-25.390625,-51.26953125,-2.9296875,0.0
1676924410.8709724,10.25390625,-25.390625,-48.828125,-4.8828125,0.0
1676924410.8747654,6.34765625,-23.92578125,-44.43359375,0.0,0.0
1676924410.8785584,2.44140625,-18.5546875,-38.0859375,3.90625,0.0
1676924410.8823514,3.90625,-16.6015625,-40.0390625,9.27734375,0.0
1676924410.8861444,3.41796875,-17.08984375,-46.875,11.71875,0.0
1676924410.8899374,8.7890625,-10.7421875,-40.52734375,6.34765625,0.0
1676924410.8937304,-0.9765625,-12.6953125,-41.50390625,2.44140625,0.0
1676924410.8975382,-12.20703125,-20.01953125,-46.38671875,3.41796875,0.0
1676924410.9013457,-7.32421875,-24.4140625,-46.38671875,-0.9765625,0.0
1676924410.9051535,-1.953125,-27.34375,-55.17578125,-4.39453125,0.0
1676924410.9089613,-9.765625,-32.2265625,-62.98828125,0.9765625,0.0
1676924410.912769,-7.8125,-39.55078125,-64.453125,-4.8828125,0.0
1676924410.9165769,1.46484375,-47.8515625,-71.2890625,-5.859375,0.0
1676924410.9203844,-13.671875,-51.7578125,-84.47265625,-6.34765625,0.0
1676924410.9241922,-20.01953125,-41.015625,-87.890625,-22.94921875,0.0
1676924410.928,1.953125,-34.1796875,-85.9375,-11.71875,0.0
1676924410.9318075,4.8828125,-34.1796875,-87.890625,-1.953125,0.0
1676924410.9356153,0.9765625,-38.0859375,-86.42578125,3.41796875,0.0
1676924410.939423,1.953125,-38.57421875,-82.51953125,2.9296875,0.0
1676924410.944326,0.48828125,-36.1328125,-71.2890625,0.48828125,0.0
1676924410.949229,-0.9765625,-31.25,-71.2890625,0.48828125,0.0
1676924410.9541318,-7.32421875,-31.73828125,-81.54296875,-10.25390625,0.0
1676924410.959035,-7.32421875,-37.109375,-82.51953125,-4.39453125,0.0
1676924410.9639378,-3.41796875,-39.0625,-75.1953125,-4.39453125,0.0
1676924410.9688406,-4.8828125,-42.96875,-77.63671875,-4.8828125,0.0
1676924410.9737437,-5.37109375,-36.62109375,-72.265625,-2.44140625,0.0
1676924410.9786465,-10.7421875,-32.71484375,-72.75390625,-15.13671875,0.0
1676924410.9835496,-17.08984375,-41.50390625,-84.9609375,-22.4609375,0.0
1676924410.9884524,-12.20703125,-34.1796875,-83.0078125,-20.99609375,0.0
1676924410.9933555,-7.32421875,-22.4609375,-81.0546875,-14.16015625,0.0
1676924410.9982584,-5.859375,-22.94921875,-78.61328125,-12.20703125,0.0
1676924411.00202,-8.30078125,-27.34375,-71.2890625,0.0,0.0
1676924411.0057814,-9.765625,-34.1796875,-71.2890625,5.37109375,0.0
1676924411.009543,-2.9296875,-34.1796875,-76.66015625,-0.48828125,0.0
1676924411.0133045,-0.48828125,-29.296875,-73.73046875,-6.34765625,0.0
1676924411.017066,-4.39453125,-35.15625,-79.58984375,-6.34765625,0.0
1676924411.0208275,-12.20703125,-39.0625,-92.28515625,-6.8359375,0.0
1676924411.024589,-17.578125,-31.73828125,-82.51953125,-10.7421875,0.0
1676924411.0283506,-21.484375,-37.109375,-87.890625,-15.625,0.0
1676924411.0321121,-18.5546875,-42.96875,-103.02734375,-9.765625,0.0
1676924411.0358737,-7.8125,-38.0859375,-98.6328125,-1.46484375,0.0
1676924411.0396352,-5.37109375,-35.64453125,-94.23828125,-10.7421875,0.0
1676924411.0433967,-5.859375,-39.0625,-98.6328125,-10.7421875,0.0
1676924411.0471373,-5.37109375,-33.69140625,-83.0078125,-2.44140625,0.0
1676924411.0508776,-6.8359375,-35.64453125,-68.359375,-1.953125,0.0
1676924411.0546181,-2.44140625,-36.62109375,-70.3125,-10.7421875,0.0
1676924411.0583584,3.41796875,-27.83203125,-74.70703125,-1.46484375,0.0
1676924411.062099,-2.9296875,-26.3671875,-82.03125,8.30078125,0.0
1676924411.0658393,1.46484375,-24.90234375,-85.9375,7.8125,0.0
1676924411.0695798,3.41796875,-22.94921875,-74.21875,4.39453125,0.0
1676924411.0733204,-5.37109375,-24.90234375,-64.453125,8.7890625,0.0
1676924411.0770607,-2.9296875,-33.69140625,-72.265625,15.625,0.0
1676924411.0808012,-1.46484375,-34.66796875,-70.3125,4.39453125,0.0
1676924411.0845416,-4.8828125,-24.4140625,-64.94140625,4.8828125,0.0
1676924411.088282,-6.8359375,-23.92578125,-65.91796875,7.32421875,0.0
1676924411.092024,-6.8359375,-29.296875,-62.98828125,-4.39453125,0.0
1676924411.095766,-8.30078125,-34.1796875,-62.5,-7.8125,0.0
1676924411.0995083,-8.7890625,-30.2734375,-69.3359375,-6.34765625,0.0
1676924411.1032503,-8.7890625,-30.76171875,-75.68359375,-3.90625,0.0
1676924411.1069922,-3.90625,-35.15625,-75.68359375,5.37109375,0.0
1676924411.1107342,0.9765625,-33.203125,-70.80078125,5.37109375,0.0
1676924411.1144762,-11.71875,-33.69140625,-66.89453125,-3.90625,0.0
1676924411.1182182,-15.13671875,-38.57421875,-76.66015625,1.953125,0.0
1676924411.1219602,-14.16015625,-34.66796875,-78.61328125,-1.953125,0.0
1676924411.1257024,-13.18359375,-27.34375,-71.77734375,-11.23046875,0.0
1676924411.1294444,-10.25390625,-31.73828125,-75.1953125,-12.20703125,0.0
1676924411.1331863,-6.8359375,-41.50390625,-79.1015625,-9.765625,0.0
1676924411.1369312,-9.27734375,-42.48046875,-83.49609375,-5.859375,0.0
1676924411.1406758,-15.13671875,-39.0625,-85.9375,-16.6015625,0.0
1676924411.1444206,-13.671875,-42.48046875,-83.49609375,-24.4140625,0.0
1676924411.1481652,-11.23046875,-38.57421875,-83.984375,-17.578125,0.0
1676924411.15191,-12.6953125,-36.62109375,-80.078125,-9.765625,0.0
1676924411.155655,-8.30078125,-35.15625,-75.68359375,-4.8828125,0.0
1676924411.1593995,-5.859375,-30.76171875,-75.68359375,-10.25390625,0.0
1676924411.1631444,-8.30078125,-37.59765625,-79.1015625,-10.7421875,0.0
1676924411.166889,-9.765625,-32.71484375,-78.125,0.48828125,0.0
1676924411.1706338,-3.90625,-27.34375,-77.63671875,0.48828125,0.0
1676924411.1743784,7.8125,-32.71484375,-91.796875,-20.5078125,0.0
1676924411.1781232,7.8125,-31.73828125,-96.19140625,-20.01953125,0.0
1676924411.1819332,0.9765625,-26.85546875,-93.26171875,-13.18359375,0.0
1676924411.185743,4.8828125,-29.78515625,-91.796875,-17.08984375,0.0
1676924411.1895528,2.44140625,-38.0859375,-82.51953125,-8.7890625,0.0
1676924411.1933627,-10.25390625,-44.43359375,-86.9140625,-11.71875,0.0
1676924411.1971726,-12.20703125,-44.921875,-86.9140625,-9.765625,0.0
1676924411.2009826,-10.7421875,-51.26953125,-83.984375,0.0,0.0
1676924411.2047925,-12.20703125,-56.640625,-97.16796875,-9.27734375,0.0
1676924411.2086024,-13.671875,-54.19921875,-105.46875,-13.18359375,0.0
1676924411.2124124,-13.671875,-47.8515625,-101.5625,-12.6953125,0.0
1676924411.216222,-11.71875,-49.8046875,-107.421875,-22.94921875,0.0
1676924411.220032,-13.18359375,-47.8515625,-113.28125,-26.3671875,0.0
1676924411.223842,-12.6953125,-47.8515625,-102.05078125,-14.16015625,2.0
1676924411.2275426,-6.34765625,-52.24609375,-95.703125,-9.765625,0.0
1676924411.2312431,-6.34765625,-56.15234375,-105.46875,-20.01953125,0.0
1676924411.2349439,-7.8125,-54.6875,-107.421875,-27.34375,0.0
1676924411.2386446,-6.8359375,-51.26953125,-99.12109375,-25.87890625,0.0
1676924411.2423453,-11.23046875,-54.6875,-102.05078125,-26.85546875,0.0
1676924411.246046,-13.18359375,-55.6640625,-104.4921875,-26.85546875,0.0
1676924411.2497466,-12.6953125,-57.6171875,-98.6328125,-19.04296875,0.0
1676924411.2534473,-12.6953125,-52.24609375,-92.7734375,-7.8125,0.0
1676924411.257148,-10.7421875,-42.96875,-89.35546875,0.0,0.0
1676924411.2608485,-8.7890625,-45.8984375,-88.37890625,0.0,0.0
1676924411.2645493,-6.8359375,-39.55078125,-86.42578125,5.37109375,0.0
1676924411.26825,-13.18359375,-33.203125,-88.37890625,2.9296875,0.0
1676924411.2732465,-8.7890625,-30.2734375,-88.37890625,-3.41796875,0.0
1676924411.2782428,-7.32421875,-32.71484375,-86.42578125,4.39453125,0.0
1676924411.2832394,-14.6484375,-38.0859375,-78.61328125,4.8828125,0.0
1676924411.2882357,-12.6953125,-38.57421875,-78.61328125,3.90625,0.0
1676924411.2932322,-12.20703125,-41.50390625,-85.44921875,-1.46484375,0.0
1676924411.2982287,-6.8359375,-35.15625,-84.9609375,15.625,0.0
1676924411.303225,-2.9296875,-28.80859375,-86.42578125,28.80859375,0.0
1676924411.3082216,-9.27734375,-21.484375,-78.61328125,5.859375,0.0
1676924411.3132179,-11.23046875,-20.5078125,-70.80078125,-0.9765625,0.0
1676924411.3182144,-2.9296875,-23.4375,-66.89453125,17.08984375,0.0
1676924411.3232107,0.48828125,-16.6015625,-67.3828125,16.6015625,0.0
1676924411.3282073,-3.90625,-19.04296875,-77.1484375,4.39453125,0.0
1676924411.3319612,-2.9296875,-22.94921875,-90.33203125,9.27734375,0.0
1676924411.3357153,0.48828125,-30.2734375,-96.6796875,12.6953125,0.0
1676924411.3394692,-5.859375,-35.15625,-86.42578125,0.9765625,0.0
1676924411.3432233,-8.7890625,-33.69140625,-83.0078125,-12.20703125,0.0
1676924411.3469772,-0.9765625,-30.2734375,-86.9140625,-9.27734375,0.0
1676924411.3507314,-2.9296875,-30.2734375,-90.33203125,-8.7890625,0.0
1676924411.3544853,-8.30078125,-26.3671875,-94.7265625,-10.25390625,0.0
1676924411.3582392,-8.30078125,-21.97265625,-91.30859375,1.953125,0.0
1676924411.3619933,-14.6484375,-23.92578125,-88.8671875,-0.9765625,0.0
1676924411.3657472,-16.6015625,-25.390625,-99.12109375,6.34765625,0.0
1676924411.3695014,-9.27734375,-19.53125,-99.12109375,25.390625,0.0
1676924411.3732553,0.9765625,-20.01953125,-98.14453125,13.671875,0.0
1676924411.3770037,4.39453125,-34.1796875,-95.703125,4.8828125,0.0
1676924411.3807523,-2.44140625,-37.109375,-87.40234375,0.48828125,0.0
1676924411.384501,1.46484375,-33.69140625,-76.171875,6.34765625,0.0
1676924411.3882494,5.37109375,-37.109375,-78.61328125,0.0,0.0
1676924411.3919978,0.48828125,-45.41015625,-96.6796875,-3.41796875,0.0
1676924411.3957465,-1.953125,-44.921875,-94.23828125,3.41796875,0.0
1676924411.3994951,4.39453125,-28.3203125,-82.51953125,-5.859375,0.0
1676924411.4032435,7.32421875,-25.390625,-93.26171875,-8.30078125,0.0
1676924411.406992,1.46484375,-36.1328125,-94.7265625,9.765625,0.0
1676924411.4107406,0.48828125,-28.80859375,-70.3125,9.765625,0.0
1676924411.4144893,-1.46484375,-24.4140625,-63.4765625,-8.30078125,0.0
1676924411.4182377,-2.44140625,-27.34375,-72.75390625,-7.8125,0.0
1676924411.4219837,-4.39453125,-28.3203125,-77.63671875,0.9765625,0.0
1676924411.4257295,0.9765625,-26.3671875,-86.9140625,4.8828125,0.0
1676924411.4294755,0.48828125,-23.92578125,-98.6328125,-5.859375,0.0
1676924411.4332213,-1.46484375,-20.99609375,-103.02734375,-0.9765625,0.0
1676924411.4369674,7.32421875,-14.6484375,-87.890625,18.5546875,0.0
1676924411.4407134,5.859375,-16.6015625,-81.0546875,15.13671875,0.0
1676924411.4444592,6.34765625,-17.578125,-82.03125,-1.953125,0.0
1676924411.4482052,19.53125,-14.16015625,-76.171875,5.37109375,0.0
1676924411.451951,31.25,-7.32421875,-79.1015625,22.4609375,0.0
1676924411.455697,25.87890625,-4.39453125,-77.1484375,37.59765625,0.0
1676924411.4594429,22.4609375,-12.20703125,-82.51953125,34.66796875,0.0
1676924411.463189,23.4375,-19.53125,-96.19140625,11.71875,0.0
1676924411.4670396,15.625,-21.484375,-93.75,1.46484375,0.0
1676924411.4708905,3.90625,-18.06640625,-84.47265625,-1.953125,0.0
1676924411.4747412,2.44140625,-19.04296875,-86.9140625,0.0,0.0
1676924411.4785922,-1.46484375,-21.484375,-89.84375,11.23046875,0.0
1676924411.4824429,-16.11328125,-28.80859375,-90.8203125,13.18359375,0.0
1676924411.4862938,-16.6015625,-26.3671875,-90.8203125,0.0,0.0
1676924411.4901445,-9.27734375,-22.4609375,-79.58984375,2.9296875,0.0
1676924411.4939952,-11.23046875,-31.25,-76.66015625,17.578125,0.0
1676924411.4978461,-9.27734375,-34.66796875,-80.078125,19.04296875,0.0
1676924411.5016968,-9.27734375,-31.25,-77.63671875,11.71875,0.0
1676924411.5055478,-6.8359375,-30.2734375,-93.75,0.48828125,0.0
1676924411.5093985,-2.44140625,-26.3671875,-93.75,-14.16015625,0.0
1676924411.5155914,-3.90625,-28.3203125,-81.0546875,-19.04296875,0.0
1676924411.5217843,-5.37109375,-31.73828125,-81.54296875,-4.8828125,0.0
1676924411.5279772,-1.46484375,-30.2734375,-88.8671875,0.9765625,0.0
1676924411.5341702,1.953125,-32.2265625,-95.21484375,-11.71875,0.0
1676924411.540363,-3.41796875,-38.0859375,-97.65625,-10.7421875,0.0
1676924411.546556,0.0,-36.1328125,-89.84375,-1.953125,0.0
1676924411.552749,6.34765625,-30.2734375,-78.125,10.7421875,0.0
1676924411.5589418,8.30078125,-36.1328125,-83.0078125,17.08984375,0.0
1676924411.5651348,3.41796875,-36.62109375,-82.51953125,7.32421875,0.0
1676924411.5713277,-5.859375,-40.52734375,-81.54296875,-10.7421875,0.0
1676924411.5775206,-7.32421875,-44.921875,-85.44921875,-10.25390625,0.0
1676924411.5837135,0.48828125,-37.109375,-77.1484375,2.44140625,0.0
1676924411.5849323,3.90625,-35.15625,-75.1953125,-4.8828125,0.0
1676924411.5861514,9.27734375,-35.15625,-81.54296875,3.90625,0.0
1676924411.5873704,13.671875,-39.55078125,-87.40234375,12.6953125,0.0
1676924411.5885892,10.7421875,-39.55078125,-89.35546875,1.953125,0.0
1676924411.589808,1.953125,-37.109375,-75.68359375,8.30078125,0.0
1676924411.591027,-11.23046875,-47.36328125,-72.265625,2.9296875,0.0
1676924411.592246,-7.8125,-47.36328125,-76.171875,-12.6953125,0.0
1676924411.5934649,1.46484375,-41.9921875,-67.3828125,-10.7421875,0.0
1676924411.5946836,4.8828125,-38.0859375,-66.40625,-15.625,0.0
1676924411.5959027,4.39453125,-37.109375,-74.21875,-17.08984375,0.0
1676924411.5971217,10.25390625,-41.015625,-77.63671875,-2.9296875,0.0
1676924411.5983405,19.04296875,-35.15625,-67.87109375,1.46484375,0.0
1676924411.6020844,13.18359375,-35.15625,-62.01171875,-0.48828125,0.0
1676924411.605828,6.8359375,-43.45703125,-69.3359375,1.46484375,0.0
1676924411.609572,8.7890625,-47.8515625,-84.47265625,-9.27734375,0.0
1676924411.6133156,7.32421875,-40.0390625,-75.68359375,-1.46484375,0.0
1676924411.6170595,1.953125,-34.66796875,-64.453125,7.32421875,0.0
1676924411.6208034,0.0,-43.45703125,-69.3359375,-5.37109375,0.0
1676924411.624547,1.953125,-49.31640625,-70.3125,-3.41796875,0.0
1676924411.628291,0.0,-49.8046875,-67.3828125,7.32421875,0.0
1676924411.6320345,-2.9296875,-52.734375,-68.84765625,-1.953125,0.0
1676924411.6357784,1.953125,-59.08203125,-74.21875,-13.18359375,0.0
1676924411.639522,2.9296875,-61.5234375,-81.0546875,-1.953125,0.0
1676924411.643266,1.46484375,-55.6640625,-80.078125,5.37109375,0.0
1676924411.6471655,3.41796875,-51.7578125,-71.2890625,4.39453125,0.0
1676924411.6510649,2.44140625,-60.05859375,-69.82421875,7.32421875,0.0
1676924411.6549644,0.9765625,-65.4296875,-75.1953125,13.18359375,0.0
1676924411.658864,4.39453125,-56.15234375,-80.56640625,7.8125,0.0
1676924411.6627634,4.8828125,-55.17578125,-74.70703125,3.41796875,0.0
1676924411.666663,-0.9765625,-64.453125,-76.66015625,16.6015625,0.0
1676924411.6705625,-2.9296875,-57.6171875,-84.47265625,6.34765625,0.0
1676924411.6744618,-1.953125,-53.7109375,-81.0546875,-10.7421875,0.0
1676924411.6783614,-7.8125,-59.5703125,-79.58984375,-11.71875,0.0
1676924411.682261,-9.27734375,-55.6640625,-80.56640625,-4.39453125,0.0
1676924411.6861603,-13.18359375,-55.17578125,-78.61328125,-5.859375,0.0
1676924411.69006,-22.4609375,-58.10546875,-78.61328125,-16.6015625,0.0
1676924411.694952,-28.80859375,-62.01171875,-74.21875,-5.37109375,0.0
1676924411.6998444,-19.53125,-58.10546875,-71.77734375,5.859375,0.0
1676924411.7047367,-3.90625,-40.52734375,-66.40625,-2.44140625,0.0
1676924411.7096288,-2.44140625,-43.45703125,-66.40625,-13.671875,0.0
1676924411.714521,-6.34765625,-53.7109375,-74.21875,-20.99609375,0.0
1676924411.7194133,-2.44140625,-58.59375,-71.77734375,-7.32421875,0.0
1676924411.7243056,-0.9765625,-50.78125,-62.01171875,7.32421875,0.0
1676924411.7291977,-9.27734375,-44.43359375,-65.4296875,3.90625,0.0
1676924411.7340899,-5.859375,-48.33984375,-72.265625,-15.625,0.0
1676924411.7389822,-5.859375,-45.41015625,-74.21875,-31.25,0.0
1676924411.7438745,-10.25390625,-51.7578125,-72.75390625,-33.69140625,0.0
1676924411.7487667,-12.6953125,-56.640625,-72.265625,-36.1328125,0.0
1676924411.7524698,-9.27734375,-54.19921875,-74.21875,-26.85546875,0.0
1676924411.756173,-10.25390625,-55.17578125,-72.265625,-23.4375,0.0
1676924411.759876,-10.7421875,-54.19921875,-78.125,-22.94921875,0.0
1676924411.7635791,-7.8125,-55.17578125,-79.1015625,-8.7890625,0.0
1676924411.7672822,-0.9765625,-56.15234375,-73.2421875,-4.8828125,0.0
1676924411.7709856,3.41796875,-51.7578125,-68.84765625,-12.20703125,0.0
1676924411.7746887,1.46484375,-44.43359375,-67.87109375,-17.08984375,0.0
1676924411.7783918,0.0,-39.55078125,-72.75390625,-11.23046875,0.0
1676924411.782095,-1.46484375,-41.015625,-69.82421875,13.671875,0.0
1676924411.785798,-1.953125,-41.50390625,-66.89453125,14.16015625,0.0
1676924411.7895012,-3.41796875,-36.1328125,-63.4765625,-7.8125,0.0
1676924411.7932043,-5.859375,-43.9453125,-64.94140625,-3.90625,0.0
1676924411.796963,-8.7890625,-45.8984375,-77.1484375,3.90625,0.0
1676924411.8007216,-8.7890625,-41.9921875,-89.35546875,-6.34765625,0.0
1676924411.8044803,-14.6484375,-41.50390625,-87.890625,-16.6015625,0.0
1676924411.808239,-6.34765625,-42.48046875,-80.56640625,-17.08984375,0.0
1676924411.8119977,-1.953125,-45.41015625,-80.56640625,-2.9296875,0.0
1676924411.8157563,-7.8125,-42.96875,-78.125,-8.7890625,0.0
1676924411.819515,-9.27734375,-40.0390625,-69.82421875,-28.3203125,0.0
1676924411.8232737,-12.20703125,-42.96875,-75.1953125,-25.390625,0.0
1676924411.8270323,-0.9765625,-42.96875,-83.984375,-9.27734375,0.0
1676924411.830791,6.8359375,-36.62109375,-71.77734375,2.9296875,0.0
1676924411.8345497,-1.46484375,-35.15625,-72.265625,4.8828125,0.0
1676924411.8383083,-0.9765625,-40.0390625,-75.68359375,-0.9765625,0.0
1676924411.8420553,-2.44140625,-44.921875,-72.75390625,-14.16015625,0.0
1676924411.8458023,-2.44140625,-47.8515625,-76.171875,-14.16015625,0.0
1676924411.8495495,0.0,-45.41015625,-79.58984375,-9.765625,0.0
1676924411.8532965,-1.46484375,-52.24609375,-82.03125,-11.71875,0.0
1676924411.8570435,3.90625,-49.31640625,-81.0546875,-2.44140625,0.0
1676924411.8607907,4.39453125,-41.50390625,-80.56640625,4.39453125,0.0
1676924411.8645377,-6.8359375,-42.96875,-76.66015625,1.953125,0.0
1676924411.8682847,-2.9296875,-40.0390625,-74.70703125,6.8359375,0.0
1676924411.8720317,4.8828125,-34.66796875,-81.0546875,24.4140625,0.0
1676924411.8757787,-4.8828125,-30.76171875,-87.40234375,10.25390625,0.0
1676924411.879526,-0.48828125,-34.66796875,-84.47265625,-11.71875,0.0
1676924411.883273,6.34765625,-34.1796875,-76.171875,-6.8359375,0.0
1676924411.8870199,3.90625,-29.78515625,-72.75390625,-0.9765625,0.0
1676924411.8907669,5.37109375,-29.296875,-68.84765625,-4.8828125,0.0
1676924411.8945138,-0.48828125,-31.73828125,-74.21875,-2.44140625,0.0
1676924411.8982608,-8.30078125,-37.109375,-83.0078125,0.0,0.0
1676924411.9020078,-11.23046875,-40.52734375,-95.703125,-10.7421875,0.0
1676924411.9057548,-10.25390625,-38.0859375,-96.19140625,-8.30078125,0.0
1676924411.9095018,-3.90625,-32.2265625,-79.58984375,-12.20703125,0.0
1676924411.9132488,3.41796875,-29.296875,-70.80078125,0.48828125,0.0
1676924411.9169958,3.41796875,-25.390625,-59.5703125,10.7421875,0.0
1676924411.9207428,-4.8828125,-34.1796875,-66.40625,-11.23046875,0.0
1676924411.9244897,-11.23046875,-47.8515625,-79.58984375,-20.5078125,0.0
1676924411.9282367,-7.32421875,-44.921875,-76.66015625,-21.484375,0.0
1676924411.9320872,-2.44140625,-35.64453125,-61.03515625,-2.44140625,0.0
1676924411.9359376,-6.8359375,-35.15625,-59.5703125,7.8125,0.0
1676924411.939788,-5.859375,-41.015625,-69.3359375,1.953125,0.0
1676924411.9436386,-6.8359375,-43.9453125,-68.84765625,-1.46484375,0.0
1676924411.947489,-14.6484375,-39.55078125,-65.91796875,4.8828125,0.0
1676924411.9513397,-8.30078125,-37.59765625,-67.3828125,15.13671875,0.0
1676924411.9551902,8.7890625,-34.1796875,-62.5,19.04296875,0.0
1676924411.9590406,9.27734375,-26.3671875,-56.15234375,25.87890625,0.0
1676924411.962891,-2.44140625,-19.53125,-56.15234375,16.11328125,0.0
1676924411.9667416,2.44140625,-26.3671875,-61.5234375,9.765625,0.0
1676924411.970592,11.23046875,-26.3671875,-61.5234375,5.859375,0.0
1676924411.9744425,8.30078125,-19.04296875,-59.08203125,4.39453125,0.0
1676924411.979345,4.8828125,-21.97265625,-62.01171875,5.859375,0.0
1676924411.9842477,10.25390625,-24.4140625,-62.5,8.7890625,0.0
1676924411.98915,13.671875,-20.99609375,-61.5234375,8.7890625,0.0
1676924411.9940526,4.8828125,-22.94921875,-69.3359375,2.9296875,0.0
1676924411.9989552,-3.90625,-29.296875,-74.70703125,8.30078125,0.0
1676924412.0038579,-7.32421875,-38.0859375,-74.21875,-4.8828125,0.0
1676924412.0087605,-5.859375,-45.41015625,-76.171875,-13.18359375,0.0
1676924412.013663,-1.953125,-38.0859375,-81.54296875,-1.46484375,0.0
1676924412.0185657,-6.34765625,-31.73828125,-85.9375,-8.30078125,0.0
1676924412.023468,-15.13671875,-35.64453125,-90.8203125,-15.13671875,0.0
1676924412.0283706,-6.34765625,-19.04296875,-84.9609375,-8.30078125,0.0
1676924412.0332732,5.37109375,7.32421875,-72.75390625,-6.8359375,0.0
1676924412.0357857,6.8359375,11.23046875,-70.3125,1.46484375,0.0
1676924412.0382981,11.71875,12.20703125,-77.1484375,4.8828125,0.0
1676924412.0408106,6.8359375,16.11328125,-82.51953125,-13.671875,0.0
1676924412.043323,1.46484375,21.97265625,-86.42578125,-14.16015625,0.0
1676924412.0458355,5.37109375,17.08984375,-95.703125,-7.8125,0.0
1676924412.048348,4.8828125,12.20703125,-90.33203125,-2.44140625,0.0
1676924412.0508604,-1.46484375,17.578125,-85.44921875,-3.41796875,0.0
1676924412.0533729,-1.46484375,18.06640625,-84.47265625,-10.7421875,0.0
1676924412.0558853,5.37109375,18.06640625,-74.70703125,0.9765625,0.0
1676924412.0583978,9.765625,13.671875,-76.66015625,6.34765625,0.0
1676924412.0609102,9.765625,14.6484375,-82.03125,-3.41796875,0.0
1676924412.0634227,0.9765625,21.97265625,-75.68359375,-1.953125,2.0
1676924412.0684178,-5.37109375,23.92578125,-73.2421875,-2.9296875,0.0
1676924412.073413,0.9765625,27.34375,-65.4296875,0.48828125,0.0
1676924412.0784078,7.32421875,29.296875,-65.91796875,4.8828125,0.0
1676924412.0834029,9.765625,30.76171875,-69.3359375,-3.41796875,0.0
1676924412.088398,6.8359375,24.4140625,-70.80078125,4.39453125,0.0
1676924412.093393,0.9765625,14.16015625,-73.73046875,18.06640625,0.0
1676924412.0983882,-0.9765625,24.90234375,-74.21875,9.27734375,0.0
1676924412.1033833,-1.46484375,22.94921875,-81.0546875,1.953125,0.0
1676924412.1083784,-0.48828125,10.7421875,-84.9609375,0.0,0.0
1676924412.1133733,-4.39453125,7.32421875,-77.1484375,6.34765625,0.0
1676924412.1183684,-11.23046875,5.37109375,-71.77734375,10.7421875,0.0
1676924412.1233635,-10.25390625,2.9296875,-68.84765625,-5.37109375,0.0
1676924412.1271052,-5.37109375,-3.90625,-73.73046875,-11.23046875,0.0
1676924412.130847,-3.90625,-3.41796875,-76.66015625,0.0,0.0
1676924412.134589,-3.90625,5.37109375,-75.68359375,-4.39453125,0.0
1676924412.1383307,-4.39453125,5.859375,-82.03125,-3.41796875,0.0
1676924412.1420724,3.90625,-5.37109375,-82.51953125,8.30078125,0.0
1676924412.1458144,9.765625,-7.8125,-75.1953125,8.7890625,0.0
1676924412.1495562,10.25390625,0.0,-66.40625,13.671875,0.0
1676924412.153298,10.25390625,3.90625,-70.80078125,15.13671875,0.0
1676924412.1570396,4.8828125,-3.41796875,-74.70703125,10.25390625,0.0
1676924412.1607814,5.37109375,-6.34765625,-74.21875,1.46484375,0.0
1676924412.1645234,5.37109375,2.9296875,-69.82421875,-4.8828125,0.0
1676924412.168265,2.44140625,0.0,-71.77734375,2.9296875,0.0
1676924412.173276,0.0,-2.9296875,-75.1953125,0.48828125,0.0
1676924412.1782866,-4.39453125,1.46484375,-69.82421875,-7.32421875,0.0
1676924412.1832974,-1.46484375,4.39453125,-68.359375,-6.8359375,0.0
1676924412.1883082,-4.39453125,3.90625,-68.84765625,0.0,0.0
1676924412.193319,-4.8828125,-4.8828125,-69.3359375,15.625,0.0
1676924412.19833,0.9765625,-4.39453125,-68.359375,10.7421875,0.0
1676924412.2033405,1.953125,-1.46484375,-74.21875,-1.953125,0.0
1676924412.2083514,-0.48828125,-9.27734375,-76.171875,0.0,0.0
1676924412.2133622,1.953125,-11.23046875,-75.68359375,10.25390625,0.0
1676924412.2183728,0.0,-9.27734375,-75.68359375,18.5546875,0.0
1676924412.2233837,0.0,-10.7421875,-71.2890625,9.27734375,0.0
1676924412.2283945,11.71875,-11.23046875,-72.75390625,0.48828125,0.0
1676924412.230927,4.8828125,-19.04296875,-74.21875,-1.953125,0.0
1676924412.2334595,-7.32421875,-25.390625,-68.359375,2.9296875,0.0
1676924412.2359917,-3.90625,-22.94921875,-67.3828125,4.39453125,0.0
1676924412.2385242,-1.953125,-22.4609375,-69.82421875,2.44140625,0.0
1676924412.2410567,-6.8359375,-25.390625,-67.87109375,-1.46484375,0.0
1676924412.243589,-9.765625,-26.3671875,-71.77734375,1.46484375,0.0
1676924412.2461214,-8.30078125,-20.01953125,-78.61328125,-2.9296875,0.0
1676924412.248654,-2.9296875,-15.13671875,-74.21875,-5.859375,0.0
1676924412.2511864,-0.9765625,-15.625,-72.75390625,0.9765625,0.0
1676924412.2537189,-5.859375,-14.6484375,-74.70703125,0.9765625,0.0
1676924412.256251,0.48828125,-17.578125,-75.1953125,-5.37109375,0.0
1676924412.2587836,8.30078125,-22.4609375,-60.05859375,0.9765625,0.0
1676924412.2624917,12.20703125,-23.4375,-57.12890625,2.9296875,0.0
1676924412.2661996,10.7421875,-20.99609375,-65.4296875,-1.953125,0.0
1676924412.2699077,7.32421875,-20.5078125,-66.40625,2.44140625,0.0
1676924412.2736158,17.08984375,-12.6953125,-61.5234375,6.8359375,0.0
1676924412.277324,9.765625,-8.30078125,-59.5703125,6.8359375,0.0
1676924412.281032,-1.953125,-21.484375,-69.82421875,4.8828125,0.0
1676924412.28474,2.44140625,-28.3203125,-72.265625,8.30078125,0.0
1676924412.288448,-2.44140625,-34.66796875,-74.70703125,7.32421875,0.0
1676924412.2921562,-3.41796875,-26.3671875,-67.87109375,0.9765625,0.0
1676924412.295864,8.7890625,-7.8125,-70.3125,-2.44140625,0.0
1676924412.2995722,14.16015625,-11.71875,-88.8671875,6.8359375,0.0
1676924412.3032804,11.71875,-20.99609375,-77.63671875,3.41796875,0.0
1676924412.3070507,15.13671875,-18.5546875,-63.96484375,2.44140625,0.0
1676924412.310821,14.16015625,-15.625,-61.03515625,0.48828125,0.0
1676924412.3145914,10.25390625,-18.5546875,-64.94140625,-10.25390625,0.0
1676924412.3183615,10.25390625,-19.53125,-72.265625,-11.23046875,0.0
1676924412.3221319,9.765625,-16.6015625,-67.87109375,-6.34765625,0.0
1676924412.3259022,8.7890625,-20.01953125,-72.265625,-9.765625,0.0
1676924412.3296726,-1.953125,-29.78515625,-78.61328125,-0.9765625,0.0
1676924412.333443,-6.34765625,-24.4140625,-70.3125,6.34765625,0.0
1676924412.337213,-3.41796875,-12.6953125,-70.80078125,-15.13671875,0.0
1676924412.3409834,-5.37109375,-19.04296875,-83.984375,-16.11328125,0.0
1676924412.3447537,-5.37109375,-22.4609375,-79.1015625,-6.34765625,0.0
1676924412.348524,-3.90625,-18.06640625,-67.3828125,-14.16015625,0.0
1676924412.352275,-6.34765625,-24.90234375,-65.91796875,-10.25390625,0.0
1676924412.3560257,-5.37109375,-35.64453125,-74.21875,-0.9765625,0.0
1676924412.3597765,-8.7890625,-38.57421875,-79.58984375,-8.7890625,0.0
1676924412.3635275,-6.8359375,-30.76171875,-74.70703125,-7.8125,0.0
1676924412.3672783,0.0,-29.78515625,-72.75390625,2.9296875,0.0
1676924412.3710291,-2.9296875,-38.57421875,-72.75390625,-4.39453125,0.0
1676924412.37478,0.48828125,-34.66796875,-70.80078125,-10.7421875,0.0
1676924412.3785307,-3.90625,-29.78515625,-75.68359375,-5.37109375,0.0
1676924412.3822818,-10.25390625,-34.66796875,-83.49609375,-11.23046875,0.0
1676924412.3860326,-4.8828125,-35.15625,-76.66015625,-0.9765625,0.0
1676924412.3897834,-8.7890625,-26.85546875,-69.3359375,13.18359375,0.0
1676924412.3935342,-17.08984375,-25.87890625,-63.96484375,-6.8359375,0.0
1676924412.3973784,-20.5078125,-30.2734375,-54.6875,-18.06640625,0.0
1676924412.4012225,-20.01953125,-32.71484375,-62.5,-6.8359375,0.0
1676924412.4050667,-17.08984375,-35.15625,-58.10546875,-0.48828125,0.0
1676924412.408911,-18.5546875,-36.62109375,-50.29296875,-7.8125,0.0
1676924412.412755,-20.99609375,-44.921875,-58.59375,-8.7890625,0.0
1676924412.4165993,-13.671875,-43.9453125,-63.4765625,-0.48828125,0.0
1676924412.4204435,-15.625,-36.1328125,-61.03515625,6.34765625,0.0
1676924412.4242876,-20.5078125,-32.71484375,-51.7578125,2.44140625,0.0
1676924412.4281318,-10.7421875,-27.83203125,-50.29296875,-3.41796875,0.0
1676924412.431976,-1.953125,-22.94921875,-44.921875,-1.953125,0.0
1676924412.43582,0.9765625,-25.87890625,-40.52734375,-6.8359375,0.0
1676924412.4396644,0.9765625,-24.90234375,-50.29296875,-17.578125,0.0
1676924412.4445567,-0.48828125,-27.83203125,-62.01171875,-19.04296875,0.0
1676924412.449449,-0.9765625,-34.1796875,-63.96484375,-17.08984375,0.0
1676924412.4543417,0.0,-32.2265625,-65.91796875,-10.25390625,0.0
1676924412.459234,3.90625,-30.76171875,-73.73046875,7.32421875,0.0
1676924412.4641263,2.44140625,-28.80859375,-68.84765625,8.30078125,0.0
1676924412.469019,-3.90625,-33.203125,-63.4765625,-9.27734375,0.0
1676924412.4739113,-7.32421875,-31.25,-70.80078125,-19.53125,0.0
1676924412.4788036,-3.90625,-25.87890625,-71.2890625,-13.671875,0.0
1676924412.483696,0.9765625,-29.78515625,-71.77734375,-4.8828125,0.0
1676924412.4885883,2.44140625,-21.97265625,-69.82421875,-11.23046875,0.0
1676924412.493481,4.8828125,-13.18359375,-66.89453125,-12.20703125,0.0
1676924412.4983733,0.0,-17.578125,-78.61328125,-10.25390625,0.0
1676924412.5021317,-3.90625,-26.85546875,-78.125,-9.765625,0.0
1676924412.5058901,-0.48828125,-26.85546875,-66.89453125,-5.859375,0.0
1676924412.5096488,-0.9765625,-21.97265625,-62.01171875,-11.71875,0.0
1676924412.5134072,-0.9765625,-28.80859375,-63.96484375,-16.11328125,0.0
1676924412.5171657,0.9765625,-37.109375,-59.08203125,3.90625,0.0
1676924412.520924,-0.9765625,-42.96875,-50.29296875,13.18359375,0.0
1676924412.5246825,-4.39453125,-43.9453125,-45.8984375,3.41796875,0.0
1676924412.528441,0.0,-33.69140625,-41.9921875,4.8828125,0.0
1676924412.5321994,7.8125,-33.203125,-45.8984375,17.578125,0.0
1676924412.535958,4.8828125,-30.2734375,-56.15234375,21.484375,0.0
1676924412.5397165,0.48828125,-28.3203125,-78.125,8.7890625,0.0
1676924412.543475,3.90625,-31.73828125,-82.51953125,7.32421875,0.0
1676924412.5472085,6.34765625,-28.3203125,-61.03515625,5.37109375,0.0
1676924412.550942,5.859375,-20.01953125,-49.8046875,0.0,0.0
1676924412.5546756,-0.48828125,-19.04296875,-53.7109375,-4.8828125,0.0
1676924412.5584092,4.8828125,-32.2265625,-63.4765625,3.90625,0.0
1676924412.5621426,8.7890625,-31.73828125,-63.4765625,-4.39453125,0.0
1676924412.5658762,3.41796875,-25.87890625,-62.5,-8.7890625,0.0
1676924412.5696099,2.9296875,-26.3671875,-60.05859375,-4.8828125,0.0
1676924412.5733433,0.0,-30.76171875,-61.5234375,-7.8125,0.0
1676924412.577077,-0.48828125,-32.2265625,-65.91796875,-4.8828125,0.0
1676924412.5808105,-3.41796875,-26.3671875,-68.359375,-8.30078125,0.0
1676924412.584544,-7.32421875,-31.73828125,-74.70703125,-19.04296875,0.0
1676924412.5882776,-7.8125,-48.828125,-76.171875,-18.06640625,0.0
1676924412.592024,-3.41796875,-48.828125,-74.21875,-9.27734375,0.0
1676924412.5957704,-1.46484375,-38.0859375,-73.73046875,-6.8359375,0.0
1676924412.5995169,-3.90625,-37.109375,-76.66015625,-14.6484375,0.0
1676924412.6032631,-5.859375,-41.9921875,-76.66015625,-10.7421875,0.0
1676924412.6070096,-7.32421875,-43.45703125,-73.2421875,-5.859375,0.0
1676924412.610756,-4.8828125,-44.43359375,-72.265625,-16.6015625,0.0
1676924412.6145024,-7.8125,-41.9921875,-69.82421875,-14.6484375,0.0
1676924412.618249,-11.23046875,-34.1796875,-66.89453125,-8.7890625,0.0
1676924412.6219952,-3.41796875,-30.2734375,-67.3828125,6.8359375,0.0
1676924412.6257417,-13.18359375,-32.2265625,-73.73046875,-4.39453125,0.0
1676924412.629488,-18.06640625,-36.1328125,-79.1015625,-23.92578125,0.0
1676924412.6332345,-12.6953125,-32.71484375,-82.51953125,-11.23046875,0.0
1676924412.6371384,-21.484375,-29.78515625,-90.8203125,-5.37109375,0.0
1676924412.6410422,-21.484375,-29.296875,-88.8671875,-10.7421875,0.0
1676924412.644946,-15.13671875,-33.69140625,-75.68359375,-10.25390625,0.0
1676924412.64885,-6.8359375,-33.69140625,-71.2890625,1.953125,0.0
1676924412.6527538,-4.39453125,-31.73828125,-75.68359375,0.48828125,0.0
1676924412.6566577,-5.37109375,-33.69140625,-76.66015625,-10.7421875,0.0
1676924412.6605618,-3.90625,-30.2734375,-76.66015625,-17.578125,0.0
1676924412.6644657,-1.953125,-27.34375,-78.61328125,-19.53125,0.0
1676924412.6683695,2.9296875,-26.3671875,-60.546875,-13.18359375,0.0
1676924412.6722734,7.8125,-28.3203125,-52.734375,-13.671875,0.0
1676924412.6761773,12.20703125,-23.92578125,-53.7109375,-2.9296875,0.0
1676924412.6800811,14.6484375,-17.08984375,-54.19921875,2.9296875,0.0
1676924412.6836812,8.7890625,-18.5546875,-59.08203125,6.8359375,0.0
1676924412.6872816,2.9296875,-25.87890625,-71.77734375,9.27734375,0.0
1676924412.6908817,-1.953125,-30.76171875,-87.890625,-4.39453125,0.0
1676924412.6944818,-6.8359375,-27.34375,-80.56640625,-7.32421875,0.0
1676924412.6980822,-7.32421875,-25.390625,-73.73046875,-9.765625,0.0
1676924412.7016823,0.48828125,-26.3671875,-75.1953125,-13.671875,0.0
1676924412.7052824,3.90625,-26.3671875,-81.54296875,-14.6484375,0.0
1676924412.7088828,4.39453125,-25.390625,-87.890625,-1.46484375,0.0
1676924412.712483,0.9765625,-15.13671875,-75.1953125,0.9765625,0.0
1676924412.716083,-4.8828125,-12.6953125,-74.70703125,-16.11328125,0.0
1676924412.7196834,-6.8359375,-17.08984375,-83.984375,-8.30078125,0.0
1676924412.7232835,-13.18359375,-18.06640625,-86.42578125,-4.8828125,0.0
1676924412.7270901,-18.06640625,-28.3203125,-84.9609375,-10.7421875,0.0
1676924412.7308967,-12.20703125,-31.73828125,-82.51953125,-1.953125,0.0
1676924412.7347033,-13.18359375,-23.92578125,-80.078125,-1.46484375,0.0
1676924412.73851,-11.71875,-15.13671875,-69.82421875,-10.25390625,0.0
1676924412.7423165,0.9765625,-17.08984375,-61.5234375,-3.90625,0.0
1676924412.7461228,8.30078125,-17.578125,-65.4296875,8.30078125,0.0
1676924412.7499294,4.39453125,-20.01953125,-70.3125,10.25390625,0.0
1676924412.753736,-2.44140625,-23.4375,-67.87109375,1.46484375,0.0
1676924412.7575426,1.953125,-18.5546875,-62.98828125,-0.48828125,0.0
1676924412.7613492,3.41796875,-20.01953125,-67.87109375,2.9296875,0.0
1676924412.7651558,-1.953125,-17.578125,-71.2890625,1.953125,0.0
1676924412.7689624,0.0,-12.20703125,-73.2421875,0.9765625,0.0
1676924412.772665,1.953125,-13.18359375,-75.68359375,-2.44140625,0.0
1676924412.7763677,-5.859375,-19.53125,-76.171875,1.953125,0.0
1676924412.7800703,-5.37109375,-16.11328125,-81.0546875,0.9765625,0.0
1676924412.7837732,-5.859375,-16.11328125,-84.9609375,-14.6484375,0.0
1676924412.7874758,-9.27734375,-23.92578125,-79.1015625,-13.671875,0.0
1676924412.7911785,-1.953125,-20.01953125,-81.54296875,6.8359375,0.0
1676924412.794881,0.48828125,-16.6015625,-84.47265625,3.41796875,0.0
1676924412.7985837,1.46484375,-15.625,-80.078125,-9.27734375,0.0
1676924412.8022866,0.9765625,-18.06640625,-87.40234375,-16.6015625,0.0
1676924412.8059893,2.44140625,-20.5078125,-89.35546875,-13.18359375,0.0
1676924412.809692,0.48828125,-19.04296875,-78.125,1.46484375,0.0
1676924412.8133945,2.44140625,-15.625,-77.63671875,-2.9296875,0.0
1676924412.8183908,8.7890625,-15.625,-83.984375,0.9765625,0.0
1676924412.8233874,2.9296875,-26.3671875,-90.33203125,11.23046875,0.0
1676924412.828384,-3.41796875,-32.2265625,-93.26171875,0.9765625,0.0
1676924412.8333802,-1.46484375,-30.2734375,-93.26171875,-7.32421875,0.0
1676924412.8383765,1.46484375,-32.71484375,-87.890625,0.9765625,0.0
1676924412.843373,6.8359375,-32.2265625,-86.42578125,6.8359375,0.0
1676924412.8483696,2.9296875,-26.85546875,-94.7265625,-4.39453125,0.0
1676924412.853366,7.32421875,-24.4140625,-86.9140625,-7.8125,0.0
1676924412.8583622,20.5078125,-23.4375,-69.82421875,12.6953125,0.0
1676924412.8633587,16.11328125,-24.90234375,-62.5,15.625,0.0
1676924412.8683553,9.765625,-21.484375,-63.4765625,4.39453125,0.0
1676924412.8733516,13.18359375,-20.01953125,-70.80078125,1.46484375,0.0
1676924412.8770974,11.23046875,-19.53125,-70.80078125,-5.859375,0.0
1676924412.8808432,7.32421875,-16.11328125,-71.2890625,1.953125,0.0
1676924412.884589,8.30078125,-10.25390625,-76.66015625,8.30078125,0.0
1676924412.8883348,7.8125,-16.6015625,-76.171875,9.765625,0.0
1676924412.8920805,6.8359375,-25.87890625,-79.1015625,16.11328125,0.0
1676924412.8958263,10.7421875,-20.5078125,-89.35546875,11.71875,0.0
1676924412.899572,10.25390625,-16.11328125,-83.0078125,5.859375,0.0
1676924412.9033177,0.0,-20.99609375,-74.70703125,7.32421875,0.0
1676924412.9070635,-7.32421875,-25.87890625,-85.44921875,-7.32421875,0.0
1676924412.9108093,-9.27734375,-21.97265625,-94.7265625,-15.13671875,0.0
1676924412.914555,-6.8359375,-18.06640625,-83.49609375,-10.25390625,0.0
1676924412.9183009,-6.8359375,-20.5078125,-79.58984375,-4.8828125,0.0
1676924412.9220498,-5.859375,-26.85546875,-84.47265625,2.44140625,0.0
1676924412.9257984,2.44140625,-20.5078125,-79.58984375,0.48828125,0.0
1676924412.9295473,-0.48828125,-21.97265625,-79.1015625,-7.8125,0.0
1676924412.9332962,-1.46484375,-22.4609375,-82.51953125,-10.7421875,0.0
1676924412.937045,-5.859375,-19.53125,-84.47265625,-4.39453125,0.0
1676924412.940794,-9.765625,-22.94921875,-86.42578125,0.9765625,0.0
1676924412.9445426,-6.8359375,-17.08984375,-85.44921875,-4.39453125,0.0
1676924412.9482915,-2.9296875,-19.53125,-79.58984375,-8.7890625,0.0
1676924412.9520404,-1.953125,-22.94921875,-78.125,2.9296875,0.0
1676924412.955789,-3.41796875,-12.20703125,-81.54296875,3.90625,0.0
1676924412.959538,4.8828125,-10.25390625,-79.1015625,-5.37109375,0.0
1676924412.9632869,7.8125,-18.5546875,-81.0546875,-5.37109375,0.0
1676924412.9671905,-0.48828125,-25.87890625,-86.9140625,0.48828125,0.0
1676924412.9710941,-11.71875,-28.80859375,-80.56640625,7.8125,0.0
1676924412.9749975,-18.06640625,-21.97265625,-79.58984375,-3.41796875,0.0
1676924412.9789011,-17.578125,-23.92578125,-87.890625,-10.25390625,0.0
1676924412.9828048,-15.13671875,-27.34375,-90.33203125,-6.8359375,0.0
1676924412.9867084,-18.5546875,-31.73828125,-97.16796875,-17.08984375,0.0
1676924412.990612,-21.484375,-32.71484375,-95.703125,-25.87890625,0.0
1676924412.9945157,-5.37109375,-28.3203125,-85.9375,-1.953125,0.0
1676924412.9984193,5.859375,-23.4375,-87.890625,15.13671875,0.0
1676924413.0023227,0.9765625,-16.6015625,-90.8203125,-5.37109375,0.0
1676924413.0062263,2.9296875,-21.97265625,-81.0546875,-13.671875,0.0
1676924413.01013,-1.953125,-30.76171875,-67.87109375,-4.8828125,1.0
1676924413.013721,-9.27734375,-25.87890625,-68.359375,-9.765625,0.0
1676924413.0173118,-10.25390625,-16.11328125,-77.1484375,-17.08984375,0.0
1676924413.0209029,-17.578125,-23.4375,-73.2421875,-20.01953125,0.0
1676924413.024494,-16.6015625,-24.90234375,-62.5,-20.01953125,0.0
1676924413.0280848,-7.8125,-14.6484375,-68.84765625,-16.6015625,0.0
1676924413.0316758,-7.32421875,-18.06640625,-69.3359375,-15.13671875,0.0
1676924413.0352669,-7.8125,-23.4375,-61.03515625,-3.41796875,0.0
1676924413.0388577,-9.765625,-30.2734375,-61.5234375,6.8359375,0.0
1676924413.0424488,-13.18359375,-26.85546875,-59.08203125,2.44140625,0.0
1676924413.0460398,-14.6484375,-13.671875,-62.5,-5.37109375,0.0
1676924413.0496306,-12.20703125,-18.5546875,-65.91796875,-11.71875,0.0
1676924413.0532217,-13.18359375,-22.94921875,-72.265625,-13.18359375,0.0
1676924413.0569687,-9.765625,-15.625,-71.2890625,-7.8125,0.0
1676924413.0607157,-4.8828125,-13.671875,-65.91796875,-5.859375,0.0
1676924413.0644627,-11.23046875,-18.06640625,-70.80078125,-4.8828125,0.0
1676924413.0682094,-14.16015625,-20.5078125,-62.01171875,-2.9296875,0.0
1676924413.0719564,-8.7890625,-17.08984375,-59.08203125,-5.859375,0.0
1676924413.0757034,-7.32421875,-18.5546875,-70.3125,-12.6953125,0.0
1676924413.0794504,-10.25390625,-29.78515625,-80.56640625,-17.08984375,0.0
1676924413.0831974,-9.765625,-35.15625,-81.54296875,-8.7890625,0.0
1676924413.086944,-5.859375,-24.90234375,-71.2890625,1.46484375,0.0
1676924413.090691,0.48828125,-23.92578125,-71.2890625,4.8828125,0.0
1676924413.094438,3.41796875,-29.78515625,-78.61328125,5.859375,0.0
1676924413.098185,-2.44140625,-28.80859375,-76.171875,-3.41796875,0.0
1676924413.102054,-13.671875,-28.3203125,-71.2890625,-13.671875,0.0
1676924413.105923,-17.578125,-32.2265625,-79.58984375,-19.53125,0.0
1676924413.1097918,-20.01953125,-32.71484375,-89.84375,-15.13671875,0.0
1676924413.1136608,-23.92578125,-34.1796875,-84.47265625,-16.6015625,0.0
1676924413.1175299,-16.6015625,-36.1328125,-71.77734375,-20.5078125,0.0
1676924413.1213987,-9.765625,-33.203125,-62.01171875,-15.13671875,0.0
1676924413.1252675,-14.16015625,-31.25,-66.40625,-2.9296875,0.0
1676924413.1291366,-15.625,-27.83203125,-68.359375,-5.37109375,0.0
1676924413.1330056,-12.20703125,-34.66796875,-60.05859375,-26.3671875,0.0
1676924413.1368744,-6.34765625,-43.45703125,-53.7109375,-18.5546875,0.0
1676924413.1407433,-5.859375,-41.9921875,-57.12890625,-9.765625,0.0
1676924413.1446123,-6.34765625,-41.50390625,-61.03515625,-16.6015625,0.0
1676924413.1482573,-1.953125,-37.109375,-62.98828125,-11.71875,0.0
1676924413.1519022,-1.46484375,-39.55078125,-61.5234375,-3.90625,0.0
1676924413.1555471,0.0,-41.50390625,-60.05859375,2.9296875,0.0
1676924413.159192,0.48828125,-32.2265625,-61.5234375,-2.44140625,0.0
1676924413.162837,-5.859375,-39.55078125,-67.3828125,-10.25390625,0.0
1676924413.166482,-0.9765625,-52.734375,-71.2890625,-1.953125,0.0
1676924413.170127,2.9296875,-47.36328125,-69.3359375,2.44140625,0.0
1676924413.1737719,-0.9765625,-30.2734375,-57.6171875,0.9765625,0.0
1676924413.1774168,3.90625,-28.3203125,-58.59375,4.39453125,0.0
1676924413.1810617,1.953125,-30.2734375,-58.10546875,1.46484375,0.0
1676924413.1847067,-2.44140625,-30.2734375,-54.19921875,-9.765625,0.0
1676924413.1883516,2.44140625,-36.1328125,-53.7109375,-9.765625,0.0
1676924413.1933446,0.9765625,-39.0625,-53.7109375,-6.34765625,0.0
1676924413.1983376,-3.90625,-35.15625,-64.453125,-8.30078125,0.0
1676924413.2033305,-1.953125,-35.15625,-68.359375,-4.8828125,0.0
1676924413.2083232,3.41796875,-37.109375,-55.6640625,-2.9296875,0.0
1676924413.2133162,0.9765625,-36.62109375,-55.6640625,-1.953125,0.0
1676924413.2183092,2.9296875,-38.0859375,-64.453125,1.953125,0.0
1676924413.2233021,4.8828125,-40.52734375,-62.98828125,10.25390625,0.0
1676924413.228295,1.953125,-37.59765625,-61.03515625,9.765625,0.0
1676924413.2332878,0.9765625,-38.57421875,-63.96484375,0.48828125,0.0
1676924413.2382808,1.46484375,-38.0859375,-68.84765625,4.8828125,0.0
1676924413.2432737,2.44140625,-27.34375,-66.40625,-2.9296875,0.0
1676924413.2482667,6.34765625,-25.390625,-62.98828125,-10.25390625,0.0
1676924413.2520208,2.44140625,-33.203125,-73.2421875,-3.90625,0.0
1676924413.2557747,0.0,-31.73828125,-77.63671875,-6.34765625,0.0
1676924413.2595289,0.9765625,-26.85546875,-65.4296875,-4.39453125,0.0
1676924413.2632828,-7.8125,-34.66796875,-61.5234375,3.90625,0.0
1676924413.267037,-6.34765625,-36.1328125,-63.4765625,-2.9296875,0.0
1676924413.270791,0.48828125,-32.71484375,-62.01171875,-12.6953125,0.0
1676924413.274545,0.0,-31.25,-63.96484375,-9.765625,0.0
1676924413.278299,0.48828125,-25.87890625,-64.453125,-7.8125,0.0
1676924413.282053,-2.44140625,-37.59765625,-70.80078125,0.0,0.0
1676924413.2858071,-1.953125,-47.36328125,-73.2421875,14.6484375,0.0
1676924413.289561,-2.9296875,-38.57421875,-67.3828125,6.34765625,0.0
1676924413.2933152,0.9765625,-39.55078125,-65.91796875,-2.44140625,0.0
1676924413.2970588,-0.9765625,-41.015625,-67.87109375,0.0,0.0
1676924413.3008022,-16.6015625,-37.109375,-74.21875,-1.46484375,0.0
1676924413.3045459,-14.6484375,-34.66796875,-74.21875,1.46484375,0.0
1676924413.3082893,-7.8125,-41.50390625,-73.2421875,-8.30078125,0.0
1676924413.312033,-8.7890625,-44.921875,-68.359375,-14.16015625,0.0
1676924413.3157763,-2.44140625,-41.50390625,-64.94140625,-13.18359375,0.0
1676924413.31952,0.0,-40.0390625,-70.3125,-14.6484375,0.0
1676924413.3232636,-6.34765625,-39.55078125,-75.1953125,-11.71875,0.0
1676924413.327007,-5.859375,-42.96875,-77.1484375,-5.859375,0.0
1676924413.3307507,-8.7890625,-41.015625,-76.171875,-7.8125,0.0
1676924413.334494,-8.30078125,-40.52734375,-79.58984375,-16.11328125,0.0
1676924413.3382378,-6.8359375,-41.50390625,-81.0546875,-6.34765625,0.0
1676924413.3419912,-3.41796875,-39.0625,-74.70703125,1.953125,0.0
1676924413.3457448,-0.9765625,-32.71484375,-71.77734375,-8.30078125,0.0
1676924413.3494983,-6.34765625,-33.203125,-75.68359375,-11.71875,0.0
1676924413.353252,-6.8359375,-34.66796875,-67.3828125,-4.39453125,0.0
1676924413.3570054,-2.44140625,-34.66796875,-64.94140625,-7.8125,0.0
1676924413.3607588,-2.44140625,-35.15625,-65.4296875,-9.765625,0.0
1676924413.3645124,-6.34765625,-35.15625,-65.4296875,-7.8125,0.0
1676924413.3682659,-13.671875,-41.015625,-73.2421875,-13.671875,0.0
1676924413.3720195,-7.32421875,-37.59765625,-69.82421875,-7.8125,0.0
1676924413.375773,-3.41796875,-21.97265625,-62.98828125,-4.8828125,0.0
1676924413.3795266,-11.23046875,-31.25,-65.4296875,-0.48828125,0.0
1676924413.38328,-10.7421875,-38.0859375,-62.5,-2.44140625,0.0
1676924413.3870277,-16.6015625,-32.2265625,-62.01171875,-3.90625,0.0
1676924413.3907757,-15.13671875,-38.0859375,-71.77734375,-4.8828125,0.0
1676924413.3945234,-4.39453125,-45.41015625,-73.73046875,1.46484375,0.0
1676924413.3982713,1.46484375,-40.52734375,-70.80078125,5.859375,0.0
1676924413.402019,8.30078125,-35.64453125,-71.77734375,-0.9765625,0.0
1676924413.405767,8.7890625,-41.9921875,-71.2890625,2.9296875,0.0
1676924413.4095147,2.44140625,-38.57421875,-71.77734375,1.953125,0.0
1676924413.4132624,0.9765625,-34.66796875,-75.68359375,7.8125,0.0
1676924413.4170103,-3.90625,-33.69140625,-74.70703125,10.7421875,0.0
1676924413.420758,-9.27734375,-35.15625,-78.125,1.953125,0.0
1676924413.424506,-6.8359375,-32.2265625,-79.1015625,-7.8125,0.0
1676924413.4282537,-8.7890625,-25.87890625,-66.40625,-8.30078125,0.0
1676924413.4320037,-7.32421875,-27.34375,-52.734375,-3.90625,0.0
1676924413.4357538,-2.9296875,-26.3671875,-40.0390625,-3.41796875,0.0
1676924413.4395037,1.953125,-25.390625,-36.1328125,6.34765625,0.0
1676924413.4432538,-1.953125,-20.01953125,-41.50390625,-2.44140625,0.0
1676924413.4470038,-5.37109375,-13.671875,-38.57421875,-7.32421875,0.0
1676924413.450754,-1.46484375,-17.578125,-37.109375,-1.953125,0.0
1676924413.454504,-7.8125,-31.73828125,-44.921875,-1.953125,0.0
1676924413.458254,-12.20703125,-42.96875,-50.29296875,0.9765625,0.0
1676924413.4620042,-20.5078125,-38.57421875,-45.41015625,-3.41796875,0.0
1676924413.465754,-25.87890625,-44.43359375,-46.875,-6.34765625,0.0
1676924413.469504,-20.5078125,-47.36328125,-53.7109375,-1.953125,0.0
1676924413.4732542,-21.97265625,-43.45703125,-60.546875,-5.37109375,0.0
1676924413.4770043,-16.6015625,-40.52734375,-55.6640625,-12.20703125,0.0
1676924413.4807544,-6.8359375,-37.59765625,-50.29296875,-3.90625,0.0
1676924413.4845042,-3.90625,-35.64453125,-52.24609375,3.41796875,0.0
1676924413.4882543,-7.32421875,-33.69140625,-58.10546875,-8.30078125,0.0
1676924413.4920044,-7.32421875,-31.73828125,-65.4296875,-15.13671875,0.0
1676924413.4957542,-8.30078125,-37.109375,-68.84765625,-11.71875,0.0
1676924413.4995043,-6.8359375,-50.29296875,-73.73046875,-0.48828125,0.0
1676924413.5032544,-8.30078125,-50.29296875,-72.265625,0.48828125,0.0
1676924413.5070045,-13.18359375,-45.8984375,-69.82421875,-0.9765625,0.0
1676924413.5107546,-16.6015625,-42.96875,-70.80078125,3.90625,0.0
1676924413.5145044,-14.6484375,-43.45703125,-64.94140625,11.23046875,0.0
1676924413.5182545,-15.625,-41.50390625,-59.08203125,10.25390625,0.0
1676924413.5220108,-15.13671875,-39.0625,-64.94140625,-3.90625,0.0
1676924413.525767,-6.8359375,-41.50390625,-73.73046875,-9.27734375,0.0
1676924413.5295234,-9.27734375,-41.015625,-77.63671875,-12.20703125,0.0
1676924413.5332797,-14.16015625,-40.0390625,-74.21875,-10.25390625,0.0
1676924413.537036,-12.6953125,-38.57421875,-68.84765625,-15.13671875,0.0
1676924413.540792,-14.16015625,-40.0390625,-71.77734375,-13.671875,0.0
1676924413.5445483,-17.08984375,-31.73828125,-67.87109375,-3.90625,0.0
1676924413.5483046,-14.6484375,-16.6015625,-62.01171875,-4.8828125,0.0
1676924413.5520608,-13.18359375,-21.97265625,-62.5,-13.18359375,0.0
1676924413.5558171,-5.37109375,-20.5078125,-63.4765625,-8.30078125,0.0
1676924413.5595734,-0.48828125,-17.08984375,-64.94140625,4.8828125,0.0
1676924413.5633297,-2.9296875,-20.01953125,-58.59375,-4.39453125,0.0
1676924413.5672936,0.0,-21.97265625,-53.7109375,-9.765625,0.0
1676924413.5712576,2.9296875,-20.01953125,-60.05859375,-5.859375,0.0
1676924413.5752215,-3.90625,-14.16015625,-69.3359375,-13.18359375,0.0
1676924413.5791857,-10.25390625,-20.99609375,-76.171875,-23.92578125,0.0
1676924413.5831497,-9.27734375,-32.2265625,-73.73046875,-19.04296875,0.0
1676924413.5871136,-6.8359375,-32.71484375,-71.2890625,-9.765625,0.0
1676924413.5910776,0.48828125,-22.94921875,-68.84765625,-0.48828125,0.0
1676924413.5950415,-0.48828125,-24.90234375,-70.80078125,-4.39453125,0.0
1676924413.5990057,1.46484375,-30.2734375,-75.68359375,-2.9296875,0.0
1676924413.6029696,8.30078125,-23.4375,-71.77734375,1.953125,0.0
1676924413.6069336,2.44140625,-30.2734375,-70.80078125,-8.7890625,0.0
1676924413.6108975,-0.9765625,-43.45703125,-72.265625,-20.99609375,0.0
1676924413.616932,-3.90625,-43.45703125,-77.1484375,-22.4609375,0.0
1676924413.6229665,-8.7890625,-38.0859375,-77.63671875,-13.18359375,0.0
1676924413.629001,-9.27734375,-38.0859375,-75.68359375,-14.6484375,0.0
1676924413.6350355,-14.6484375,-37.109375,-80.078125,-12.6953125,0.0
1676924413.64107,-13.671875,-37.109375,-77.1484375,-11.23046875,0.0
1676924413.6471043,-9.27734375,-45.41015625,-74.70703125,-11.71875,0.0
1676924413.6531389,-9.27734375,-34.1796875,-72.265625,0.9765625,0.0
1676924413.6591733,-12.20703125,-32.71484375,-75.68359375,-5.859375,0.0
1676924413.6652079,-11.71875,-40.0390625,-78.61328125,-7.8125,0.0
1676924413.6712422,0.0,-34.1796875,-76.171875,1.46484375,0.0
1676924413.6772768,2.9296875,-27.83203125,-74.21875,-8.7890625,0.0
1676924413.6833112,-8.30078125,-35.15625,-79.58984375,-12.6953125,0.0
1676924413.6858096,-10.25390625,-41.015625,-81.54296875,-5.859375,0.0
1676924413.688308,-1.953125,-33.69140625,-80.56640625,-6.8359375,0.0
1676924413.6908064,2.9296875,-24.4140625,-85.44921875,0.0,0.0
1676924413.693305,0.9765625,-26.85546875,-86.42578125,4.8828125,0.0
1676924413.6958034,-5.859375,-30.2734375,-83.984375,-1.953125,0.0
1676924413.6983018,-6.34765625,-31.73828125,-78.61328125,-1.46484375,0.0
1676924413.7008002,-3.41796875,-38.57421875,-78.125,-4.39453125,0.0
1676924413.7032986,2.9296875,-33.69140625,-74.21875,7.8125,0.0
1676924413.7057972,8.7890625,-28.3203125,-72.265625,17.578125,0.0
1676924413.7082956,5.859375,-24.4140625,-73.73046875,5.37109375,0.0
1676924413.710794,7.32421875,-28.3203125,-78.61328125,-0.9765625,0.0
1676924413.7132924,7.32421875,-45.41015625,-93.75,-0.48828125,0.0
1676924413.7170439,-1.46484375,-43.9453125,-89.84375,5.859375,0.0
1676924413.7207956,-4.39453125,-30.76171875,-72.75390625,9.765625,0.0
1676924413.7245471,-5.37109375,-35.64453125,-88.37890625,-3.41796875,0.0
