timestamps,TP9,Fp1,Fp2,TP10,stim
1676923921.3073518,-51.26953125,11.71875,7.32421875,-27.83203125,0.0
1676923921.3110468,-48.828125,-6.8359375,-7.32421875,-25.390625,0.0
1676923921.3147416,-41.50390625,-27.34375,-26.85546875,-30.76171875,0.0
1676923921.3184366,-42.96875,-15.625,-8.30078125,-28.80859375,0.0
1676923921.3222065,-41.015625,-6.8359375,-6.34765625,-30.2734375,0.0
1676923921.3259764,-28.3203125,-9.27734375,-19.53125,-36.1328125,0.0
1676923921.3297465,-34.66796875,-13.671875,-16.6015625,-37.109375,0.0
1676923921.3335164,-44.43359375,-0.9765625,-1.953125,-34.1796875,0.0
1676923921.3372862,-56.640625,-14.16015625,-16.11328125,-42.96875,0.0
1676923921.3410563,-62.98828125,-34.66796875,-34.1796875,-42.48046875,0.0
1676923921.3448262,-46.875,-37.109375,-28.80859375,-21.484375,0.0
1676923921.348596,-46.875,-18.06640625,-12.6953125,-20.01953125,0.0
1676923921.352366,-53.7109375,-6.34765625,-9.27734375,-33.69140625,0.0
1676923921.3561358,-43.9453125,-37.59765625,-21.97265625,-33.69140625,0.0
1676923921.359906,-34.66796875,-49.8046875,-22.4609375,-29.78515625,0.0
1676923921.3636758,-27.83203125,-24.4140625,-0.9765625,-25.390625,0.0
1676923921.3674042,-39.55078125,-21.97265625,-7.8125,-28.3203125,0.0
1676923921.3711324,-43.9453125,-28.80859375,-28.80859375,-43.9453125,0.0
1676923921.3748608,-33.203125,-27.34375,-20.99609375,-40.0390625,0.0
1676923921.3785892,-41.9921875,-22.94921875,-15.625,-30.2734375,0.0
1676923921.3823175,-53.7109375,-28.3203125,-24.90234375,-35.15625,0.0
1676923921.386046,-55.6640625,-59.5703125,-54.6875,-30.2734375,0.0
1676923921.389774,-44.921875,-46.38671875,-45.8984375,-25.87890625,0.0
1676923921.3935025,-31.73828125,-4.39453125,-4.8828125,-35.64453125,0.0
1676923921.3972309,-33.69140625,-18.06640625,-14.16015625,-36.62109375,0.0
1676923921.400959,-32.71484375,-48.828125,-39.55078125,-25.87890625,0.0
1676923921.4046874,-37.109375,-35.64453125,-20.5078125,-18.06640625,0.0
1676923921.4084158,-38.0859375,-7.8125,8.7890625,-30.2734375,0.0
1676923921.4134033,-40.0390625,-25.390625,-9.765625,-30.76171875,0.0
1676923921.418391,-42.96875,-38.0859375,-17.578125,-31.25,0.0
1676923921.4233785,-37.109375,-21.97265625,-12.20703125,-42.48046875,0.0
1676923921.428366,-34.1796875,-11.71875,-17.08984375,-43.45703125,0.0
1676923921.4333537,-35.15625,-20.5078125,-28.80859375,-32.2265625,0.0
1676923921.4383411,-42.48046875,-38.57421875,-38.0859375,-23.4375,0.0
1676923921.4433286,-28.80859375,-19.04296875,-14.6484375,-19.04296875,0.0
1676923921.4483163,-18.06640625,0.0,-5.859375,-28.3203125,0.0
1676923921.4533038,-24.4140625,-23.92578125,-25.87890625,-18.06640625,0.0
1676923921.4582913,-26.3671875,-33.203125,-30.2734375,-1.46484375,0.0
1676923921.463279,-30.76171875,-9.765625,-5.859375,-18.5546875,0.0
1676923921.4682665,-20.99609375,-19.04296875,-17.08984375,-28.3203125,0.0
1676923921.473274,-24.4140625,-41.9921875,-42.48046875,-25.390625,0.0
1676923921.4782815,-33.69140625,-32.71484375,-40.0390625,-7.8125,0.0
1676923921.4832888,-40.0390625,-11.23046875,-32.71484375,-13.18359375,0.0
1676923921.4882963,-37.109375,-18.06640625,-38.57421875,-23.4375,0.0
1676923921.4933038,-29.78515625,-28.3203125,-47.8515625,-11.71875,0.0
1676923921.4983113,-36.62109375,-36.1328125,-48.828125,-14.16015625,0.0
1676923921.5033188,-50.78125,-19.04296875,-28.80859375,-33.203125,0.0
1676923921.5083263,-52.734375,-12.20703125,-15.625,-31.73828125,0.0
1676923921.5133338,-52.734375,-57.6171875,-45.8984375,-19.04296875,0.0
1676923921.518341,-51.26953125,-45.8984375,-41.50390625,-24.90234375,0.0
1676923921.5233486,-49.8046875,0.48828125,-7.8125,-20.99609375,0.0
1676923921.528356,-50.29296875,-14.16015625,-15.13671875,-16.11328125,0.0
1676923921.5308502,-42.48046875,-17.578125,-23.4375,-22.4609375,0.0
1676923921.5333443,-37.59765625,-8.7890625,-29.78515625,-29.296875,0.0
1676923921.5358381,-34.66796875,-10.25390625,-35.15625,-28.80859375,0.0
1676923921.5383322,-39.55078125,-14.16015625,-39.0625,-38.0859375,0.0
1676923921.5408263,-33.203125,-25.390625,-47.36328125,-27.34375,0.0
1676923921.5433204,-30.2734375,-18.06640625,-42.96875,-18.06640625,0.0
1676923921.5458145,-40.52734375,-6.34765625,-32.2265625,-35.15625,0.0
1676923921.5483086,-36.1328125,-9.765625,-36.1328125,-37.59765625,0.0
1676923921.5508027,-30.76171875,-10.25390625,-39.0625,-32.71484375,0.0
1676923921.5532966,-35.15625,0.48828125,-20.99609375,-29.296875,0.0
1676923921.5557907,-34.66796875,-7.8125,-30.76171875,-19.53125,0.0
1676923921.5582848,-31.73828125,-35.64453125,-70.80078125,-22.4609375,2.0
1676923921.5620759,-34.1796875,-38.57421875,-60.546875,-23.92578125,0.0
1676923921.5658667,-36.1328125,-3.41796875,-11.23046875,-16.6015625,0.0
1676923921.5696578,-37.59765625,-14.16015625,-24.90234375,-28.80859375,0.0
1676923921.5734487,-43.9453125,-43.45703125,-50.78125,-45.8984375,0.0
1676923921.5772398,-59.5703125,-44.43359375,-48.33984375,-51.7578125,0.0
1676923921.5810308,-56.640625,-43.45703125,-43.9453125,-50.29296875,0.0
1676923921.5848217,-45.41015625,-32.71484375,-25.87890625,-44.43359375,0.0
1676923921.5886128,-32.2265625,-35.15625,-40.52734375,-22.94921875,0.0
1676923921.5924037,-33.203125,-30.2734375,-44.921875,-24.90234375,0.0
1676923921.5961947,-42.48046875,6.34765625,2.44140625,-34.66796875,0.0
1676923921.5999856,-38.57421875,-10.25390625,-10.7421875,-27.34375,0.0
1676923921.6037767,-40.52734375,-21.484375,-24.90234375,-40.52734375,0.0
1676923921.6075244,-48.33984375,-9.765625,-13.18359375,-29.78515625,0.0
1676923921.6112719,-43.45703125,-5.37109375,-9.765625,-6.8359375,0.0
1676923921.6150196,-38.57421875,-26.3671875,-20.01953125,-16.6015625,0.0
1676923921.618767,-48.828125,-31.25,-13.18359375,-23.92578125,0.0
1676923921.6225147,-50.29296875,-20.01953125,1.46484375,-9.27734375,0.0
1676923921.6262622,-47.8515625,-38.57421875,-16.6015625,-4.8828125,0.0
1676923921.63001,-33.69140625,-25.87890625,-3.41796875,-8.7890625,0.0
1676923921.6337576,-24.4140625,-22.4609375,-0.9765625,8.7890625,0.0
1676923921.637505,-38.0859375,-12.6953125,0.48828125,-5.37109375,0.0
1676923921.6412528,-39.55078125,7.8125,19.53125,-25.87890625,0.0
1676923921.6450002,-35.15625,-15.625,-0.9765625,-8.30078125,0.0
1676923921.648748,-42.96875,-29.296875,-14.16015625,-4.39453125,0.0
1676923921.6537127,-49.8046875,-9.27734375,5.37109375,-17.578125,0.0
1676923921.6586778,-42.96875,-8.7890625,10.25390625,-18.06640625,0.0
1676923921.663643,-37.109375,-24.90234375,-6.34765625,-12.6953125,0.0
1676923921.6686077,-35.15625,-14.6484375,-4.39453125,-6.8359375,0.0
1676923921.6735725,-41.015625,-0.48828125,2.9296875,-6.34765625,0.0
1676923921.6785376,-48.33984375,-18.5546875,-11.71875,-10.25390625,0.0
1676923921.6835027,-47.36328125,-50.78125,-37.109375,-16.11328125,0.0
1676923921.6884675,-37.59765625,-40.52734375,-30.2734375,-14.6484375,0.0
1676923921.6934323,-35.15625,-1.46484375,6.8359375,-10.25390625,0.0
1676923921.6983974,-39.0625,-13.671875,-5.37109375,-0.48828125,0.0
1676923921.7033625,-47.8515625,-33.203125,-27.34375,-13.18359375,0.0
1676923921.7083273,-45.41015625,-22.4609375,-17.578125,-28.80859375,0.0
1676923921.7109213,-39.0625,-2.44140625,4.39453125,-32.2265625,0.0
1676923921.7135153,-37.59765625,-11.23046875,-10.25390625,-31.73828125,0.0
1676923921.7161093,-39.55078125,-25.390625,-21.484375,-25.87890625,0.0
1676923921.7187033,-34.66796875,-13.671875,-0.9765625,-25.390625,0.0
1676923921.7212973,-33.69140625,-17.578125,-11.23046875,-27.34375,0.0
1676923921.7238913,-40.52734375,-45.41015625,-36.62109375,-20.01953125,0.0
1676923921.7264853,-45.8984375,-41.015625,-30.76171875,-13.18359375,0.0
1676923921.7290792,-54.6875,-18.5546875,-11.71875,-24.4140625,0.0
1676923921.7316732,-53.22265625,-12.6953125,-7.32421875,-37.109375,0.0
1676923921.7342672,-40.52734375,-23.4375,-19.53125,-32.71484375,0.0
1676923921.7368612,-33.203125,-37.109375,-23.4375,-20.01953125,0.0
1676923921.7394552,-35.15625,-10.25390625,4.39453125,-23.92578125,0.0
1676923921.744403,-42.96875,-10.25390625,0.9765625,-28.3203125,0.0
1676923921.7493505,-41.9921875,-31.73828125,-19.04296875,-25.390625,0.0
1676923921.7542982,-28.80859375,-20.99609375,-9.765625,-20.5078125,0.0
1676923921.7592456,-34.66796875,0.9765625,3.41796875,-8.30078125,0.0
1676923921.7641933,-46.875,-6.34765625,-12.6953125,-20.01953125,0.0
1676923921.769141,-43.45703125,-49.8046875,-51.26953125,-20.5078125,0.0
1676923921.7740886,-41.9921875,-50.29296875,-37.109375,-7.32421875,0.0
1676923921.7790363,-33.203125,8.30078125,21.97265625,-20.01953125,0.0
1676923921.7839837,-36.62109375,-6.8359375,4.39453125,-14.16015625,0.0
1676923921.7889314,-45.8984375,-27.34375,-15.13671875,-10.25390625,0.0
1676923921.793879,-48.33984375,-21.97265625,-11.23046875,-23.4375,0.0
1676923921.7988267,-56.640625,-23.4375,-10.25390625,-26.85546875,0.0
1676923921.802532,-44.43359375,-29.296875,-14.16015625,-12.6953125,0.0
1676923921.8062372,-32.71484375,-29.78515625,-17.08984375,-13.18359375,0.0
1676923921.8099425,-33.203125,-15.625,-7.32421875,-17.08984375,0.0
1676923921.8136477,-39.0625,-14.6484375,-12.6953125,-14.16015625,0.0
1676923921.817353,-46.38671875,-30.2734375,-21.97265625,-32.2265625,0.0
1676923921.8210583,-41.015625,-39.55078125,-27.34375,-38.0859375,0.0
1676923921.8247638,-26.85546875,-27.83203125,-20.01953125,-22.4609375,0.0
1676923921.828469,-16.11328125,-2.44140625,5.37109375,-8.30078125,0.0
1676923921.8321743,-15.625,-13.18359375,4.8828125,9.27734375,0.0
1676923921.8358796,-26.3671875,-49.31640625,-11.71875,7.32421875,0.0
1676923921.8395848,-37.109375,-14.6484375,12.20703125,-6.34765625,0.0
1676923921.84329,-32.71484375,4.39453125,14.16015625,1.953125,0.0
1676923921.84704,-30.2734375,-28.3203125,-22.94921875,-7.32421875,0.0
1676923921.8507898,-26.85546875,-31.73828125,-33.203125,-20.01953125,0.0
1676923921.8545399,-22.4609375,6.34765625,-7.32421875,-26.3671875,0.0
1676923921.8582897,-24.4140625,13.18359375,-1.953125,-16.6015625,0.0
1676923921.8620396,-21.97265625,-18.06640625,-18.06640625,-1.953125,0.0
1676923921.8657894,-15.625,-25.87890625,-20.99609375,-4.39453125,0.0
1676923921.8695393,-12.6953125,-4.39453125,-5.859375,-2.9296875,0.0
1676923921.873289,-9.765625,-1.953125,-9.765625,-0.48828125,0.0
1676923921.877039,-12.6953125,-25.390625,-37.59765625,3.90625,0.0
1676923921.880789,-7.32421875,-12.20703125,-19.04296875,7.8125,0.0
1676923921.884539,6.8359375,33.203125,25.390625,-3.41796875,0.0
1676923921.8882887,-10.25390625,12.6953125,0.48828125,-13.671875,0.0
1676923921.8920896,-30.2734375,-7.32421875,-2.9296875,-8.30078125,0.0
1676923921.8958907,-48.33984375,5.859375,1.953125,-16.11328125,0.0
1676923921.8996916,-57.6171875,10.25390625,-10.7421875,-20.01953125,0.0
1676923921.9034925,-43.9453125,-7.32421875,-20.01953125,-6.34765625,0.0
1676923921.9072936,-49.8046875,-27.83203125,-33.203125,-11.71875,0.0
1676923921.9110944,-67.3828125,-30.76171875,-39.55078125,-24.90234375,0.0
1676923921.9148953,-75.1953125,-23.92578125,-21.484375,-33.203125,0.0
1676923921.9186964,-56.640625,-14.16015625,-8.30078125,-32.2265625,0.0
1676923921.9224973,-37.59765625,-26.3671875,-22.94921875,-33.203125,0.0
1676923921.9262981,-43.9453125,3.41796875,-6.8359375,-29.78515625,0.0
1676923921.9300992,-49.31640625,10.25390625,-12.6953125,-20.01953125,0.0
1676923921.9339,-41.50390625,-26.3671875,-30.2734375,-18.06640625,0.0
1676923921.9376311,-48.33984375,-27.83203125,-10.7421875,-25.390625,0.0
1676923921.9413621,-54.6875,-0.9765625,7.32421875,-36.62109375,0.0
1676923921.9450932,-44.921875,-3.41796875,0.0,-39.55078125,0.0
1676923921.9488242,-41.9921875,-22.4609375,-9.27734375,-19.53125,0.0
1676923921.9525552,-41.9921875,-13.18359375,-5.37109375,-20.01953125,0.0
1676923921.956286,-38.57421875,-7.8125,-6.34765625,-21.97265625,0.0
1676923921.960017,-45.41015625,-4.8828125,-6.34765625,-9.765625,0.0
1676923921.963748,-26.3671875,-22.94921875,-13.18359375,-9.27734375,0.0
1676923921.967479,-24.90234375,-28.3203125,-8.30078125,-18.5546875,0.0
1676923921.97121,-54.6875,5.37109375,10.25390625,-32.71484375,0.0
1676923921.974941,-49.8046875,-6.34765625,-22.94921875,-23.4375,0.0
1676923921.978672,-33.203125,-10.25390625,-26.85546875,-21.484375,0.0
1676923921.9825215,-35.15625,-4.39453125,-6.34765625,-36.62109375,0.0
1676923921.9863708,-44.921875,-21.97265625,-11.23046875,-39.0625,0.0
1676923921.9902203,-41.50390625,-28.80859375,-18.5546875,-19.04296875,0.0
1676923921.9940696,-42.96875,-20.01953125,-18.5546875,-17.08984375,0.0
1676923921.997919,-50.29296875,-7.8125,-9.27734375,-35.64453125,0.0
1676923922.0017686,-49.31640625,-12.20703125,-15.625,-40.52734375,0.0
1676923922.0056179,-51.7578125,-17.578125,-29.296875,-34.1796875,0.0
1676923922.0094674,-47.36328125,-17.578125,-31.73828125,-26.3671875,0.0
1676923922.0133166,-41.9921875,-3.90625,-20.5078125,-36.62109375,0.0
1676923922.0171661,-38.0859375,3.41796875,-12.20703125,-36.62109375,0.0
1676923922.0210154,-23.92578125,-12.6953125,-19.04296875,-18.5546875,0.0
1676923922.024865,-25.390625,-12.20703125,-11.71875,3.41796875,0.0
1676923922.0285447,-30.2734375,2.44140625,9.765625,-0.9765625,0.0
1676923922.0322247,-32.2265625,0.48828125,6.8359375,-12.6953125,0.0
1676923922.0359044,-51.7578125,-22.94921875,-18.06640625,-7.32421875,0.0
1676923922.0395842,-55.6640625,-28.3203125,-18.5546875,-13.671875,0.0
1676923922.0432642,-38.0859375,-15.13671875,-14.16015625,-11.71875,0.0
1676923922.046944,-29.78515625,-16.11328125,-20.01953125,0.0,0.0
1676923922.0506237,-31.25,-30.2734375,-21.484375,10.25390625,0.0
1676923922.0543036,-22.4609375,-29.296875,-8.7890625,17.578125,0.0
1676923922.0579834,-22.94921875,4.39453125,14.16015625,7.32421875,0.0
1676923922.0616632,-25.87890625,-3.90625,-6.34765625,-17.08984375,0.0
1676923922.0653431,-24.90234375,-20.5078125,-19.04296875,-16.11328125,0.0
1676923922.069023,-26.3671875,-10.7421875,-11.23046875,-9.765625,0.0
1676923922.0727391,-27.34375,-6.8359375,-9.765625,-23.4375,0.0
1676923922.0764554,-22.4609375,-18.5546875,-16.11328125,-8.7890625,0.0
1676923922.0801716,-20.5078125,-12.6953125,-12.6953125,-4.39453125,0.0
1676923922.0838878,-23.92578125,2.9296875,-0.9765625,-19.04296875,0.0
1676923922.087604,-15.625,-2.44140625,-3.90625,-15.625,0.0
1676923922.0913205,-20.5078125,-15.13671875,-10.25390625,-14.16015625,0.0
1676923922.0950367,-35.64453125,-37.109375,-23.92578125,-15.625,0.0
1676923922.098753,-42.96875,-32.71484375,-16.11328125,-29.296875,0.0
1676923922.1024692,-47.8515625,-0.48828125,6.8359375,-34.1796875,0.0
1676923922.1061854,-45.8984375,-22.94921875,-12.6953125,-10.25390625,0.0
1676923922.1099017,-40.52734375,-36.62109375,-20.99609375,-25.87890625,0.0
1676923922.113618,-37.59765625,-8.30078125,-8.7890625,-40.52734375,0.0
1676923922.1198456,-38.0859375,-6.34765625,-12.20703125,-34.1796875,0.0
1676923922.1260731,-28.3203125,-10.7421875,-14.16015625,-27.83203125,0.0
1676923922.1323009,-20.99609375,-2.9296875,-13.18359375,-4.8828125,0.0
1676923922.1385283,-21.97265625,10.25390625,-10.25390625,-8.7890625,0.0
1676923922.144756,-32.71484375,1.953125,-13.671875,-24.90234375,0.0
1676923922.1509838,-46.38671875,-29.296875,-30.2734375,-22.4609375,0.0
1676923922.1572113,-44.43359375,-24.4140625,-22.94921875,-13.18359375,0.0
1676923922.163439,-42.48046875,-2.44140625,-5.37109375,-15.625,0.0
1676923922.1696665,-39.0625,-9.765625,-13.671875,-17.08984375,0.0
1676923922.1758943,-33.203125,-25.390625,-22.94921875,-4.8828125,0.0
1676923922.1821218,-27.83203125,-24.90234375,-18.5546875,-6.8359375,0.0
1676923922.1883495,-26.85546875,-8.30078125,-0.9765625,-15.625,0.0
1676923922.1908348,-33.69140625,-6.8359375,1.953125,-14.6484375,0.0
1676923922.19332,-32.71484375,-35.64453125,-15.13671875,-4.8828125,0.0
1676923922.1958055,-25.87890625,-18.06640625,6.8359375,6.8359375,0.0
1676923922.1982908,-23.92578125,14.6484375,17.08984375,-3.41796875,0.0
1676923922.200776,-22.94921875,-9.765625,-12.20703125,-23.92578125,0.0
1676923922.2032614,-43.45703125,-37.109375,-22.4609375,-37.109375,0.0
1676923922.2057467,-48.828125,-26.85546875,-0.9765625,-43.9453125,0.0
1676923922.208232,-40.52734375,-2.9296875,20.5078125,-44.921875,0.0
1676923922.2107172,-41.9921875,-18.06640625,6.34765625,-33.69140625,0.0
1676923922.2132027,-40.52734375,-31.73828125,-6.34765625,-25.87890625,0.0
1676923922.215688,-49.8046875,-17.08984375,-7.32421875,-42.96875,0.0
1676923922.2181733,-45.8984375,-9.765625,-10.7421875,-44.43359375,0.0
1676923922.2220325,-33.203125,-27.83203125,-21.484375,-32.71484375,0.0
1676923922.2258918,-38.57421875,-46.875,-25.87890625,-11.23046875,0.0
1676923922.229751,-38.57421875,-5.859375,6.8359375,-14.6484375,0.0
1676923922.2336104,-35.64453125,-3.41796875,3.90625,-37.109375,0.0
1676923922.2374697,-30.2734375,-27.83203125,-17.08984375,-30.76171875,0.0
1676923922.2413292,-27.34375,-24.4140625,-20.5078125,-18.5546875,0.0
1676923922.2451885,-30.76171875,-10.25390625,-6.8359375,-27.83203125,0.0
1676923922.2490478,-28.3203125,-4.8828125,-1.46484375,-39.55078125,0.0
1676923922.252907,-29.296875,-31.73828125,-30.2734375,-18.06640625,0.0
1676923922.2567663,-31.73828125,-27.34375,-27.83203125,-11.71875,0.0
1676923922.2606256,-43.9453125,0.48828125,-2.44140625,-34.66796875,0.0
1676923922.264485,-43.45703125,-14.6484375,-12.6953125,-29.78515625,0.0
1676923922.268135,-37.109375,-13.671875,-11.23046875,-21.484375,0.0
1676923922.2717853,-42.96875,0.9765625,-6.8359375,-27.83203125,0.0
1676923922.2754352,-54.19921875,4.8828125,-22.94921875,-27.83203125,0.0
1676923922.2790854,-53.7109375,-16.6015625,-38.57421875,-17.08984375,0.0
1676923922.2827356,-39.55078125,-30.2734375,-38.57421875,-17.578125,0.0
1676923922.2863855,-32.2265625,-20.01953125,-25.87890625,-28.3203125,0.0
1676923922.2900357,-41.50390625,-10.7421875,-16.6015625,-33.69140625,0.0
1676923922.293686,-50.78125,-14.16015625,-16.6015625,-36.62109375,0.0
1676923922.297336,-53.22265625,-49.31640625,-39.55078125,-28.80859375,0.0
1676923922.3009863,-59.08203125,-24.4140625,-16.6015625,-22.94921875,0.0
1676923922.3046362,-50.78125,16.11328125,16.11328125,-20.99609375,0.0
1676923922.3082864,-43.45703125,-8.30078125,-3.90625,-16.11328125,0.0
1676923922.3120356,-38.0859375,-16.11328125,-4.39453125,-5.37109375,0.0
1676923922.3157845,-34.1796875,-4.8828125,9.765625,-12.6953125,0.0
1676923922.3195336,-38.0859375,-9.27734375,-0.48828125,-39.55078125,0.0
1676923922.3232825,-44.921875,-22.94921875,-1.953125,-42.48046875,0.0
1676923922.3270316,-43.45703125,-23.4375,6.8359375,-37.109375,0.0
1676923922.3307805,-40.0390625,-21.97265625,2.9296875,-29.78515625,0.0
1676923922.3345296,-39.0625,-17.578125,7.8125,-26.3671875,0.0
1676923922.3382788,-35.64453125,-32.2265625,-12.6953125,-24.90234375,0.0
1676923922.3420277,-40.0390625,-28.80859375,-5.859375,-8.30078125,0.0
1676923922.3457768,-42.48046875,24.4140625,38.0859375,-8.7890625,0.0
1676923922.3495257,-35.64453125,17.08984375,18.06640625,-21.97265625,0.0
1676923922.3532748,-35.64453125,-5.859375,3.41796875,-28.3203125,2.0
1676923922.3570354,-53.7109375,-4.8828125,-2.9296875,-36.62109375,0.0
1676923922.3607957,-59.5703125,-3.90625,-15.13671875,-39.55078125,0.0
1676923922.3645563,-51.26953125,-18.5546875,-23.92578125,-34.1796875,0.0
1676923922.368317,-43.9453125,-22.94921875,-26.85546875,-40.0390625,0.0
1676923922.3720772,-53.7109375,-16.11328125,-28.3203125,-47.36328125,0.0
1676923922.3758378,-52.734375,-21.97265625,-36.1328125,-35.64453125,0.0
1676923922.3795984,-39.55078125,-25.390625,-37.109375,-28.80859375,0.0
1676923922.3833587,-38.0859375,-20.5078125,-36.1328125,-24.4140625,0.0
1676923922.3871193,-38.57421875,-0.48828125,-20.5078125,-20.01953125,0.0
1676923922.3908799,-40.52734375,-1.953125,-20.5078125,-23.92578125,0.0
1676923922.3946402,-36.62109375,-27.34375,-36.62109375,-23.92578125,0.0
1676923922.3984008,-28.80859375,-37.59765625,-41.015625,-16.11328125,0.0
1676923922.4021556,-31.25,-0.48828125,-12.20703125,-15.13671875,0.0
1676923922.4059105,-39.55078125,10.7421875,-16.6015625,-8.30078125,0.0
1676923922.4096656,-38.0859375,-11.23046875,-40.52734375,-1.953125,0.0
1676923922.4134204,-32.71484375,-2.44140625,-17.578125,-16.6015625,0.0
1676923922.4171753,-39.55078125,-1.953125,-13.671875,-25.390625,0.0
1676923922.4209304,-49.8046875,-24.4140625,-43.45703125,-23.4375,0.0
1676923922.4246852,-48.33984375,-41.50390625,-66.89453125,-23.4375,0.0
1676923922.42844,-36.62109375,-30.2734375,-44.921875,-23.92578125,0.0
1676923922.432195,-39.0625,3.90625,-1.953125,-23.92578125,0.0
1676923922.4359498,-39.0625,-3.90625,-7.32421875,-13.18359375,0.0
1676923922.439705,-38.57421875,-10.7421875,-5.859375,-15.625,0.0
1676923922.4434597,-31.73828125,-1.953125,-5.37109375,-13.671875,0.0
1676923922.4472952,-32.71484375,-14.6484375,-31.73828125,-12.20703125,0.0
1676923922.4511304,-43.45703125,-31.25,-48.33984375,-20.99609375,0.0
1676923922.4549658,-40.0390625,-20.01953125,-37.109375,-26.3671875,0.0
1676923922.4588013,-47.36328125,1.46484375,-13.671875,-36.62109375,0.0
1676923922.4626365,-45.8984375,-3.90625,-15.625,-40.52734375,0.0
1676923922.466472,-39.0625,-22.94921875,-33.203125,-39.0625,0.0
1676923922.4703074,-39.0625,-24.90234375,-27.83203125,-41.50390625,0.0
1676923922.4741426,-43.9453125,-5.37109375,-1.953125,-41.9921875,0.0
1676923922.477978,-50.78125,4.39453125,1.953125,-47.8515625,0.0
1676923922.4818134,-51.7578125,-9.765625,-23.4375,-50.29296875,0.0
1676923922.4856486,-51.26953125,-8.7890625,-23.4375,-45.8984375,0.0
1676923922.489484,-31.73828125,9.27734375,-2.9296875,-41.50390625,0.0
1676923922.493148,-31.73828125,5.859375,-4.39453125,-32.2265625,0.0
1676923922.496812,-41.015625,-24.90234375,-26.85546875,-16.6015625,0.0
1676923922.5004761,-35.64453125,-17.08984375,-25.87890625,-29.296875,0.0
1676923922.5041401,-37.59765625,-2.44140625,-12.20703125,-39.55078125,0.0
1676923922.5078042,-31.73828125,-20.5078125,-15.625,-25.87890625,0.0
1676923922.5114684,-33.69140625,-35.64453125,-31.25,-19.04296875,0.0
1676923922.5151324,-42.96875,-35.15625,-35.64453125,-9.27734375,0.0
1676923922.5187964,-41.50390625,6.34765625,0.9765625,-29.78515625,0.0
1676923922.5224605,-33.69140625,3.41796875,2.44140625,-41.50390625,0.0
1676923922.5261245,-29.78515625,-10.25390625,-12.6953125,-33.69140625,0.0
1676923922.5297885,-31.25,-4.39453125,-4.39453125,-20.99609375,0.0
1676923922.5334525,-26.3671875,2.44140625,17.08984375,9.765625,0.0
1676923922.5396929,-21.97265625,-10.7421875,2.44140625,1.46484375,0.0
1676923922.545933,-31.73828125,-17.08984375,-8.30078125,-16.6015625,0.0
1676923922.5521734,-26.85546875,4.39453125,9.765625,-15.13671875,0.0
1676923922.5584137,-24.90234375,-2.9296875,4.39453125,-13.18359375,0.0
1676923922.5646539,-41.9921875,-23.92578125,-0.48828125,-10.25390625,0.0
1676923922.5708942,-40.0390625,-28.80859375,3.90625,0.9765625,0.0
1676923922.5771346,-35.64453125,-22.94921875,7.32421875,-8.30078125,0.0
1676923922.5833747,-44.43359375,-11.71875,11.71875,-29.78515625,0.0
1676923922.589615,-44.43359375,-8.7890625,6.34765625,-31.73828125,0.0
1676923922.5958555,-43.9453125,-28.80859375,-16.11328125,-17.578125,0.0
1676923922.6020956,-42.48046875,-12.6953125,-4.8828125,-21.484375,0.0
1676923922.608336,-43.9453125,3.90625,-0.9765625,-31.25,0.0
1676923922.6108341,-39.55078125,-12.6953125,-19.04296875,-21.484375,0.0
1676923922.6133323,-32.2265625,-11.23046875,-14.6484375,-3.41796875,0.0
1676923922.6158304,-26.3671875,-0.48828125,3.41796875,-5.859375,0.0
1676923922.6183283,-24.90234375,-3.41796875,-1.953125,-16.6015625,0.0
1676923922.6208265,-35.15625,-8.7890625,-12.6953125,-12.20703125,0.0
1676923922.6233246,-43.45703125,-15.13671875,-16.6015625,-20.5078125,0.0
1676923922.6258228,-53.22265625,-5.37109375,-9.27734375,-32.2265625,0.0
1676923922.628321,-41.015625,5.859375,0.9765625,-26.3671875,0.0
1676923922.6308188,-35.64453125,-11.23046875,-9.765625,-24.4140625,0.0
1676923922.633317,-47.8515625,-16.6015625,-9.765625,-31.25,0.0
1676923922.6358151,-35.15625,-2.44140625,8.7890625,-23.92578125,0.0
1676923922.6383133,-22.4609375,2.44140625,12.20703125,-19.53125,0.0
1676923922.642052,-40.52734375,-40.52734375,-27.34375,-13.18359375,0.0
1676923922.6457906,-41.9921875,-39.0625,-20.99609375,-11.71875,0.0
1676923922.6495292,-41.015625,9.765625,8.30078125,-35.64453125,0.0
1676923922.6532679,-35.64453125,0.0,-2.44140625,-32.2265625,0.0
1676923922.6570065,-28.3203125,-3.90625,-9.27734375,-27.34375,0.0
1676923922.6607451,-36.1328125,-1.46484375,-13.18359375,-39.55078125,0.0
1676923922.664484,-34.1796875,-2.44140625,-6.34765625,-36.62109375,0.0
1676923922.6682227,-41.015625,-13.671875,-14.16015625,-39.55078125,0.0
1676923922.6719613,-53.7109375,-37.59765625,-29.296875,-37.109375,0.0
1676923922.6757,-47.36328125,-16.6015625,-6.34765625,-32.2265625,0.0
1676923922.6794386,-33.203125,6.8359375,11.23046875,-26.85546875,0.0
1676923922.6831772,-33.69140625,-12.6953125,-9.27734375,-27.34375,0.0
1676923922.6870642,-44.921875,-34.66796875,-32.2265625,-28.3203125,0.0
1676923922.6909513,-53.7109375,-20.5078125,-28.3203125,-30.2734375,0.0
1676923922.6948383,-49.8046875,-1.953125,-17.08984375,-26.85546875,0.0
1676923922.6987255,-35.64453125,-25.390625,-31.25,-13.671875,0.0
1676923922.7026124,-43.9453125,-37.59765625,-32.71484375,-10.25390625,0.0
1676923922.7064996,-58.10546875,-20.01953125,-4.8828125,-24.90234375,0.0
1676923922.7103865,-55.6640625,-14.6484375,-1.46484375,-40.0390625,0.0
1676923922.7142735,-43.9453125,-31.25,-20.01953125,-27.83203125,0.0
1676923922.7181606,-29.296875,-23.4375,-1.46484375,-13.18359375,0.0
1676923922.7220476,-33.69140625,7.8125,27.34375,-28.3203125,0.0
1676923922.7259347,-46.38671875,-10.7421875,-4.8828125,-31.25,0.0
1676923922.7298217,-41.015625,-11.23046875,-22.94921875,-18.06640625,0.0
1676923922.7334862,-40.52734375,-1.953125,-16.11328125,-20.01953125,0.0
1676923922.7371507,-39.55078125,-5.37109375,-14.6484375,-26.85546875,0.0
1676923922.740815,-36.62109375,-14.16015625,-21.97265625,-28.3203125,0.0
1676923922.7444794,-35.64453125,-14.16015625,-17.578125,-28.3203125,0.0
1676923922.748144,-27.83203125,-0.48828125,-9.27734375,-20.99609375,0.0
1676923922.7518082,-24.4140625,-10.25390625,-16.11328125,-20.99609375,0.0
1676923922.7554727,-36.62109375,-14.6484375,-1.46484375,-28.80859375,0.0
1676923922.7591372,-31.25,-30.76171875,-7.8125,-11.23046875,0.0
1676923922.7628016,-21.484375,-11.71875,0.48828125,-2.44140625,0.0
1676923922.7664661,-26.3671875,10.25390625,13.18359375,-27.83203125,0.0
1676923922.7701304,-22.4609375,-28.80859375,-14.6484375,-35.64453125,0.0
1676923922.773795,-27.34375,-32.2265625,-4.39453125,-28.80859375,0.0
1676923922.7787828,-30.76171875,-15.625,17.578125,-29.78515625,0.0
1676923922.7837706,-22.4609375,-9.27734375,23.92578125,-19.04296875,0.0
1676923922.7887585,-32.2265625,-25.87890625,8.7890625,-14.6484375,0.0
1676923922.7937462,-53.22265625,-32.71484375,5.37109375,-28.3203125,0.0
1676923922.7987342,-44.43359375,-13.18359375,14.16015625,-30.2734375,0.0
1676923922.803722,-38.57421875,-19.04296875,5.859375,-16.11328125,0.0
1676923922.8087099,-54.6875,-44.43359375,-10.25390625,-9.27734375,0.0
1676923922.8136978,-51.26953125,-31.25,-6.34765625,-8.7890625,0.0
1676923922.8186855,-34.1796875,33.203125,32.2265625,-7.32421875,0.0
1676923922.8236735,-38.57421875,22.4609375,17.578125,-14.6484375,0.0
1676923922.8286612,-38.57421875,-9.27734375,-5.859375,-17.578125,0.0
1676923922.8336492,-27.83203125,7.8125,7.8125,-19.53125,0.0
1676923922.8361492,-22.4609375,21.484375,33.203125,-20.99609375,0.0
1676923922.8386493,-17.578125,14.16015625,32.2265625,-10.25390625,0.0
1676923922.8411493,-24.90234375,2.9296875,16.6015625,-14.6484375,0.0
1676923922.8436494,-38.57421875,10.7421875,22.94921875,-16.6015625,0.0
1676923922.8461494,-42.96875,5.859375,12.6953125,-8.7890625,0.0
1676923922.8486495,-34.66796875,-5.37109375,-7.32421875,2.9296875,0.0
1676923922.8511498,-18.5546875,8.30078125,8.30078125,-0.48828125,0.0
1676923922.8536499,-19.04296875,21.97265625,23.4375,-8.7890625,0.0
1676923922.85615,-26.3671875,17.578125,14.16015625,-4.8828125,0.0
1676923922.85865,-25.390625,1.953125,6.34765625,-11.71875,0.0
1676923922.86115,-28.80859375,-25.390625,-7.8125,-6.8359375,0.0
1676923922.86365,-23.92578125,4.8828125,20.99609375,-8.30078125,0.0
1676923922.8673832,-23.4375,39.55078125,45.8984375,-5.859375,0.0
1676923922.8711162,-38.0859375,4.39453125,3.41796875,-12.20703125,0.0
1676923922.8748493,-41.9921875,-0.9765625,-1.46484375,-25.390625,0.0
1676923922.8785825,-30.2734375,30.2734375,24.4140625,-13.671875,0.0
1676923922.8823156,-32.2265625,26.3671875,10.25390625,-9.27734375,0.0
1676923922.8860488,-40.52734375,-13.18359375,-20.5078125,-5.37109375,0.0
1676923922.8897817,-45.41015625,-16.11328125,-21.484375,-16.11328125,0.0
1676923922.8935149,-48.828125,21.484375,4.8828125,-47.36328125,0.0
1676923922.897248,-45.8984375,10.7421875,-3.41796875,-42.96875,0.0
1676923922.900981,-34.1796875,-0.9765625,-13.671875,-27.34375,0.0
1676923922.904714,-26.3671875,11.71875,-10.25390625,-21.484375,0.0
1676923922.9084473,-23.92578125,18.5546875,-8.30078125,-22.4609375,0.0
1676923922.9134202,-23.92578125,7.8125,-8.30078125,-20.99609375,0.0
1676923922.9183931,-23.4375,-3.90625,-8.7890625,-13.18359375,0.0
1676923922.923366,-27.34375,13.671875,-12.20703125,-21.97265625,0.0
1676923922.928339,-35.15625,21.484375,-11.71875,-16.11328125,0.0
1676923922.933312,-41.9921875,-4.8828125,-20.99609375,-11.71875,0.0
1676923922.9382849,-49.8046875,-25.390625,-34.66796875,-21.484375,0.0
1676923922.943258,-50.78125,-13.18359375,-24.90234375,-26.3671875,0.0
1676923922.948231,-53.7109375,3.90625,-4.39453125,-25.87890625,0.0
1676923922.953204,-51.7578125,-8.7890625,-8.30078125,-28.80859375,0.0
1676923922.9581769,-40.52734375,-15.13671875,-13.18359375,-29.296875,0.0
1676923922.9631498,-40.52734375,10.25390625,0.48828125,-31.73828125,0.0
1676923922.9681227,-44.43359375,15.13671875,-9.27734375,-35.15625,0.0
1676923922.971879,-36.62109375,-9.27734375,-20.01953125,-27.34375,0.0
1676923922.9756353,-45.41015625,-14.16015625,-12.20703125,-20.01953125,0.0
1676923922.9793916,-57.12890625,-2.9296875,0.48828125,-33.69140625,0.0
1676923922.9831476,-43.45703125,-2.9296875,0.0,-36.1328125,0.0
1676923922.986904,-43.45703125,-15.13671875,-13.18359375,-21.484375,0.0
1676923922.9906602,-43.45703125,-8.30078125,-10.25390625,-20.01953125,0.0
1676923922.9944165,-39.0625,23.4375,15.13671875,-25.87890625,0.0
1676923922.9981728,-37.59765625,21.484375,6.34765625,-35.15625,0.0
1676923923.0019288,-32.2265625,-9.27734375,-28.80859375,-24.90234375,0.0
1676923923.005685,-32.2265625,2.44140625,-18.06640625,-8.7890625,0.0
1676923923.0094414,-28.3203125,36.62109375,12.6953125,-6.34765625,0.0
1676923923.0131977,-36.1328125,15.13671875,-8.7890625,-5.859375,1.0
1676923923.0169456,-28.80859375,0.48828125,-21.97265625,-16.6015625,0.0
1676923923.0206933,-19.53125,20.5078125,-8.7890625,-14.16015625,0.0
1676923923.0244412,-31.73828125,30.2734375,-10.7421875,-16.11328125,0.0
1676923923.0281892,-33.69140625,9.765625,-17.578125,-13.18359375,0.0
1676923923.0319371,-32.71484375,-1.46484375,-13.671875,3.41796875,0.0
1676923923.035685,-41.50390625,0.9765625,-20.01953125,-1.46484375,0.0
1676923923.0394328,-42.96875,5.37109375,-23.4375,-20.5078125,0.0
1676923923.0431807,-31.73828125,4.39453125,-19.53125,-31.25,0.0
1676923923.0469286,-23.92578125,-23.92578125,-40.52734375,-26.85546875,0.0
1676923923.0506763,-17.578125,2.9296875,-17.08984375,-11.71875,0.0
1676923923.0544243,-18.5546875,34.66796875,1.953125,-15.13671875,0.0
1676923923.0581722,-36.62109375,-0.48828125,-32.2265625,-22.94921875,0.0
1676923923.0621648,-48.33984375,-5.859375,-21.97265625,-20.5078125,0.0
1676923923.0661573,-44.43359375,8.30078125,-1.46484375,-16.6015625,0.0
1676923923.07015,-41.9921875,-2.9296875,-9.27734375,-4.8828125,0.0
1676923923.0741422,-38.0859375,-19.04296875,-15.625,-15.625,0.0
1676923923.0781348,-53.22265625,-20.99609375,-18.5546875,-34.1796875,0.0
1676923923.0821273,-52.24609375,-19.53125,-12.6953125,-39.55078125,0.0
1676923923.08612,-31.25,-3.41796875,5.859375,-27.83203125,0.0
1676923923.0901124,-37.109375,-20.01953125,-17.08984375,-5.859375,0.0
1676923923.0941048,-46.38671875,-23.92578125,-29.78515625,-9.765625,0.0
1676923923.0980973,-41.9921875,2.44140625,-3.90625,-12.6953125,0.0
1676923923.10209,-38.0859375,0.9765625,-3.41796875,-7.32421875,0.0
1676923923.1060824,-41.9921875,-6.34765625,-19.53125,-9.765625,0.0
1676923923.109615,-51.7578125,-0.48828125,-15.13671875,-15.13671875,0.0
1676923923.113148,-42.48046875,3.41796875,-18.5546875,-26.3671875,0.0
1676923923.1166806,-35.64453125,-5.859375,-32.2265625,-27.83203125,0.0
1676923923.1202133,-29.78515625,-2.9296875,-20.99609375,-18.5546875,0.0
1676923923.1237462,-15.625,7.8125,-6.8359375,-7.8125,0.0
1676923923.1272788,-10.7421875,-3.90625,-15.625,-11.23046875,0.0
1676923923.1308115,-13.18359375,-7.32421875,-8.7890625,-8.7890625,0.0
1676923923.1343443,-16.6015625,-29.78515625,-17.578125,15.13671875,0.0
1676923923.137877,-24.4140625,-14.16015625,-3.90625,0.0,0.0
1676923923.1414096,-36.1328125,25.390625,23.4375,-14.6484375,0.0
1676923923.1449425,-23.92578125,-0.9765625,6.34765625,-5.859375,0.0
1676923923.1484752,-16.6015625,-14.16015625,-2.9296875,-0.9765625,0.0
1676923923.1523404,-24.4140625,6.34765625,6.34765625,-5.37109375,0.0
1676923923.1562057,-30.2734375,16.11328125,9.27734375,-12.6953125,0.0
1676923923.1600707,-11.71875,-2.9296875,-6.34765625,11.23046875,0.0
1676923923.163936,-6.34765625,-5.859375,-6.8359375,17.08984375,0.0
1676923923.1678011,-21.97265625,0.48828125,-10.7421875,-11.23046875,0.0
1676923923.1716661,-33.203125,-18.5546875,-32.2265625,-25.87890625,0.0
1676923923.1755314,-51.7578125,-34.1796875,-37.109375,-22.4609375,0.0
1676923923.1793966,-41.015625,-17.578125,-26.3671875,-10.7421875,0.0
1676923923.1832619,-29.78515625,17.08984375,-3.41796875,-5.37109375,0.0
1676923923.187127,-39.55078125,-3.41796875,-19.04296875,-9.765625,0.0
1676923923.190992,-40.52734375,-20.5078125,-28.80859375,-5.859375,0.0
1676923923.1948574,-42.48046875,-16.6015625,-20.99609375,6.8359375,0.0
1676923923.1984792,-33.203125,-12.6953125,-19.53125,4.39453125,0.0
1676923923.202101,-27.34375,-20.5078125,-22.4609375,-12.20703125,0.0
1676923923.2057228,-27.34375,-29.78515625,-29.78515625,-26.3671875,0.0
1676923923.2093446,-23.4375,-9.765625,-16.6015625,-20.99609375,0.0
1676923923.2129664,-29.296875,-0.9765625,-11.71875,-23.4375,0.0
1676923923.2165885,-30.76171875,-14.6484375,-27.83203125,-21.97265625,0.0
1676923923.2202103,-24.4140625,-33.203125,-42.48046875,-4.39453125,0.0
1676923923.2238321,-17.578125,-20.01953125,-22.4609375,1.953125,0.0
1676923923.227454,-20.01953125,3.90625,0.0,0.48828125,0.0
1676923923.2310758,-34.66796875,-28.80859375,-22.4609375,-18.06640625,0.0
1676923923.2346976,-42.48046875,-42.48046875,-14.16015625,-22.94921875,0.0
1676923923.2383194,-34.1796875,-28.80859375,5.37109375,-15.13671875,0.0
1676923923.2420683,-23.4375,-16.6015625,0.9765625,-16.6015625,0.0
1676923923.2458174,-22.4609375,-24.90234375,-9.27734375,-6.34765625,0.0
1676923923.2495666,-25.87890625,-33.69140625,-14.16015625,0.0,0.0
1676923923.2533154,-33.203125,-19.53125,-1.953125,-11.23046875,0.0
1676923923.2570643,-41.9921875,-27.34375,1.46484375,-20.99609375,0.0
1676923923.2608135,-42.48046875,-57.12890625,-26.3671875,-19.53125,0.0
1676923923.2645626,-39.0625,-49.8046875,-24.90234375,-16.6015625,0.0
1676923923.2683115,-42.48046875,-18.5546875,3.90625,-23.92578125,0.0
1676923923.2720604,-54.19921875,-16.11328125,0.48828125,-39.55078125,0.0
1676923923.2758095,-55.17578125,-50.29296875,-35.64453125,-30.76171875,0.0
1676923923.2795587,-41.9921875,-34.1796875,-20.01953125,-17.578125,0.0
1676923923.2833076,-40.0390625,5.37109375,10.25390625,-16.11328125,0.0
1676923923.2882993,-33.203125,-10.25390625,-12.6953125,-26.85546875,0.0
1676923923.2932909,-32.2265625,-36.1328125,-21.484375,-33.203125,0.0
1676923923.2982826,-35.64453125,-31.73828125,-8.7890625,-36.62109375,0.0
1676923923.3032742,-34.1796875,-15.13671875,-1.46484375,-44.921875,0.0
1676923923.308266,-32.2265625,-14.16015625,-13.18359375,-27.34375,0.0
1676923923.3132577,-29.296875,-26.3671875,-23.92578125,-17.08984375,0.0
1676923923.3182492,-33.69140625,-16.11328125,-10.7421875,-21.484375,0.0
1676923923.323241,-40.0390625,-7.8125,-4.39453125,-25.87890625,0.0
1676923923.3282325,-40.52734375,-27.83203125,-22.4609375,-21.484375,0.0
1676923923.3332243,-36.62109375,-46.875,-38.57421875,-8.30078125,0.0
1676923923.3382158,-33.203125,-18.5546875,4.39453125,-9.27734375,0.0
1676923923.3432076,-36.1328125,3.41796875,20.01953125,-19.53125,0.0
1676923923.346959,-44.921875,-31.25,-9.27734375,-12.6953125,0.0
1676923923.3507106,-48.828125,-44.43359375,-13.671875,-22.94921875,0.0
1676923923.3544621,-37.109375,-20.5078125,-8.30078125,-33.69140625,0.0
1676923923.3582137,-30.76171875,-11.23046875,-14.16015625,-10.7421875,0.0
1676923923.3619652,-20.99609375,-22.4609375,-27.83203125,-5.37109375,0.0
1676923923.365717,-15.625,-22.4609375,-41.50390625,-15.13671875,0.0
1676923923.3694685,-33.203125,-12.20703125,-34.1796875,-28.80859375,0.0
1676923923.37322,-38.57421875,-2.44140625,-24.90234375,-35.15625,0.0
1676923923.3769715,-32.71484375,-28.80859375,-35.15625,-25.390625,0.0
1676923923.380723,-36.1328125,-29.78515625,-23.92578125,-20.99609375,0.0
1676923923.3844745,-39.55078125,7.32421875,3.41796875,-19.53125,0.0
1676923923.388226,-26.85546875,-0.48828125,-16.6015625,-6.8359375,0.0
1676923923.3932467,-15.625,-22.4609375,-35.64453125,3.90625,0.0
1676923923.3982675,-29.296875,-13.18359375,-22.94921875,-10.25390625,0.0
1676923923.4032881,-38.57421875,1.953125,-16.6015625,-24.4140625,0.0
1676923923.408309,-41.015625,-16.11328125,-28.3203125,-20.5078125,0.0
1676923923.4133296,-49.31640625,-18.5546875,-28.3203125,-13.671875,0.0
1676923923.4183502,-41.50390625,-4.8828125,-21.484375,-15.13671875,0.0
1676923923.423371,-35.15625,13.671875,-9.765625,-19.04296875,0.0
1676923923.4283917,-32.2265625,11.71875,-18.5546875,-17.08984375,0.0
1676923923.4334126,-18.06640625,-7.8125,-38.0859375,-2.44140625,0.0
1676923923.4384332,-20.5078125,15.625,-5.859375,2.9296875,0.0
1676923923.443454,-29.296875,26.3671875,5.859375,-18.06640625,0.0
1676923923.4484746,-34.1796875,-5.37109375,-24.90234375,-26.3671875,0.0
1676923923.450985,-41.9921875,-12.20703125,-29.296875,-21.484375,0.0
1676923923.4534953,-44.921875,0.48828125,-9.27734375,-6.8359375,0.0
1676923923.4560056,-37.109375,-8.7890625,-6.34765625,-8.30078125,0.0
1676923923.458516,-23.4375,-24.4140625,-8.30078125,-6.8359375,0.0
1676923923.4610262,-15.13671875,-20.5078125,4.8828125,3.41796875,0.0
1676923923.4635363,-24.90234375,-14.16015625,2.9296875,-7.8125,0.0
1676923923.4660466,-35.15625,-17.08984375,-3.41796875,-12.20703125,0.0
1676923923.468557,-27.83203125,-20.5078125,-6.34765625,-4.8828125,0.0
1676923923.4710672,-34.66796875,-15.13671875,-8.30078125,-1.953125,0.0
1676923923.4735775,-40.0390625,-9.27734375,-3.41796875,-4.39453125,0.0
1676923923.4760878,-42.96875,-20.99609375,-4.39453125,-20.5078125,0.0
1676923923.478598,-36.1328125,-53.22265625,-32.71484375,-18.5546875,0.0
1676923923.4823518,-22.4609375,-36.1328125,-27.83203125,-5.859375,0.0
1676923923.4861054,-28.80859375,4.39453125,0.0,-10.25390625,0.0
1676923923.489859,-31.25,-7.8125,-26.3671875,-11.71875,0.0
1676923923.4936128,-41.015625,-15.13671875,-29.78515625,-12.20703125,0.0
1676923923.4973664,-42.96875,-20.5078125,-24.4140625,-17.578125,0.0
1676923923.50112,-30.2734375,-29.78515625,-40.52734375,-14.6484375,0.0
1676923923.504874,-34.1796875,-29.296875,-40.52734375,-7.8125,0.0
1676923923.5086277,-33.69140625,-22.94921875,-28.80859375,-11.71875,0.0
1676923923.5123813,-28.3203125,-3.90625,-14.16015625,-13.18359375,0.0
1676923923.516135,-30.2734375,-0.48828125,-13.18359375,-10.25390625,0.0
1676923923.5198886,-22.4609375,-15.13671875,-20.01953125,-13.671875,0.0
1676923923.5236423,-23.4375,-22.4609375,-15.13671875,-4.8828125,0.0
1676923923.527368,-37.109375,-8.30078125,-2.44140625,-14.16015625,0.0
1676923923.531094,-35.15625,-12.6953125,-16.6015625,-29.296875,0.0
1676923923.53482,-35.64453125,-35.64453125,-27.83203125,-17.578125,0.0
1676923923.5385458,-37.59765625,-28.3203125,-14.6484375,-20.01953125,0.0
1676923923.5422716,-39.55078125,-17.578125,-13.671875,-20.01953125,0.0
1676923923.5459976,-33.203125,-28.80859375,-28.80859375,-10.25390625,0.0
1676923923.5497236,-28.3203125,-37.59765625,-41.50390625,-16.11328125,0.0
1676923923.5534494,-34.1796875,-26.85546875,-27.83203125,-16.6015625,0.0
1676923923.5571752,-30.76171875,-3.41796875,-5.37109375,-18.06640625,0.0
1676923923.5609012,-25.390625,-2.9296875,0.9765625,-18.06640625,0.0
1676923923.5646272,-34.1796875,-17.08984375,5.37109375,-3.41796875,0.0
1676923923.568353,-45.8984375,-18.06640625,4.8828125,-3.90625,0.0
1676923923.5721161,-38.57421875,-0.48828125,8.30078125,-14.6484375,0.0
1676923923.5758796,-28.80859375,-2.44140625,-4.39453125,-7.32421875,0.0
1676923923.5796428,-41.9921875,-4.39453125,-8.7890625,-9.765625,0.0
1676923923.5834062,-41.015625,10.25390625,3.41796875,-10.25390625,0.0
1676923923.5871694,-31.25,12.20703125,1.46484375,-7.8125,0.0
1676923923.5909328,-28.3203125,-12.6953125,-19.53125,-7.8125,0.0
1676923923.594696,-26.3671875,-27.34375,-26.85546875,-10.25390625,0.0
1676923923.5984592,-27.83203125,0.48828125,-6.34765625,-20.01953125,0.0
1676923923.6022227,-34.66796875,18.06640625,-0.48828125,-15.625,0.0
1676923923.6059859,-32.71484375,-3.90625,-24.90234375,-8.30078125,0.0
1676923923.6097493,-28.80859375,-3.41796875,-31.25,-7.8125,0.0
1676923923.6135125,-24.4140625,-4.8828125,-24.4140625,-16.6015625,0.0
1676923923.6173744,-29.78515625,-4.39453125,-17.578125,-25.390625,0.0
1676923923.621236,-40.52734375,-10.7421875,-25.87890625,-17.578125,0.0
1676923923.625098,-35.64453125,-22.4609375,-27.34375,-20.01953125,0.0
1676923923.62896,-32.71484375,-0.9765625,0.9765625,-30.2734375,0.0
1676923923.6328216,-36.1328125,-11.23046875,-4.8828125,-29.296875,0.0
1676923923.6366835,-40.0390625,-45.41015625,-33.203125,-15.13671875,0.0
1676923923.6405454,-44.43359375,-31.73828125,-23.4375,-13.671875,0.0
1676923923.644407,-37.109375,5.37109375,8.7890625,-23.92578125,0.0
1676923923.648269,-25.390625,-9.27734375,-6.8359375,-18.5546875,0.0
1676923923.6521308,-28.3203125,-20.01953125,-16.11328125,-23.92578125,0.0
1676923923.6559925,-30.76171875,-20.01953125,-14.16015625,-28.80859375,0.0
1676923923.6598544,-27.83203125,-17.578125,-9.27734375,-21.97265625,0.0
1676923923.6647534,-26.85546875,-15.13671875,-9.765625,-23.4375,0.0
1676923923.6696522,-29.296875,-23.4375,-26.3671875,-35.15625,0.0
1676923923.674551,-32.71484375,-18.06640625,-20.99609375,-25.390625,0.0
1676923923.67945,-23.92578125,-5.859375,-12.6953125,-16.6015625,0.0
1676923923.684349,-22.4609375,-10.7421875,-39.55078125,-20.99609375,0.0
1676923923.6892478,-39.55078125,-38.57421875,-68.359375,-12.20703125,0.0
1676923923.6941466,-44.921875,-19.53125,-36.62109375,-14.16015625,0.0
1676923923.6990457,-35.64453125,13.671875,-10.25390625,-25.390625,0.0
1676923923.7039447,-31.25,-6.34765625,-31.25,-23.4375,0.0
1676923923.7088435,-29.78515625,-7.32421875,-34.66796875,-28.80859375,0.0
1676923923.7137423,-22.94921875,10.7421875,-24.4140625,-32.71484375,0.0
1676923923.7186413,-24.4140625,8.30078125,-23.92578125,-36.62109375,0.0
1676923923.7223916,-32.71484375,-13.18359375,-34.66796875,-31.25,0.0
1676923923.7261422,-38.0859375,-19.04296875,-31.73828125,-26.85546875,0.0
1676923923.7298925,-39.55078125,-3.90625,-11.71875,-38.0859375,0.0
1676923923.733643,-36.62109375,-4.39453125,-17.08984375,-34.1796875,0.0
1676923923.7373934,-25.87890625,-21.484375,-31.25,-33.203125,0.0
1676923923.7411437,-25.390625,-26.85546875,-24.4140625,-37.59765625,0.0
1676923923.7448943,-33.203125,-18.06640625,-16.11328125,-25.390625,0.0
1676923923.7486446,-28.3203125,0.48828125,3.90625,-22.94921875,0.0
1676923923.7523952,-12.20703125,-15.625,-13.18359375,-23.4375,0.0
1676923923.7561455,-22.94921875,-31.73828125,-34.1796875,-24.90234375,0.0
1676923923.759896,-42.96875,11.23046875,1.953125,-41.015625,0.0
1676923923.7636464,-40.0390625,6.34765625,-7.32421875,-33.203125,0.0
1676923923.76737,-35.15625,-11.23046875,-18.5546875,-17.578125,0.0
1676923923.7710934,-29.78515625,-4.8828125,-6.8359375,-2.9296875,0.0
1676923923.774817,-24.90234375,-2.9296875,-7.8125,-11.23046875,0.0
1676923923.7785406,-24.90234375,-12.6953125,-15.625,-33.69140625,0.0
1676923923.7822642,-31.73828125,-16.6015625,-20.01953125,-36.1328125,0.0
1676923923.7859879,-31.25,-23.4375,-15.625,-21.97265625,0.0
1676923923.7897112,-26.85546875,-21.97265625,-7.32421875,-21.484375,0.0
1676923923.7934349,-31.73828125,-17.578125,-11.23046875,-26.3671875,0.0
1676923923.7971585,-18.5546875,-39.0625,-31.73828125,-10.25390625,0.0
1676923923.8008819,-19.53125,-19.53125,-14.16015625,-20.01953125,0.0
1676923923.8046055,-32.71484375,3.90625,8.7890625,-27.34375,0.0
1676923923.808329,-37.109375,-14.6484375,-3.41796875,-20.01953125,0.0
1676923923.8120642,-38.57421875,-16.6015625,-11.71875,-32.2265625,0.0
1676923923.8157995,-32.71484375,3.90625,2.9296875,-36.62109375,0.0
1676923923.8195345,-38.57421875,0.48828125,0.9765625,-41.9921875,0.0
1676923923.8232698,-46.875,-18.5546875,-14.16015625,-43.9453125,0.0
1676923923.827005,-42.96875,-17.08984375,-14.16015625,-36.62109375,0.0
1676923923.83074,-37.59765625,-18.5546875,-16.11328125,-24.90234375,0.0
1676923923.8344753,-35.15625,-15.625,-9.765625,-12.6953125,0.0
1676923923.8382103,-31.73828125,-33.69140625,-22.94921875,-16.6015625,0.0
1676923923.8419456,-30.2734375,-33.69140625,-26.85546875,-13.671875,0.0
1676923923.8456807,-28.3203125,0.9765625,-14.16015625,-13.18359375,0.0
1676923923.849416,-18.06640625,-7.8125,-35.15625,-8.7890625,0.0
1676923923.853151,-19.04296875,-16.11328125,-37.109375,-2.44140625,0.0
1676923923.8582127,-33.69140625,-11.23046875,-27.34375,-29.296875,0.0
1676923923.8632743,-39.55078125,-12.20703125,-25.390625,-38.57421875,0.0
1676923923.868336,-27.34375,-13.18359375,-35.15625,-20.99609375,0.0
1676923923.8733976,-20.01953125,-14.16015625,-31.25,-20.01953125,0.0
1676923923.8784592,-36.1328125,-16.11328125,-31.25,-40.0390625,0.0
1676923923.8835206,-46.875,-27.34375,-41.9921875,-34.66796875,0.0
1676923923.8885822,-41.50390625,-34.66796875,-29.296875,-24.4140625,0.0
1676923923.8936439,-42.48046875,-42.48046875,-26.85546875,-26.3671875,0.0
1676923923.8987055,-53.22265625,-21.97265625,-7.32421875,-23.92578125,0.0
1676923923.903767,-41.9921875,-5.37109375,-2.9296875,-40.0390625,0.0
1676923923.9088287,-21.97265625,-18.06640625,-25.87890625,-40.52734375,0.0
1676923923.9138904,-27.83203125,-24.4140625,-35.15625,-28.3203125,0.0
1676923923.916441,-43.45703125,-21.97265625,-45.41015625,-35.15625,0.0
1676923923.9189913,-50.29296875,-21.484375,-57.12890625,-41.50390625,0.0
1676923923.9215417,-41.9921875,-39.55078125,-70.80078125,-27.34375,0.0
1676923923.9240923,-39.55078125,-27.83203125,-58.10546875,-19.53125,0.0
1676923923.926643,-42.48046875,-5.37109375,-40.0390625,-34.66796875,0.0
1676923923.9291933,-36.62109375,-21.484375,-45.8984375,-28.80859375,0.0
1676923923.9317436,-36.62109375,-28.3203125,-41.015625,-25.390625,0.0
1676923923.9342942,-37.59765625,-6.8359375,-24.90234375,-26.85546875,0.0
1676923923.9368448,-33.69140625,2.44140625,-30.2734375,-27.83203125,0.0
1676923923.9393952,-34.1796875,0.0,-38.57421875,-25.390625,0.0
1676923923.9419456,-49.31640625,-29.296875,-59.5703125,-27.34375,0.0
1676923923.9444962,-56.640625,-37.109375,-60.546875,-38.0859375,1.0
1676923923.9481468,-52.24609375,-1.953125,-32.71484375,-44.43359375,0.0
1676923923.9517975,-55.17578125,-16.11328125,-51.26953125,-44.921875,0.0
1676923923.9554482,-62.98828125,-24.4140625,-53.7109375,-36.1328125,0.0
1676923923.9590988,-51.7578125,-14.16015625,-37.59765625,-30.76171875,0.0
1676923923.9627495,-44.921875,-17.578125,-43.45703125,-37.59765625,0.0
1676923923.9664001,-64.453125,-23.92578125,-49.31640625,-37.109375,0.0
1676923923.9700506,-55.17578125,-43.45703125,-60.546875,-29.296875,0.0
1676923923.9737012,-49.8046875,-27.83203125,-41.50390625,-32.2265625,0.0
1676923923.977352,-50.78125,0.48828125,-18.5546875,-39.55078125,0.0
1676923923.9810026,-43.9453125,-30.76171875,-41.015625,-31.25,0.0
1676923923.9846532,-49.8046875,-35.64453125,-40.0390625,-28.80859375,0.0
1676923923.988304,-51.26953125,-25.87890625,-34.66796875,-39.55078125,0.0
1676923923.9920776,-46.38671875,-23.92578125,-38.57421875,-26.85546875,0.0
1676923923.9958515,-50.29296875,-31.73828125,-53.22265625,-30.76171875,0.0
1676923923.9996252,-58.59375,-32.2265625,-56.640625,-35.64453125,0.0
1676923924.003399,-54.19921875,-13.18359375,-37.109375,-27.34375,0.0
1676923924.0071726,-48.828125,-21.97265625,-42.48046875,-35.64453125,0.0
1676923924.0109463,-40.52734375,-38.0859375,-57.12890625,-34.1796875,0.0
1676923924.0147202,-46.875,-27.34375,-39.0625,-25.390625,0.0
1676923924.018494,-60.546875,-16.6015625,-21.97265625,-17.578125,0.0
1676923924.0222676,-59.08203125,-21.484375,-26.85546875,-15.625,0.0
1676923924.0260415,-50.29296875,-40.0390625,-39.55078125,-26.3671875,0.0
1676923924.0298152,-48.828125,-38.0859375,-26.85546875,-36.1328125,0.0
1676923924.033589,-46.38671875,-10.7421875,4.39453125,-32.2265625,0.0
1676923924.0385923,-36.1328125,-24.4140625,-14.16015625,-17.08984375,0.0
1676923924.0435956,-23.92578125,-30.2734375,-29.296875,-15.13671875,0.0
1676923924.048599,-15.625,-24.90234375,-22.94921875,-17.08984375,0.0
1676923924.0536025,-27.34375,-26.85546875,-27.34375,-13.18359375,0.0
1676923924.0586057,-34.66796875,-37.109375,-40.52734375,-14.16015625,0.0
1676923924.0636091,-26.3671875,-54.19921875,-54.6875,-21.484375,0.0
1676923924.0686126,-28.80859375,-39.0625,-42.48046875,-17.578125,0.0
1676923924.0736158,-41.9921875,-22.4609375,-13.18359375,-5.859375,0.0
1676923924.0786192,-42.96875,-37.109375,-21.97265625,0.9765625,0.0
1676923924.0836227,-34.1796875,-44.921875,-23.92578125,0.9765625,0.0
1676923924.088626,-37.59765625,-31.73828125,-0.9765625,-3.41796875,0.0
1676923924.0936294,-44.43359375,-37.109375,-7.32421875,-13.671875,0.0
1676923924.0974486,-47.8515625,-51.7578125,-16.11328125,-18.5546875,0.0
1676923924.1012676,-47.8515625,-40.0390625,3.90625,-15.625,0.0
1676923924.1050868,-38.0859375,-26.3671875,9.765625,-20.99609375,0.0
1676923924.108906,-27.34375,-28.80859375,-7.8125,-18.06640625,0.0
1676923924.112725,-20.5078125,-42.48046875,-27.83203125,-2.9296875,0.0
1676923924.1165442,-18.06640625,-47.8515625,-42.48046875,-0.48828125,0.0
1676923924.1203635,-19.53125,-14.6484375,-18.06640625,-6.34765625,0.0
1676923924.1241825,-28.3203125,-4.8828125,-4.39453125,-15.13671875,0.0
1676923924.1280017,-33.203125,-46.875,-37.109375,-10.25390625,0.0
1676923924.131821,-39.0625,-46.875,-34.66796875,0.9765625,0.0
1676923924.13564,-43.9453125,-6.34765625,-1.46484375,-14.16015625,0.0
1676923924.1394591,-36.62109375,-29.296875,-18.06640625,-17.578125,0.0
1676923924.1432111,-32.71484375,-44.43359375,-20.5078125,-8.7890625,0.0
1676923924.1469631,-39.55078125,-44.921875,-16.11328125,-16.6015625,0.0
1676923924.150715,-29.78515625,-39.55078125,-9.765625,-12.6953125,0.0
1676923924.154467,-21.484375,-24.90234375,-12.20703125,-8.30078125,0.0
1676923924.158219,-38.0859375,-30.2734375,-36.62109375,0.0,0.0
1676923924.161971,-23.92578125,-34.66796875,-31.73828125,7.8125,0.0
1676923924.1657233,-21.484375,-32.71484375,-19.53125,-0.9765625,0.0
1676923924.1694753,-20.5078125,-30.76171875,-25.87890625,5.37109375,0.0
1676923924.1732273,-10.7421875,-59.5703125,-66.40625,10.25390625,0.0
1676923924.1769793,-15.13671875,-39.55078125,-54.19921875,11.71875,0.0
1676923924.1807313,-19.04296875,0.0,-26.3671875,11.23046875,0.0
1676923924.1844833,-18.5546875,-17.578125,-39.0625,3.90625,0.0
1676923924.1881258,-13.18359375,-19.04296875,-40.0390625,1.953125,0.0
1676923924.1917682,-23.4375,-8.7890625,-37.109375,11.23046875,0.0
1676923924.1954107,-33.203125,-15.625,-42.48046875,0.0,0.0
1676923924.199053,-30.76171875,-37.59765625,-61.03515625,-9.765625,0.0
1676923924.2026956,-24.4140625,-34.1796875,-62.5,-1.46484375,0.0
1676923924.206338,-20.5078125,-6.8359375,-42.48046875,-5.859375,0.0
1676923924.2099805,-21.97265625,-7.32421875,-30.2734375,-19.53125,0.0
1676923924.213623,-35.15625,-34.66796875,-45.41015625,-19.04296875,0.0
1676923924.2172654,-45.8984375,-48.828125,-48.33984375,-2.44140625,0.0
1676923924.220908,-45.8984375,-10.25390625,-15.13671875,-9.27734375,0.0
1676923924.2245502,-44.43359375,-9.27734375,-21.484375,-17.08984375,0.0
1676923924.2281928,-34.1796875,-22.4609375,-30.2734375,-7.8125,0.0
1676923924.2319407,-31.25,-12.20703125,-20.01953125,-14.6484375,0.0
1676923924.2356887,-34.1796875,-6.34765625,-29.296875,-17.08984375,0.0
1676923924.2394369,-30.76171875,-12.20703125,-41.50390625,-10.7421875,0.0
1676923924.2431848,-30.76171875,-13.18359375,-33.69140625,-8.30078125,0.0
1676923924.2469327,-35.64453125,-13.18359375,-33.203125,-7.32421875,0.0
1676923924.250681,-35.64453125,-25.87890625,-47.8515625,-4.39453125,0.0
1676923924.2544289,-31.73828125,-18.06640625,-46.38671875,-6.34765625,0.0
1676923924.2581768,-28.80859375,-29.296875,-52.734375,3.41796875,0.0
1676923924.2619247,-18.5546875,-8.30078125,-29.78515625,2.44140625,0.0
1676923924.2656727,-20.01953125,26.85546875,-13.671875,-7.8125,0.0
1676923924.2694209,-26.85546875,-0.48828125,-46.38671875,-15.13671875,0.0
1676923924.2731688,-22.94921875,-11.23046875,-53.7109375,-28.3203125,0.0
1676923924.2769475,-18.06640625,4.39453125,-41.015625,-26.3671875,0.0
1676923924.2807262,-15.13671875,0.9765625,-40.0390625,-24.4140625,0.0
1676923924.284505,-22.4609375,-18.5546875,-52.24609375,-25.390625,0.0
1676923924.2882838,-24.4140625,-20.5078125,-43.9453125,-26.3671875,0.0
1676923924.2920625,-17.578125,-20.99609375,-28.3203125,-17.578125,0.0
1676923924.2958412,-15.625,-28.80859375,-27.34375,-17.578125,0.0
1676923924.29962,-13.18359375,-43.45703125,-40.0390625,-15.13671875,0.0
1676923924.3033986,-14.16015625,-30.76171875,-26.3671875,2.9296875,0.0
1676923924.3071775,-19.04296875,3.41796875,16.11328125,14.6484375,0.0
1676923924.3109562,-13.671875,-16.6015625,4.8828125,6.34765625,0.0
1676923924.314735,-13.671875,-36.1328125,-18.06640625,-11.71875,0.0
1676923924.3185136,-25.87890625,-23.92578125,-8.7890625,-17.578125,0.0
1676923924.3235247,-20.5078125,-11.23046875,0.0,-13.18359375,0.0
1676923924.328536,-19.04296875,-19.53125,-12.6953125,-19.04296875,0.0
1676923924.333547,-25.87890625,-26.85546875,-26.85546875,-14.16015625,0.0
1676923924.3385584,-20.01953125,-9.765625,-5.859375,-5.37109375,0.0
1676923924.3435695,-30.76171875,-5.859375,8.30078125,-14.6484375,0.0
1676923924.3485808,-31.73828125,-21.484375,-12.6953125,-14.16015625,0.0
1676923924.353592,-25.87890625,-38.0859375,-32.71484375,-5.37109375,0.0
1676923924.358603,-37.109375,-15.625,-18.06640625,-20.5078125,0.0
1676923924.3636143,-56.640625,-1.953125,-17.578125,-32.2265625,0.0
1676923924.3686254,-56.15234375,-33.69140625,-44.43359375,-23.4375,0.0
1676923924.3736367,-46.875,-44.921875,-41.015625,-27.34375,0.0
1676923924.3786478,-48.828125,-27.83203125,-20.99609375,-28.80859375,0.0
1676923924.382428,-53.7109375,-23.4375,-26.3671875,-29.78515625,0.0
1676923924.386208,-43.45703125,-40.0390625,-45.8984375,-32.71484375,0.0
1676923924.3899882,-33.69140625,-36.62109375,-43.9453125,-27.83203125,0.0
1676923924.3937683,-39.0625,-17.578125,-35.15625,-33.69140625,0.0
1676923924.3975484,-49.8046875,-29.296875,-44.43359375,-39.0625,0.0
1676923924.4013286,-45.41015625,-60.05859375,-57.12890625,-31.73828125,0.0
1676923924.405109,-31.73828125,-40.0390625,-37.59765625,-30.76171875,0.0
1676923924.408889,-29.296875,0.0,-10.7421875,-31.73828125,0.0
1676923924.4126692,-33.203125,-15.13671875,-19.04296875,-31.73828125,0.0
1676923924.4164493,-43.9453125,-54.19921875,-49.31640625,-24.4140625,0.0
1676923924.4202294,-45.8984375,-54.19921875,-48.828125,-15.625,0.0
1676923924.4240096,-27.83203125,-13.671875,-10.25390625,-10.25390625,0.0
1676923924.4277854,-30.2734375,-24.90234375,-20.99609375,-3.90625,0.0
1676923924.4315612,-31.25,-35.64453125,-33.69140625,-20.5078125,0.0
1676923924.435337,-23.92578125,-23.92578125,-29.296875,-14.16015625,0.0
1676923924.4391127,-23.92578125,-23.4375,-31.73828125,0.9765625,0.0
1676923924.4428885,-23.4375,-32.71484375,-39.0625,-13.671875,0.0
1676923924.4466643,-24.90234375,-39.0625,-28.3203125,-19.04296875,0.0
1676923924.4504402,-28.80859375,-28.80859375,-11.23046875,-13.671875,0.0
1676923924.454216,-28.3203125,-13.671875,-12.20703125,-10.7421875,0.0
1676923924.4579916,-26.3671875,-24.4140625,-29.78515625,-9.27734375,0.0
1676923924.4617674,-32.71484375,-49.31640625,-53.22265625,-7.32421875,0.0
1676923924.4655433,-35.64453125,-24.4140625,-33.203125,-16.6015625,0.0
1676923924.469319,-34.66796875,-13.671875,-26.85546875,-21.484375,0.0
1676923924.4730186,-51.7578125,-44.921875,-56.640625,-15.625,0.0
1676923924.476718,-59.5703125,-39.55078125,-53.22265625,-24.4140625,0.0
1676923924.4804175,-50.78125,-27.34375,-36.62109375,-21.97265625,0.0
1676923924.484117,-46.875,-33.69140625,-37.109375,-16.6015625,0.0
1676923924.4878166,-43.9453125,-42.48046875,-47.36328125,-24.90234375,0.0
1676923924.491516,-42.96875,-48.33984375,-48.33984375,-18.5546875,0.0
1676923924.4952154,-48.33984375,-30.2734375,-20.5078125,-17.08984375,0.0
1676923924.498915,-41.015625,-17.578125,-12.20703125,-17.578125,0.0
1676923924.5026145,-32.71484375,-43.45703125,-36.62109375,-19.53125,0.0
1676923924.5063138,-44.43359375,-58.10546875,-31.73828125,-18.06640625,0.0
1676923924.5100133,-54.19921875,-17.578125,7.32421875,-23.92578125,0.0
1676923924.513713,-54.19921875,-20.5078125,-6.34765625,-29.78515625,0.0
1676923924.5174565,-44.921875,-22.4609375,-4.8828125,-12.20703125,0.0
1676923924.5212,-35.15625,-8.7890625,11.71875,-15.13671875,0.0
1676923924.5249436,-32.2265625,-11.71875,3.41796875,-24.90234375,0.0
1676923924.5286872,-43.9453125,-25.390625,-5.37109375,-28.3203125,0.0
1676923924.5324306,-55.17578125,-39.0625,-9.765625,-31.73828125,0.0
1676923924.5361743,-50.29296875,-37.59765625,-4.8828125,-31.25,0.0
1676923924.539918,-52.24609375,-27.34375,-0.9765625,-30.76171875,0.0
1676923924.5436614,-49.31640625,-26.85546875,-3.90625,-32.71484375,0.0
1676923924.547405,-38.0859375,-27.83203125,2.9296875,-30.76171875,0.0
1676923924.5511487,-40.52734375,-21.97265625,5.859375,-33.203125,0.0
1676923924.554892,-54.6875,-40.0390625,-14.6484375,-29.296875,0.0
1676923924.5586357,-67.87109375,-51.7578125,-22.4609375,-27.34375,0.0
1676923924.562386,-44.921875,-54.19921875,-21.484375,-35.15625,0.0
1676923924.5661361,-35.64453125,-20.01953125,4.8828125,-30.2734375,0.0
1676923924.5698864,-34.66796875,-6.34765625,4.39453125,-21.484375,0.0
1676923924.5736365,-20.5078125,-23.4375,-19.04296875,-17.578125,0.0
1676923924.5773869,-27.34375,-18.5546875,-13.671875,-16.11328125,0.0
1676923924.5811372,-23.4375,-23.4375,-5.859375,-15.13671875,0.0
1676923924.5848873,-17.08984375,-15.13671875,-0.48828125,-29.78515625,0.0
1676923924.5886376,-26.3671875,-34.1796875,-18.06640625,-19.53125,0.0
1676923924.5923877,-33.203125,-36.1328125,-8.7890625,-5.37109375,0.0
1676923924.596138,-35.15625,4.8828125,24.90234375,-17.578125,0.0
1676923924.599888,-26.85546875,-3.90625,11.23046875,-12.20703125,0.0
1676923924.6036384,-23.92578125,-16.6015625,5.859375,0.0,0.0
1676923924.6074896,-28.3203125,-21.97265625,5.859375,2.44140625,0.0
1676923924.6113405,-29.296875,-19.04296875,0.0,-13.18359375,0.0
1676923924.6151915,-23.4375,-15.625,-2.44140625,-20.01953125,0.0
1676923924.6190426,-18.06640625,-21.97265625,-6.34765625,-16.11328125,0.0
1676923924.6228938,-25.390625,-13.671875,4.39453125,0.0,0.0
1676923924.6267447,-25.87890625,-21.97265625,-7.8125,-6.34765625,0.0
1676923924.6305957,-24.4140625,-31.25,-12.20703125,-27.83203125,0.0
1676923924.6344469,-26.85546875,-40.0390625,-19.04296875,-19.04296875,0.0
1676923924.638298,-27.34375,-16.6015625,-9.765625,-20.5078125,0.0
1676923924.642149,-35.64453125,-9.27734375,-4.8828125,-36.1328125,0.0
1676923924.646,-45.41015625,-33.69140625,-22.4609375,-23.92578125,0.0
1676923924.649851,-41.50390625,-25.87890625,-10.7421875,-21.97265625,0.0
1676923924.6534944,-34.1796875,-13.671875,4.39453125,-27.34375,0.0
1676923924.6571379,-41.9921875,-16.11328125,4.39453125,-20.5078125,0.0
1676923924.6607811,-46.38671875,-41.50390625,-20.5078125,-22.94921875,0.0
1676923924.6644244,-43.9453125,-43.9453125,-25.390625,-20.01953125,0.0
1676923924.6680677,-51.7578125,-19.53125,-10.7421875,-26.3671875,0.0
1676923924.671711,-41.50390625,-20.01953125,-25.390625,-31.73828125,0.0
1676923924.6753545,-24.90234375,-34.1796875,-39.55078125,-26.3671875,0.0
1676923924.6789978,-29.296875,-41.9921875,-30.76171875,-13.18359375,0.0
1676923924.682641,-34.66796875,-13.18359375,0.9765625,-19.04296875,0.0
1676923924.6862845,-34.1796875,-7.32421875,-7.32421875,-23.92578125,0.0
1676923924.6899278,-28.3203125,-25.390625,-25.390625,-20.01953125,0.0
1676923924.693571,-28.3203125,-24.4140625,-19.04296875,-26.85546875,0.0
1676923924.697288,-33.69140625,-20.5078125,-23.4375,-20.5078125,0.0
1676923924.701005,-35.15625,-28.3203125,-42.48046875,-12.20703125,0.0
1676923924.7047222,-40.0390625,-31.73828125,-40.0390625,-14.6484375,0.0
1676923924.708439,-37.109375,-20.5078125,-23.4375,-21.97265625,0.0
1676923924.712156,-36.62109375,-19.04296875,-13.18359375,-17.08984375,0.0
1676923924.7158732,-41.50390625,-34.66796875,-15.13671875,-10.25390625,0.0
1676923924.7195902,-35.64453125,-44.921875,-22.4609375,-12.20703125,0.0
1676923924.7233071,-26.85546875,-21.97265625,-4.8828125,-17.578125,0.0
1676923924.727024,-14.6484375,-3.90625,9.765625,-26.85546875,0.0
1676923924.730741,-16.6015625,-21.484375,-6.8359375,-15.13671875,0.0
1676923924.7344582,-34.1796875,-36.1328125,-20.5078125,-10.25390625,0.0
1676923924.7381752,-33.69140625,-26.85546875,-19.04296875,-20.5078125,0.0
1676923924.7419322,-28.80859375,-19.53125,-18.5546875,-19.53125,0.0
1676923924.7456894,-44.43359375,-36.1328125,-23.4375,-10.25390625,0.0
1676923924.7494464,-42.96875,-38.0859375,-25.390625,-22.94921875,0.0
1676923924.7532034,-26.3671875,-25.87890625,-22.94921875,-40.0390625,0.0
1676923924.7569606,-30.76171875,-25.390625,-21.484375,-32.71484375,0.0
1676923924.7607176,-46.38671875,-42.48046875,-32.2265625,-23.4375,0.0
1676923924.7644746,-46.875,-32.71484375,-17.08984375,-25.390625,0.0
1676923924.7682319,-44.921875,-6.8359375,-2.9296875,-36.1328125,0.0
1676923924.7719889,-42.48046875,-13.18359375,-16.11328125,-31.73828125,0.0
1676923924.7757459,-25.87890625,-37.59765625,-36.62109375,-14.16015625,0.0
1676923924.779503,-23.4375,-27.83203125,-32.71484375,-0.9765625,0.0
1676923924.78326,-25.390625,9.27734375,-5.37109375,3.90625,0.0
1676923924.789504,-13.671875,-2.9296875,-13.18359375,-2.44140625,0.0
1676923924.7957482,-10.25390625,-15.625,-17.08984375,0.0,0.0
1676923924.8019922,-8.7890625,-7.32421875,-0.9765625,2.44140625,0.0
1676923924.8082361,-22.94921875,-4.8828125,0.0,-7.8125,0.0
1676923924.8144803,-35.15625,-17.578125,-20.01953125,-17.578125,0.0
1676923924.8207242,-33.69140625,-27.83203125,-29.296875,-20.99609375,0.0
1676923924.8269682,-47.8515625,-14.6484375,-18.5546875,-16.6015625,0.0
1676923924.8332124,-63.4765625,-1.46484375,-8.30078125,-19.04296875,0.0
1676923924.8394563,-58.10546875,-5.859375,-16.11328125,-26.3671875,0.0
1676923924.8457003,-44.921875,-10.25390625,-18.06640625,-24.4140625,0.0
1676923924.8519444,-40.52734375,7.8125,-7.32421875,-24.90234375,0.0
1676923924.8581884,-40.0390625,12.6953125,-15.625,-26.3671875,0.0
1676923924.8606853,-48.828125,-10.7421875,-31.25,-16.11328125,0.0
1676923924.8631823,-40.52734375,-9.765625,-30.2734375,-11.23046875,0.0
1676923924.8656793,-30.2734375,9.765625,-18.5546875,-7.8125,0.0
1676923924.8681762,-42.48046875,-6.8359375,-27.83203125,-14.16015625,0.0
1676923924.8706732,-40.52734375,-30.2734375,-43.45703125,-21.97265625,0.0
1676923924.87317,-34.66796875,-29.296875,-48.33984375,-22.4609375,0.0
1676923924.8756669,-32.71484375,-10.25390625,-31.25,-20.5078125,0.0
1676923924.8781638,-28.3203125,-2.9296875,-19.53125,-15.625,0.0
1676923924.8806608,-41.015625,-22.4609375,-34.1796875,-15.625,0.0
1676923924.8831577,-43.45703125,-17.08984375,-30.76171875,-14.16015625,0.0
1676923924.8856547,-45.8984375,2.9296875,-13.18359375,-14.16015625,0.0
1676923924.8881516,-41.015625,-0.9765625,-9.765625,-16.6015625,1.0
1676923924.891937,-39.55078125,-40.52734375,-35.64453125,-4.8828125,0.0
1676923924.8957224,-43.45703125,-35.15625,-28.80859375,-10.25390625,0.0
1676923924.8995078,-38.0859375,-5.859375,-8.30078125,-28.3203125,0.0
1676923924.9032931,-32.2265625,-30.2734375,-29.78515625,-22.4609375,0.0
1676923924.9070785,-30.2734375,-35.15625,-41.015625,-26.85546875,0.0
1676923924.9108639,-29.296875,-23.92578125,-37.59765625,-36.1328125,0.0
1676923924.9146492,-31.73828125,-9.27734375,-17.578125,-33.69140625,0.0
1676923924.9184346,-41.50390625,-13.671875,-14.6484375,-21.97265625,0.0
1676923924.92222,-37.109375,-40.0390625,-37.109375,-12.6953125,0.0
1676923924.9260054,-28.80859375,-15.13671875,-22.4609375,-14.16015625,0.0
1676923924.9297907,-26.3671875,-2.44140625,-7.8125,-20.99609375,0.0
1676923924.933576,-32.71484375,-24.90234375,-27.83203125,-28.3203125,0.0
1676923924.9385772,-42.96875,-22.94921875,-32.2265625,-33.203125,0.0
1676923924.9435782,-45.41015625,-15.625,-24.90234375,-27.34375,0.0
1676923924.9485795,-36.62109375,-16.11328125,-27.34375,-20.99609375,0.0
1676923924.9535806,-36.1328125,-26.85546875,-39.0625,-21.97265625,0.0
1676923924.9585817,-33.69140625,-31.25,-41.015625,-19.04296875,0.0
1676923924.963583,-43.9453125,-33.69140625,-41.50390625,-31.25,0.0
1676923924.968584,-50.29296875,-37.109375,-41.50390625,-27.83203125,0.0
1676923924.9735851,-37.59765625,-29.296875,-35.15625,-10.7421875,0.0
1676923924.9785862,-41.015625,-19.04296875,-24.90234375,-1.953125,0.0
1676923924.9835873,-42.96875,-12.20703125,-19.04296875,-1.46484375,0.0
1676923924.9885886,-32.71484375,-8.30078125,-19.04296875,-14.16015625,0.0
1676923924.9935896,-30.2734375,-33.69140625,-39.0625,-10.7421875,0.0
1676923924.9961243,-28.80859375,-36.62109375,-29.296875,0.0,0.0
1676923924.9986591,-24.4140625,-0.9765625,-0.48828125,-6.8359375,0.0
1676923925.0011938,-24.4140625,-18.06640625,-21.484375,-9.27734375,0.0
1676923925.0037284,-32.2265625,-37.109375,-34.66796875,-1.953125,0.0
1676923925.0062633,-41.50390625,-40.0390625,-31.73828125,-20.99609375,0.0
1676923925.008798,-48.33984375,-49.8046875,-39.55078125,-25.87890625,0.0
1676923925.0113325,-44.43359375,-44.43359375,-41.9921875,-2.9296875,0.0
1676923925.0138674,-43.9453125,-32.2265625,-33.69140625,-17.578125,0.0
1676923925.016402,-40.52734375,-29.78515625,-31.25,-32.2265625,0.0
1676923925.0189366,-34.66796875,-30.76171875,-43.9453125,-19.53125,0.0
1676923925.0214715,-43.9453125,-30.2734375,-50.78125,-5.37109375,0.0
1676923925.0240061,-41.015625,-42.96875,-61.5234375,-2.9296875,0.0
1676923925.0276859,-38.0859375,-14.16015625,-32.2265625,-7.8125,0.0
1676923925.0313656,-38.57421875,3.41796875,-21.484375,-11.23046875,0.0
1676923925.0350456,-32.71484375,-24.4140625,-50.29296875,-12.20703125,0.0
1676923925.0387254,-29.78515625,-27.34375,-42.48046875,-15.13671875,0.0
1676923925.0424051,-27.83203125,-29.78515625,-39.55078125,-11.71875,0.0
1676923925.046085,-20.99609375,-29.296875,-45.41015625,-4.39453125,0.0
1676923925.0497646,-19.04296875,-41.015625,-56.640625,5.37109375,0.0
1676923925.0534444,-30.76171875,-41.015625,-45.41015625,-0.9765625,0.0
1676923925.0571241,-43.9453125,-1.953125,-10.25390625,-23.92578125,0.0
1676923925.0608041,-36.1328125,-17.08984375,-25.390625,-24.4140625,0.0
1676923925.064484,-30.2734375,-32.71484375,-41.015625,-12.6953125,0.0
1676923925.0681636,-41.015625,-20.5078125,-41.50390625,-0.9765625,0.0
1676923925.072024,-37.59765625,-20.99609375,-51.7578125,-4.8828125,0.0
1676923925.0758843,-35.64453125,-24.90234375,-56.640625,-6.8359375,0.0
1676923925.0797448,-38.0859375,-33.203125,-63.96484375,-8.30078125,0.0
1676923925.0836053,-37.109375,-23.92578125,-51.26953125,-25.87890625,0.0
1676923925.0874655,-38.0859375,-19.04296875,-40.0390625,-26.85546875,0.0
1676923925.091326,-24.90234375,-24.90234375,-47.36328125,-18.5546875,0.0
1676923925.0951865,-28.80859375,-34.1796875,-48.33984375,-1.953125,0.0
1676923925.0990467,-39.55078125,-24.4140625,-19.04296875,9.765625,0.0
1676923925.1029072,-33.203125,-10.25390625,-5.859375,-7.32421875,0.0
1676923925.1067677,-33.69140625,-36.1328125,-27.34375,-15.625,0.0
1676923925.110628,-37.59765625,-37.109375,-31.25,-12.6953125,0.0
1676923925.1144884,-37.59765625,-15.13671875,-21.97265625,-14.16015625,0.0
1676923925.1181521,-35.64453125,-13.671875,-20.99609375,-17.08984375,0.0
1676923925.121816,-41.50390625,-25.87890625,-26.85546875,-23.92578125,0.0
1676923925.1254797,-41.9921875,-24.4140625,-28.3203125,-29.78515625,0.0
1676923925.1291435,-32.71484375,-18.06640625,-29.78515625,-32.2265625,0.0
1676923925.1328073,-36.1328125,-16.6015625,-33.69140625,-28.3203125,0.0
1676923925.1364713,-39.55078125,-36.62109375,-54.6875,-25.87890625,0.0
1676923925.140135,-38.0859375,-43.45703125,-53.7109375,-26.85546875,0.0
1676923925.1437988,-41.9921875,0.9765625,-15.13671875,-34.66796875,0.0
1676923925.1474626,-37.109375,0.9765625,-20.5078125,-33.203125,0.0
1676923925.1511264,-25.390625,-10.25390625,-29.296875,-20.01953125,0.0
1676923925.1547902,-35.64453125,-2.9296875,-18.5546875,-18.06640625,0.0
1676923925.158454,-31.73828125,-9.765625,-16.6015625,-23.92578125,0.0
1676923925.163447,-24.4140625,-23.92578125,-27.83203125,-18.5546875,0.0
1676923925.16844,-27.34375,-25.87890625,-34.1796875,-20.01953125,0.0
1676923925.173433,-27.34375,-8.30078125,-26.3671875,-33.69140625,0.0
1676923925.178426,-27.83203125,-6.34765625,-27.34375,-28.80859375,0.0
1676923925.1834192,-31.25,-25.390625,-41.015625,-19.53125,0.0
1676923925.1884122,-40.0390625,-33.69140625,-43.9453125,-25.390625,0.0
1676923925.1934052,-41.50390625,-28.80859375,-39.55078125,-25.87890625,0.0
1676923925.1983984,-51.7578125,-24.4140625,-31.73828125,-34.1796875,0.0
1676923925.2033913,-52.734375,-26.85546875,-25.87890625,-36.62109375,0.0
1676923925.2083843,-41.9921875,-62.01171875,-56.15234375,-32.71484375,0.0
1676923925.2133775,-41.9921875,-41.50390625,-47.36328125,-27.34375,0.0
1676923925.2183704,-41.9921875,-9.27734375,-31.73828125,-25.390625,0.0
1676923925.2211866,-37.59765625,-28.3203125,-45.8984375,-33.203125,0.0
1676923925.2240028,-41.50390625,-35.15625,-45.8984375,-39.0625,0.0
1676923925.226819,-50.29296875,-24.4140625,-33.69140625,-30.2734375,0.0
1676923925.2296352,-34.1796875,-23.4375,-30.2734375,-15.13671875,0.0
1676923925.2324514,-23.92578125,-42.48046875,-49.31640625,-22.94921875,0.0
1676923925.2352676,-20.01953125,-54.19921875,-61.5234375,-26.85546875,0.0
1676923925.238084,-29.78515625,-27.83203125,-35.64453125,-13.671875,0.0
1676923925.2409003,-37.59765625,-11.23046875,-22.4609375,-21.484375,0.0
1676923925.2437165,-27.83203125,-47.36328125,-57.12890625,-27.34375,0.0
1676923925.2465327,-32.2265625,-46.875,-50.78125,-15.13671875,0.0
1676923925.2493489,-55.17578125,-13.671875,-21.484375,-31.25,0.0
1676923925.252165,-63.4765625,-25.87890625,-39.0625,-38.57421875,0.0
1676923925.2568617,-64.453125,-42.96875,-53.22265625,-32.2265625,0.0
1676923925.2615583,-57.6171875,-36.1328125,-42.96875,-27.34375,0.0
1676923925.266255,-41.50390625,-25.390625,-43.45703125,-25.87890625,0.0
1676923925.2709515,-30.2734375,-23.92578125,-58.59375,-19.53125,0.0
1676923925.275648,-29.296875,-49.8046875,-82.51953125,-10.25390625,0.0
1676923925.2803445,-31.25,-40.0390625,-71.77734375,-1.46484375,0.0
1676923925.285041,-33.203125,7.8125,-29.296875,-10.7421875,0.0
1676923925.2897377,-31.73828125,-0.9765625,-24.90234375,-16.11328125,0.0
1676923925.2944343,-31.25,-24.90234375,-39.0625,-5.37109375,0.0
1676923925.299131,-37.59765625,-15.13671875,-41.015625,-19.53125,0.0
1676923925.3038275,-33.203125,-2.9296875,-45.41015625,-24.4140625,0.0
1676923925.3085241,-22.4609375,-17.08984375,-60.546875,-14.16015625,0.0
1676923925.313534,-29.78515625,-20.5078125,-65.91796875,-18.06640625,0.0
1676923925.318544,-29.78515625,9.765625,-51.7578125,-25.87890625,0.0
1676923925.3235536,-26.85546875,14.6484375,-49.8046875,-20.99609375,0.0
1676923925.3285635,-23.4375,-5.37109375,-61.03515625,-0.9765625,0.0
1676923925.3335733,-14.16015625,-9.765625,-54.6875,3.41796875,0.0
1676923925.3385832,-15.625,-2.9296875,-42.96875,-14.16015625,0.0
1676923925.3435931,-32.2265625,-11.23046875,-49.8046875,-16.11328125,0.0
1676923925.348603,-30.2734375,-27.34375,-62.5,-10.25390625,0.0
1676923925.353613,-21.484375,-24.90234375,-56.15234375,-6.34765625,0.0
1676923925.3586226,-28.80859375,-4.8828125,-27.34375,-10.25390625,0.0
1676923925.3636324,-29.296875,-31.73828125,-41.50390625,-24.90234375,0.0
1676923925.3686423,-23.4375,-58.59375,-48.828125,-17.578125,0.0
1676923925.3711982,-26.3671875,-56.15234375,-34.66796875,-3.41796875,0.0
1676923925.3737543,-41.9921875,-65.4296875,-36.62109375,-27.83203125,0.0
1676923925.37631,-35.15625,-78.61328125,-39.55078125,-29.296875,0.0
1676923925.3788662,-22.94921875,-76.171875,-32.2265625,-13.18359375,0.0
1676923925.381422,-34.66796875,-75.1953125,-35.15625,-22.4609375,0.0
1676923925.383978,-34.66796875,-89.84375,-46.875,-29.78515625,0.0
1676923925.386534,-21.97265625,-91.796875,-38.57421875,-34.66796875,0.0
1676923925.3890898,-26.3671875,-79.1015625,-27.83203125,-32.2265625,0.0
1676923925.391646,-44.921875,-67.87109375,-23.4375,-25.390625,0.0
1676923925.3942018,-48.828125,-63.96484375,-21.97265625,-32.71484375,0.0
1676923925.3967578,-41.50390625,-75.1953125,-31.73828125,-29.296875,0.0
1676923925.3993137,-50.29296875,-88.8671875,-38.57421875,-21.97265625,0.0
1676923925.403008,-49.31640625,-54.6875,-18.06640625,-28.3203125,0.0
1676923925.4067023,-31.73828125,-28.80859375,-15.625,-22.94921875,0.0
1676923925.4103966,-25.390625,-46.875,-42.96875,-11.23046875,0.0
1676923925.414091,-27.34375,-47.8515625,-45.41015625,-18.06640625,0.0
1676923925.4177854,-34.1796875,-30.2734375,-28.80859375,-28.80859375,0.0
1676923925.4214797,-38.57421875,-41.50390625,-37.109375,-19.04296875,0.0
1676923925.425174,-38.0859375,-59.08203125,-43.9453125,-13.18359375,0.0
1676923925.4288683,-37.109375,-63.96484375,-42.96875,-17.08984375,0.0
1676923925.4325628,-36.62109375,-22.94921875,-11.23046875,-25.390625,0.0
1676923925.4362571,-42.96875,-20.5078125,-13.18359375,-30.76171875,0.0
1676923925.4399514,-41.9921875,-43.45703125,-31.25,-22.94921875,0.0
1676923925.4436457,-31.25,-35.64453125,-20.01953125,-15.625,0.0
1676923925.447409,-26.85546875,-30.76171875,-18.06640625,-15.625,0.0
1676923925.4511719,-37.59765625,-42.96875,-35.64453125,-15.625,0.0
1676923925.454935,-43.9453125,-53.7109375,-46.875,-19.04296875,0.0
1676923925.4586983,-43.45703125,-37.59765625,-30.76171875,-28.3203125,0.0
1676923925.4624612,-45.41015625,-42.48046875,-24.90234375,-32.2265625,0.0
1676923925.4662244,-42.96875,-60.05859375,-36.62109375,-26.85546875,0.0
1676923925.4699876,-42.48046875,-65.4296875,-46.38671875,-22.94921875,0.0
1676923925.4737506,-43.45703125,-35.64453125,-20.99609375,-12.20703125,0.0
1676923925.4775138,-45.41015625,-28.3203125,-18.06640625,-14.6484375,0.0
1676923925.481277,-53.22265625,-47.8515625,-34.1796875,-27.83203125,0.0
1676923925.48504,-41.015625,-40.0390625,-26.85546875,-16.6015625,0.0
1676923925.4888031,-43.45703125,-27.83203125,-17.578125,-12.6953125,0.0
1676923925.4937632,-50.29296875,-26.85546875,-20.01953125,-16.6015625,0.0
1676923925.498723,-31.25,-31.25,-27.34375,-12.20703125,0.0
1676923925.503683,-26.85546875,-24.90234375,-22.4609375,-4.39453125,0.0
1676923925.508643,-36.62109375,-16.11328125,-20.99609375,-3.90625,0.0
1676923925.513603,-41.50390625,-22.4609375,-34.66796875,-25.390625,0.0
1676923925.5185628,-33.69140625,-51.26953125,-51.26953125,-20.99609375,0.0
1676923925.5235229,-30.76171875,-44.921875,-33.69140625,-11.23046875,0.0
1676923925.528483,-43.9453125,-14.16015625,-0.9765625,-16.6015625,0.0
1676923925.5334427,-42.96875,-23.92578125,-7.8125,-14.6484375,0.0
1676923925.5384028,-42.96875,-37.59765625,-19.04296875,-21.484375,0.0
1676923925.5433626,-60.546875,-28.3203125,-16.11328125,-21.484375,0.0
1676923925.5483227,-84.9609375,-28.3203125,-20.5078125,-20.5078125,0.0
1676923925.5509748,-89.35546875,-39.0625,-35.64453125,-28.80859375,0.0
1676923925.5536273,-63.96484375,-41.50390625,-40.52734375,-35.15625,0.0
1676923925.5562794,-57.6171875,-25.390625,-28.80859375,-34.66796875,0.0
1676923925.5589318,-64.94140625,-14.16015625,-21.97265625,-30.76171875,0.0
1676923925.561584,-57.6171875,-27.83203125,-37.109375,-23.92578125,0.0
1676923925.5642362,-46.875,-31.25,-47.36328125,-20.99609375,0.0
1676923925.5668886,-49.31640625,-23.92578125,-34.66796875,-27.34375,0.0
1676923925.5695407,-64.453125,-20.99609375,-22.94921875,-30.2734375,0.0
1676923925.5721931,-69.3359375,-30.76171875,-32.71484375,-22.4609375,0.0
1676923925.5748453,-63.4765625,-39.0625,-40.52734375,-20.5078125,0.0
1676923925.5774977,-65.4296875,-14.16015625,-17.578125,-31.73828125,0.0
1676923925.58015,-63.96484375,-6.8359375,-16.6015625,-37.59765625,0.0
1676923925.5849948,-62.98828125,-24.4140625,-40.0390625,-45.8984375,0.0
1676923925.5898395,-52.24609375,-20.5078125,-40.0390625,-38.0859375,0.0
1676923925.5946844,-39.0625,-10.7421875,-26.3671875,-27.34375,0.0
1676923925.599529,-48.33984375,-12.6953125,-29.296875,-41.9921875,0.0
1676923925.604374,-64.453125,-35.64453125,-49.31640625,-39.55078125,0.0
1676923925.6092186,-51.7578125,-46.38671875,-57.12890625,-25.87890625,0.0
1676923925.6140635,-41.50390625,-2.9296875,-25.390625,-39.0625,0.0
1676923925.6189084,-43.9453125,7.8125,-19.53125,-45.41015625,0.0
1676923925.623753,-37.59765625,-19.53125,-38.0859375,-35.15625,0.0
1676923925.628598,-27.34375,-17.08984375,-26.85546875,-26.3671875,0.0
1676923925.6334426,-23.4375,-0.48828125,0.48828125,-18.5546875,0.0
1676923925.6382875,-23.4375,-17.08984375,-8.7890625,-16.11328125,0.0
1676923925.6420305,-23.4375,-24.90234375,-16.11328125,-18.06640625,0.0
1676923925.6457736,-30.76171875,-20.99609375,-9.765625,-11.71875,0.0
1676923925.6495166,-25.87890625,-19.53125,-5.859375,-12.6953125,0.0
1676923925.6532598,-14.6484375,-28.80859375,-20.99609375,-18.06640625,0.0
1676923925.6570027,-18.5546875,-31.25,-32.2265625,-14.16015625,0.0
1676923925.6607456,-28.3203125,-23.4375,-33.203125,-17.578125,0.0
1676923925.6644888,-30.2734375,-32.2265625,-35.15625,-29.296875,0.0
1676923925.6682317,-27.83203125,-27.83203125,-26.3671875,-28.3203125,0.0
1676923925.671975,-22.4609375,-33.69140625,-39.55078125,-14.16015625,0.0
1676923925.6757178,-28.80859375,-25.390625,-32.71484375,-24.4140625,0.0
1676923925.679461,-32.71484375,1.46484375,-14.6484375,-34.66796875,0.0
1676923925.683204,-37.59765625,-15.13671875,-27.34375,-29.78515625,2.0
1676923925.6869762,-38.57421875,-19.53125,-23.4375,-23.4375,0.0
1676923925.6907482,-28.80859375,-4.8828125,-8.7890625,-21.484375,0.0
1676923925.6945205,-23.4375,-8.30078125,-13.671875,-29.78515625,0.0
1676923925.6982927,-26.85546875,-17.08984375,-27.34375,-23.92578125,0.0
1676923925.7020648,-25.87890625,-18.06640625,-29.78515625,-20.5078125,0.0
1676923925.705837,-22.94921875,-20.5078125,-32.71484375,-23.4375,0.0
1676923925.7096093,-36.62109375,-11.23046875,-25.87890625,-20.01953125,0.0
1676923925.7133813,-37.109375,-22.4609375,-33.69140625,-7.32421875,0.0
1676923925.7171535,-21.484375,-31.73828125,-38.57421875,-5.37109375,0.0
1676923925.7209258,-23.4375,2.9296875,-16.11328125,-23.92578125,0.0
1676923925.7246978,-30.76171875,-2.44140625,-28.3203125,-25.390625,0.0
1676923925.72847,-24.90234375,-37.59765625,-51.26953125,-17.578125,0.0
1676923925.7322347,-33.69140625,-31.73828125,-39.0625,-2.9296875,0.0
1676923925.735999,-28.3203125,-3.41796875,-14.6484375,-9.27734375,0.0
1676923925.7397637,-26.3671875,-7.8125,-15.13671875,-13.671875,0.0
1676923925.7435284,-34.1796875,-15.13671875,-15.625,-18.5546875,0.0
1676923925.747293,-27.83203125,-8.30078125,-19.04296875,-26.3671875,0.0
1676923925.7510576,-27.34375,-21.484375,-39.55078125,-28.80859375,0.0
1676923925.754822,-31.25,-24.90234375,-32.71484375,-21.97265625,0.0
1676923925.7585866,-33.203125,-30.2734375,-22.94921875,-10.7421875,0.0
1676923925.7623513,-25.87890625,-13.671875,-6.8359375,-25.390625,0.0
1676923925.7661157,-28.3203125,1.46484375,2.9296875,-31.25,0.0
1676923925.7698803,-24.90234375,-20.5078125,-19.53125,-29.78515625,0.0
1676923925.773645,-20.5078125,-26.3671875,-33.69140625,-29.296875,0.0
1676923925.7774088,-22.94921875,-6.34765625,-30.2734375,-24.90234375,0.0
1676923925.781173,-20.5078125,0.48828125,-24.4140625,-22.94921875,0.0
1676923925.784937,-25.390625,-20.5078125,-37.109375,-18.06640625,0.0
1676923925.7887008,-32.71484375,-22.4609375,-41.015625,-10.7421875,0.0
1676923925.792465,-29.78515625,-0.48828125,-18.5546875,-22.94921875,0.0
1676923925.796229,-30.76171875,-20.5078125,-26.3671875,-27.83203125,0.0
1676923925.7999928,-31.73828125,-34.1796875,-28.80859375,-18.5546875,0.0
1676923925.803757,-28.80859375,-12.6953125,-9.27734375,-14.16015625,0.0
1676923925.8075209,-24.4140625,2.44140625,1.46484375,-13.18359375,0.0
1676923925.8112848,-15.13671875,2.9296875,-7.32421875,-13.671875,0.0
1676923925.815049,-19.53125,-28.80859375,-43.45703125,-11.71875,0.0
1676923925.8188128,-31.25,-37.59765625,-47.36328125,-24.4140625,0.0
1676923925.8225102,-45.8984375,-15.13671875,-27.34375,-31.25,0.0
1676923925.8262076,-46.875,-29.296875,-32.71484375,-22.4609375,0.0
1676923925.8299053,-35.15625,-37.109375,-39.55078125,-20.5078125,0.0
1676923925.8336027,-36.1328125,-27.34375,-34.1796875,-31.25,0.0
1676923925.8373,-31.73828125,-25.87890625,-28.80859375,-30.76171875,0.0
1676923925.8409977,-29.296875,-30.2734375,-37.109375,-21.97265625,0.0
1676923925.844695,-25.390625,-44.921875,-55.17578125,-16.6015625,0.0
1676923925.8483925,-26.3671875,-32.2265625,-39.55078125,-5.859375,0.0
1676923925.85209,-35.64453125,-10.7421875,-26.3671875,-13.671875,0.0
1676923925.8557873,-34.66796875,-24.4140625,-40.52734375,-15.625,0.0
1676923925.859485,-28.3203125,-19.53125,-32.2265625,-6.8359375,0.0
1676923925.8631823,-30.76171875,-13.18359375,-27.34375,-14.16015625,0.0
1676923925.8671544,-30.2734375,-17.08984375,-33.69140625,-9.27734375,0.0
1676923925.8711262,-17.08984375,-28.80859375,-47.8515625,-9.27734375,0.0
1676923925.8750982,-20.5078125,-35.64453125,-54.19921875,-10.25390625,0.0
1676923925.8790703,-23.4375,-19.04296875,-34.66796875,5.37109375,0.0
1676923925.883042,-21.97265625,-20.5078125,-27.83203125,-4.8828125,0.0
1676923925.8870142,-31.25,-49.8046875,-48.33984375,-16.11328125,0.0
1676923925.8909862,-26.3671875,-46.875,-45.8984375,-0.9765625,0.0
1676923925.894958,-29.78515625,-8.7890625,-25.87890625,-5.37109375,0.0
1676923925.89893,-35.64453125,-8.30078125,-33.69140625,-32.71484375,0.0
1676923925.9029021,-31.73828125,-33.203125,-48.828125,-24.90234375,0.0
1676923925.906874,-32.71484375,-20.99609375,-32.2265625,-8.30078125,0.0
1676923925.910846,-32.71484375,-2.9296875,-14.16015625,-17.08984375,0.0
1676923925.9156244,-30.2734375,-20.01953125,-21.97265625,-21.484375,0.0
1676923925.9204028,-38.57421875,-34.66796875,-34.66796875,-26.3671875,0.0
1676923925.9251812,-38.57421875,-25.87890625,-24.4140625,-32.2265625,0.0
1676923925.9299595,-28.3203125,-24.90234375,-24.4140625,-20.01953125,0.0
1676923925.934738,-36.1328125,-31.25,-40.52734375,-31.73828125,0.0
1676923925.9395163,-44.43359375,-68.84765625,-67.3828125,-39.55078125,0.0
1676923925.9442947,-42.48046875,-63.4765625,-54.19921875,-29.78515625,0.0
1676923925.949073,-46.875,-15.625,-22.4609375,-43.45703125,0.0
1676923925.9538515,-28.80859375,-22.94921875,-48.33984375,-33.69140625,0.0
1676923925.9586298,-16.6015625,-25.87890625,-56.15234375,-14.6484375,0.0
1676923925.9634082,-20.01953125,-9.27734375,-43.45703125,-12.6953125,0.0
1676923925.9681866,-22.94921875,-11.71875,-41.015625,-15.13671875,0.0
1676923925.9719608,-31.73828125,-33.203125,-54.19921875,-23.92578125,0.0
1676923925.975735,-36.62109375,-39.55078125,-53.22265625,-24.90234375,0.0
1676923925.9795094,-37.59765625,-37.109375,-41.015625,-15.13671875,0.0
1676923925.9832835,-27.34375,-37.109375,-43.45703125,-16.6015625,0.0
1676923925.9870577,-20.5078125,-41.50390625,-46.38671875,-16.11328125,0.0
1676923925.9908319,-23.92578125,-47.36328125,-47.8515625,-11.23046875,0.0
1676923925.994606,-24.4140625,-26.85546875,-35.64453125,-15.13671875,0.0
1676923925.9983802,-16.11328125,-12.20703125,-20.5078125,-16.6015625,0.0
1676923926.0021544,-20.5078125,-41.9921875,-46.38671875,-17.578125,0.0
1676923926.0059288,-44.43359375,-51.7578125,-50.78125,-20.01953125,0.0
1676923926.009703,-42.48046875,-23.92578125,-15.13671875,-20.01953125,0.0
1676923926.013477,-29.296875,-34.66796875,-30.76171875,-22.4609375,0.0
1676923926.017227,-34.66796875,-41.015625,-36.1328125,-26.3671875,0.0
1676923926.0209765,-35.64453125,-19.53125,-9.765625,-18.06640625,0.0
1676923926.0247264,-30.2734375,-10.25390625,2.44140625,-9.27734375,0.0
1676923926.0284762,-35.15625,-27.83203125,-10.7421875,-10.25390625,0.0
1676923926.0322258,-33.69140625,-38.0859375,-28.3203125,-18.06640625,0.0
1676923926.0359757,-32.71484375,-35.64453125,-31.73828125,-18.5546875,0.0
1676923926.0397255,-33.69140625,-22.94921875,-17.578125,-23.4375,0.0
1676923926.0434752,-25.87890625,-22.94921875,-21.97265625,-20.01953125,0.0
1676923926.047225,-28.3203125,-45.41015625,-38.0859375,-7.32421875,0.0
1676923926.0509748,-30.76171875,-22.4609375,-12.20703125,-8.30078125,0.0
1676923926.0547245,-28.3203125,-6.34765625,-8.30078125,-16.6015625,0.0
1676923926.0584743,-27.34375,-22.4609375,-31.25,-21.484375,0.0
1676923926.0623384,-19.04296875,-23.92578125,-28.3203125,-13.671875,0.0
1676923926.0662022,-14.16015625,-23.92578125,-24.4140625,-11.71875,0.0
1676923926.0700662,-18.5546875,-30.2734375,-34.1796875,-17.08984375,0.0
1676923926.0739303,-27.34375,-33.203125,-40.0390625,-14.6484375,0.0
1676923926.077794,-28.80859375,-24.4140625,-31.73828125,-10.7421875,0.0
1676923926.0816581,-20.01953125,-7.8125,-14.6484375,-11.23046875,0.0
1676923926.0855222,-24.4140625,2.44140625,-0.48828125,-16.6015625,0.0
1676923926.089386,-37.59765625,-12.20703125,-13.671875,-7.32421875,0.0
1676923926.09325,-40.0390625,-15.13671875,-18.5546875,-11.23046875,0.0
1676923926.097114,-30.76171875,15.625,5.37109375,-27.34375,0.0
1676923926.100978,-25.390625,4.8828125,-11.71875,-25.390625,0.0
1676923926.104842,-25.390625,-4.39453125,-18.06640625,-29.296875,0.0
1676923926.108495,-31.73828125,7.8125,-4.8828125,-31.73828125,0.0
1676923926.112148,-32.2265625,14.6484375,-8.30078125,-14.6484375,0.0
1676923926.115801,-33.69140625,4.39453125,-25.390625,-9.27734375,0.0
1676923926.1194541,-39.55078125,0.0,-33.203125,-18.5546875,0.0
1676923926.1231072,-41.015625,2.44140625,-37.59765625,-16.6015625,0.0
1676923926.12676,-40.0390625,0.9765625,-40.0390625,-25.87890625,0.0
1676923926.130413,-26.85546875,13.671875,-27.83203125,-33.203125,0.0
1676923926.134066,-21.97265625,-12.20703125,-41.50390625,-30.76171875,0.0
1676923926.1377192,-34.66796875,-8.30078125,-27.34375,-26.85546875,0.0
1676923926.1413722,-43.9453125,28.3203125,3.41796875,-24.90234375,0.0
1676923926.1450253,-48.33984375,11.71875,-16.11328125,-29.296875,0.0
1676923926.1486783,-45.41015625,5.37109375,-23.4375,-10.25390625,0.0
1676923926.152425,-42.96875,10.7421875,-19.04296875,-5.37109375,0.0
1676923926.1561718,-42.48046875,14.16015625,-21.484375,-20.99609375,0.0
1676923926.1599185,-33.69140625,8.7890625,-34.66796875,-20.01953125,0.0
1676923926.1636653,-30.76171875,11.23046875,-34.66796875,-18.5546875,0.0
1676923926.167412,-36.62109375,16.6015625,-26.3671875,-17.578125,0.0
1676923926.1711588,-42.48046875,5.859375,-35.15625,-4.39453125,0.0
1676923926.1749055,-40.52734375,-7.8125,-55.17578125,-9.27734375,0.0
1676923926.1786523,-41.015625,-18.06640625,-62.5,-19.04296875,0.0
1676923926.182399,-47.36328125,0.48828125,-31.73828125,-22.94921875,0.0
1676923926.1861458,-29.78515625,4.39453125,-21.97265625,-17.578125,0.0
1676923926.1898925,-25.87890625,-22.4609375,-46.38671875,-15.625,0.0
1676923926.1936393,-35.64453125,-14.16015625,-34.66796875,-24.90234375,0.0
1676923926.1973891,-35.64453125,4.8828125,-13.18359375,-19.53125,0.0
1676923926.201139,-35.64453125,-3.41796875,-20.99609375,-8.30078125,0.0
1676923926.2048888,-34.1796875,-7.8125,-21.97265625,-19.04296875,0.0
1676923926.2086387,-41.50390625,1.953125,-11.23046875,-19.04296875,0.0
1676923926.2123885,-49.31640625,-1.953125,-18.5546875,-21.97265625,0.0
1676923926.2161384,-50.29296875,-19.53125,-44.43359375,-32.71484375,0.0
1676923926.2198884,-54.19921875,-36.1328125,-50.78125,-25.87890625,0.0
1676923926.2236383,-45.8984375,-20.01953125,-22.94921875,-25.390625,0.0
1676923926.2273881,-35.15625,1.46484375,-16.6015625,-20.01953125,0.0
1676923926.231138,-38.57421875,-19.04296875,-40.0390625,-23.4375,0.0
1676923926.2348878,-44.43359375,-36.1328125,-51.26953125,-28.3203125,0.0
1676923926.2386377,-42.48046875,-19.04296875,-40.0390625,-31.25,0.0
1676923926.24253,-34.1796875,-11.23046875,-23.4375,-31.25,0.0
1676923926.2464228,-30.76171875,-26.85546875,-30.76171875,-26.3671875,0.0
1676923926.2503152,-33.69140625,-19.04296875,-33.203125,-23.92578125,0.0
1676923926.2542076,-34.66796875,1.46484375,-12.20703125,-17.578125,0.0
1676923926.2581003,-38.57421875,-8.7890625,-12.20703125,-30.76171875,0.0
1676923926.2619927,-36.62109375,-37.109375,-28.80859375,-25.87890625,0.0
1676923926.265885,-41.9921875,-33.203125,-20.5078125,-20.5078125,0.0
1676923926.2697778,-49.31640625,-7.32421875,-3.90625,-40.0390625,0.0
1676923926.2736702,-37.59765625,-11.71875,-21.484375,-38.0859375,0.0
1676923926.2775626,-33.203125,-27.83203125,-36.62109375,-28.3203125,0.0
1676923926.2814553,-39.0625,-26.3671875,-19.04296875,-41.015625,0.0
1676923926.2853477,-43.9453125,-14.16015625,-8.7890625,-31.25,0.0
1676923926.2903664,-44.43359375,-20.99609375,-13.671875,-16.6015625,0.0
1676923926.2953851,-39.0625,-36.1328125,-20.01953125,-27.34375,0.0
1676923926.300404,-37.59765625,-24.4140625,-18.06640625,-29.78515625,0.0
1676923926.3054228,-42.48046875,-8.30078125,-13.18359375,-31.73828125,0.0
1676923926.3104415,-41.015625,-12.20703125,-14.16015625,-26.85546875,0.0
1676923926.3154602,-32.2265625,-37.59765625,-35.64453125,-10.7421875,0.0
1676923926.320479,-33.69140625,-24.4140625,-27.83203125,-8.7890625,0.0
1676923926.3254976,-43.45703125,9.765625,-0.9765625,-27.83203125,0.0
1676923926.3305163,-46.875,-15.625,-21.97265625,-17.08984375,0.0
1676923926.3355353,-45.8984375,-27.34375,-24.90234375,-8.7890625,0.0
1676923926.340554,-38.0859375,-20.01953125,-21.97265625,-24.90234375,0.0
1676923926.3455727,-22.4609375,-18.06640625,-21.97265625,-29.78515625,0.0
1676923926.349122,-24.4140625,-31.73828125,-28.80859375,-26.85546875,0.0
1676923926.3526714,-31.25,-39.55078125,-28.3203125,-17.578125,0.0
1676923926.3562207,-27.83203125,-25.87890625,-11.71875,-4.8828125,0.0
1676923926.35977,-31.25,-23.92578125,-19.04296875,-13.18359375,0.0
1676923926.3633194,-37.59765625,-41.015625,-39.55078125,-26.3671875,0.0
1676923926.3668685,-39.55078125,-42.48046875,-41.9921875,-28.3203125,0.0
1676923926.3704178,-41.50390625,-25.390625,-27.83203125,-19.04296875,0.0
1676923926.3739672,-38.0859375,-12.6953125,-23.4375,-18.5546875,0.0
1676923926.3775165,-39.0625,-39.0625,-52.24609375,-26.3671875,0.0
1676923926.3810658,-45.8984375,-44.43359375,-46.875,-13.671875,0.0
1676923926.3846152,-41.015625,3.41796875,0.9765625,-11.23046875,0.0
1676923926.3881645,-33.203125,-3.41796875,-12.6953125,-20.5078125,0.0
1676923926.3919187,-38.57421875,-17.578125,-27.83203125,-23.4375,0.0
1676923926.3956728,-46.38671875,-9.27734375,-16.6015625,-19.53125,0.0
1676923926.399427,-32.2265625,-3.41796875,-5.859375,-16.11328125,0.0
1676923926.403181,-26.3671875,-10.7421875,-18.06640625,-16.11328125,0.0
1676923926.4069352,-31.73828125,-30.76171875,-33.203125,-14.6484375,0.0
1676923926.4106894,-33.203125,-23.4375,-21.484375,-13.671875,0.0
1676923926.4144433,-28.3203125,-3.90625,-14.16015625,-19.53125,0.0
1676923926.4181974,-32.2265625,-11.71875,-20.5078125,-20.99609375,0.0
1676923926.4219515,-34.1796875,-35.64453125,-38.0859375,-12.20703125,0.0
1676923926.4257057,-33.69140625,-19.04296875,-30.76171875,-17.08984375,0.0
1676923926.4294598,-35.15625,13.18359375,-15.625,-18.06640625,0.0
1676923926.433214,-25.87890625,-8.7890625,-37.59765625,-20.01953125,0.0
1676923926.4369686,-29.296875,-15.13671875,-39.55078125,-32.71484375,0.0
1676923926.4407234,-30.76171875,-2.9296875,-29.296875,-36.1328125,0.0
1676923926.444478,-23.92578125,-0.9765625,-23.4375,-32.2265625,0.0
1676923926.4482327,-26.85546875,-9.765625,-26.3671875,-30.76171875,0.0
1676923926.4519875,-24.90234375,-24.4140625,-42.48046875,-44.921875,0.0
1676923926.4557421,-27.34375,-23.4375,-37.109375,-40.52734375,0.0
1676923926.4594967,-36.62109375,-26.85546875,-30.76171875,-31.73828125,0.0
1676923926.4632516,-32.2265625,-32.71484375,-39.0625,-36.62109375,0.0
1676923926.4670062,-27.83203125,-16.6015625,-30.76171875,-26.3671875,0.0
1676923926.4707608,-29.78515625,-1.46484375,-12.6953125,-21.484375,0.0
1676923926.4745157,-33.69140625,-6.34765625,-17.578125,-12.6953125,0.0
1676923926.4782703,-27.34375,-26.85546875,-39.55078125,0.48828125,0.0
1676923926.4820676,-28.3203125,-20.99609375,-30.2734375,-3.90625,0.0
1676923926.485865,-32.2265625,13.671875,-3.90625,-26.3671875,0.0
1676923926.4896624,-34.1796875,7.32421875,-17.578125,-20.5078125,0.0
1676923926.4934597,-35.15625,6.34765625,-10.25390625,-5.37109375,0.0
1676923926.4972572,-22.4609375,14.16015625,-8.30078125,-21.484375,0.0
1676923926.5010545,-25.390625,-2.44140625,-28.80859375,-27.83203125,0.0
1676923926.5048518,-34.66796875,-6.34765625,-27.83203125,-20.5078125,0.0
1676923926.5086493,-33.203125,-18.5546875,-34.1796875,-16.6015625,0.0
1676923926.5124466,-34.1796875,-12.6953125,-21.484375,-20.99609375,0.0
1676923926.516244,-32.71484375,7.32421875,-9.765625,-16.11328125,0.0
1676923926.5200415,-38.57421875,-7.8125,-20.5078125,-12.6953125,0.0
1676923926.5238388,-41.9921875,-11.71875,-22.94921875,-19.53125,0.0
1676923926.5276432,-37.59765625,-2.9296875,-25.390625,-25.390625,0.0
1676923926.5314474,-31.73828125,-6.8359375,-24.90234375,-27.83203125,0.0
1676923926.5352519,-33.203125,-20.99609375,-32.2265625,-27.83203125,0.0
1676923926.539056,-29.78515625,-11.23046875,-34.1796875,-19.53125,0.0
1676923926.5428605,-27.34375,6.34765625,-26.3671875,-16.11328125,0.0
1676923926.5466647,-26.85546875,-8.30078125,-38.0859375,-17.578125,0.0
1676923926.5504692,-28.3203125,-31.25,-52.24609375,-13.18359375,0.0
1676923926.5542736,-35.64453125,-28.80859375,-42.96875,-11.23046875,0.0
1676923926.5580778,-31.73828125,4.39453125,-21.484375,-22.94921875,0.0
1676923926.5618823,-36.1328125,-2.44140625,-36.1328125,-35.15625,0.0
1676923926.5656865,-41.9921875,-20.01953125,-48.828125,-19.04296875,0.0
1676923926.569491,-39.55078125,-15.625,-41.50390625,-14.16015625,2.0
1676923926.5731752,-38.57421875,-6.34765625,-33.69140625,-26.85546875,0.0
1676923926.5768592,-34.1796875,-15.625,-37.59765625,-27.34375,0.0
1676923926.5805435,-30.76171875,-21.484375,-33.69140625,-32.71484375,0.0
1676923926.5842278,-38.0859375,-14.6484375,-29.78515625,-26.3671875,0.0
1676923926.5879118,-42.96875,-23.92578125,-44.43359375,-13.671875,0.0
1676923926.5915961,-33.69140625,-24.4140625,-37.59765625,-23.4375,0.0
1676923926.5952804,-28.80859375,-41.50390625,-42.48046875,-16.6015625,0.0
1676923926.5989645,-42.48046875,-33.203125,-37.109375,-1.953125,0.0
1676923926.6026487,-33.203125,5.859375,-10.7421875,-23.4375,0.0
1676923926.606333,-17.578125,-14.6484375,-28.3203125,-36.62109375,0.0
1676923926.610017,-20.5078125,-25.87890625,-36.1328125,-35.15625,0.0
1676923926.6137013,-24.4140625,-15.13671875,-24.90234375,-38.0859375,0.0
1676923926.6176605,-35.64453125,-15.625,-19.04296875,-35.64453125,0.0
1676923926.6216195,-42.96875,-29.78515625,-34.66796875,-29.296875,0.0
1676923926.6255786,-36.62109375,-30.2734375,-37.59765625,-30.76171875,0.0
1676923926.6295376,-33.69140625,-20.01953125,-28.3203125,-34.66796875,0.0
1676923926.6334968,-41.015625,-22.94921875,-37.109375,-23.4375,0.0
1676923926.637456,-34.1796875,-48.33984375,-54.6875,-12.20703125,0.0
1676923926.6414149,-22.94921875,-46.38671875,-43.45703125,-24.4140625,0.0
1676923926.645374,-23.92578125,-16.11328125,-25.87890625,-34.66796875,0.0
1676923926.649333,-22.4609375,-14.6484375,-27.83203125,-30.2734375,0.0
1676923926.6532922,-22.4609375,-21.484375,-28.80859375,-14.16015625,0.0
1676923926.6572511,-17.08984375,-12.6953125,-22.94921875,-13.671875,0.0
1676923926.6612103,-12.20703125,0.9765625,-19.04296875,-21.484375,0.0
1676923926.665963,-14.16015625,-8.30078125,-29.296875,-14.16015625,0.0
1676923926.6707153,-25.390625,-21.97265625,-26.85546875,-8.30078125,0.0
1676923926.675468,-34.66796875,-11.71875,-13.671875,-19.04296875,0.0
1676923926.6802204,-47.8515625,-13.671875,-17.08984375,-25.87890625,0.0
1676923926.684973,-47.8515625,-20.99609375,-23.92578125,-24.90234375,0.0
1676923926.6897254,-29.296875,-40.52734375,-35.64453125,-21.97265625,0.0
1676923926.694478,-36.1328125,-41.015625,-25.390625,-15.13671875,0.0
1676923926.6992307,-36.62109375,2.44140625,-1.46484375,-22.4609375,0.0
1676923926.703983,-25.87890625,-5.859375,-20.99609375,-32.2265625,0.0
1676923926.7087357,-36.1328125,-30.2734375,-32.2265625,-29.78515625,0.0
1676923926.713488,-35.15625,-26.3671875,-28.80859375,-22.4609375,0.0
1676923926.7182407,-24.90234375,-18.06640625,-22.94921875,-29.78515625,0.0
1676923926.7219858,-28.3203125,-29.296875,-30.76171875,-32.2265625,0.0
1676923926.7257307,-28.80859375,-30.76171875,-34.66796875,-13.671875,0.0
1676923926.7294757,-23.4375,-9.765625,-19.04296875,-9.765625,0.0
1676923926.7332208,-22.4609375,-8.7890625,-16.6015625,-6.34765625,0.0
1676923926.7369657,-28.80859375,-27.34375,-33.69140625,-11.23046875,0.0
1676923926.7407107,-23.92578125,-35.15625,-38.57421875,-15.625,0.0
1676923926.7444558,-17.08984375,-16.11328125,-24.90234375,-18.5546875,0.0
1676923926.7482007,-15.13671875,-4.8828125,-15.625,-16.11328125,0.0
1676923926.7519457,0.9765625,-23.4375,-31.25,4.8828125,0.0
1676923926.7556908,1.46484375,-22.4609375,-32.2265625,11.23046875,0.0
1676923926.7594357,-9.765625,8.30078125,0.48828125,10.7421875,0.0
1676923926.7631807,-13.18359375,-1.953125,-9.27734375,2.44140625,0.0
1676923926.7670422,-24.4140625,-20.01953125,-31.73828125,-11.71875,0.0
1676923926.7709036,-28.80859375,-11.71875,-22.94921875,-13.671875,0.0
1676923926.7747648,-34.66796875,-1.953125,-8.30078125,-14.16015625,0.0
1676923926.7786262,-49.31640625,-18.5546875,-18.5546875,-27.83203125,0.0
1676923926.7824876,-39.55078125,-35.64453125,-28.3203125,-27.34375,0.0
1676923926.7863488,-35.15625,-28.3203125,-16.11328125,-23.4375,0.0
1676923926.7902102,-45.41015625,-15.13671875,-7.8125,-27.34375,0.0
1676923926.7940717,-48.33984375,-20.01953125,-23.92578125,-23.4375,0.0
1676923926.797933,-44.43359375,-35.64453125,-40.0390625,-13.671875,0.0
1676923926.8017945,-37.109375,-18.5546875,-30.2734375,-15.625,0.0
1676923926.8056557,-46.38671875,-9.27734375,-26.3671875,-17.578125,0.0
1676923926.8095171,-47.8515625,-30.2734375,-28.3203125,-21.484375,0.0
1676923926.8131566,-33.69140625,-31.25,-31.25,-28.3203125,0.0
1676923926.816796,-20.99609375,-17.578125,-31.73828125,-23.4375,0.0
1676923926.8204355,-14.16015625,-15.13671875,-27.83203125,-18.5546875,0.0
1676923926.824075,-20.5078125,-24.90234375,-40.52734375,-16.11328125,0.0
1676923926.8277144,-15.13671875,-24.4140625,-35.15625,-12.20703125,0.0
1676923926.8313541,-16.11328125,-17.08984375,-30.2734375,-12.20703125,0.0
1676923926.8349936,-21.97265625,-16.11328125,-38.0859375,-20.99609375,0.0
1676923926.838633,-20.5078125,-27.83203125,-46.38671875,-14.6484375,0.0
1676923926.8422725,-30.76171875,-40.0390625,-57.6171875,-20.01953125,0.0
1676923926.845912,-30.76171875,-2.44140625,-22.94921875,-19.04296875,0.0
1676923926.8495514,-21.97265625,3.90625,-17.578125,0.0,0.0
1676923926.853191,-22.4609375,-14.16015625,-38.57421875,-12.20703125,0.0
1676923926.8569665,-27.83203125,-8.30078125,-33.69140625,-24.4140625,0.0
1676923926.860742,-31.73828125,-8.30078125,-24.90234375,-28.80859375,0.0
1676923926.864518,-31.25,-17.08984375,-28.80859375,-26.85546875,0.0
1676923926.8682935,-23.4375,-10.7421875,-20.5078125,-22.94921875,0.0
1676923926.8720691,-28.80859375,-5.37109375,-16.11328125,-20.01953125,0.0
1676923926.875845,-33.69140625,-21.484375,-38.0859375,-19.04296875,0.0
1676923926.8796206,-33.69140625,-21.484375,-30.76171875,-23.4375,0.0
1676923926.8833961,-33.69140625,-34.66796875,-38.57421875,-11.71875,0.0
1676923926.8871717,-36.1328125,-20.5078125,-29.296875,0.0,0.0
1676923926.8909473,-30.2734375,12.6953125,0.9765625,-11.71875,0.0
1676923926.8947232,-26.3671875,-6.34765625,-13.671875,-16.6015625,0.0
1676923926.8984988,-29.296875,-10.25390625,-12.20703125,-8.7890625,0.0
1676923926.9023325,-29.296875,5.37109375,1.953125,-11.71875,0.0
1676923926.9061663,-36.1328125,-7.8125,-13.18359375,-24.4140625,0.0
1676923926.9099998,-28.80859375,-27.83203125,-34.66796875,-28.3203125,0.0
1676923926.9138336,-29.78515625,-24.90234375,-35.15625,-25.390625,0.0
1676923926.9176674,-47.36328125,-20.01953125,-33.203125,-33.203125,0.0
1676923926.9215012,-32.2265625,-22.4609375,-44.43359375,-31.25,0.0
1676923926.925335,-19.04296875,-30.2734375,-50.29296875,-19.53125,0.0
1676923926.9291687,-28.3203125,-25.390625,-34.1796875,-18.5546875,0.0
1676923926.9330025,-30.76171875,3.90625,-14.6484375,-20.99609375,0.0
1676923926.936836,-28.80859375,-2.9296875,-23.4375,-13.671875,0.0
1676923926.9406698,-31.25,-25.87890625,-39.0625,-19.04296875,0.0
1676923926.9445035,-34.66796875,-15.625,-29.296875,-32.71484375,0.0
1676923926.948184,-36.62109375,2.44140625,-14.6484375,-36.1328125,0.0
1676923926.9518642,-29.78515625,-15.13671875,-32.71484375,-36.62109375,0.0
1676923926.9555447,-25.87890625,-18.06640625,-41.9921875,-42.48046875,0.0
1676923926.959225,-33.69140625,-2.44140625,-28.80859375,-38.57421875,0.0
1676923926.9629054,-43.9453125,-9.765625,-40.0390625,-34.66796875,0.0
1676923926.9665856,-41.015625,-23.4375,-51.26953125,-44.43359375,0.0
1676923926.970266,-28.3203125,-37.109375,-58.59375,-28.80859375,0.0
1676923926.9739466,-30.2734375,-17.08984375,-39.55078125,-18.5546875,0.0
1676923926.9776268,-34.66796875,12.6953125,-5.859375,-24.90234375,0.0
1676923926.9813073,-26.3671875,-2.44140625,-14.6484375,-9.765625,0.0
1676923926.9849875,-18.5546875,-7.8125,-24.90234375,-1.46484375,0.0
1676923926.988668,-21.484375,-4.39453125,-16.6015625,-13.671875,0.0
1676923926.9974487,-20.01953125,-19.04296875,-18.5546875,-23.4375,0.0
1676923927.0062296,-7.8125,-33.69140625,-24.90234375,-14.16015625,0.0
1676923927.0150104,-9.27734375,-23.92578125,-13.18359375,5.859375,0.0
1676923927.0237913,-9.27734375,1.46484375,-3.90625,0.9765625,0.0
1676923927.032572,-13.671875,-6.34765625,-23.4375,-18.06640625,0.0
1676923927.0413527,-24.90234375,-36.1328125,-45.8984375,-16.11328125,0.0
1676923927.0501337,-23.4375,-29.296875,-31.25,-6.8359375,0.0
1676923927.0589144,-19.53125,-0.48828125,-7.8125,-23.92578125,0.0
1676923927.0676954,-26.3671875,-11.71875,-21.484375,-28.3203125,0.0
1676923927.076476,-20.5078125,-31.25,-36.1328125,-9.27734375,0.0
1676923927.085257,-15.13671875,-23.92578125,-32.71484375,-17.578125,0.0
1676923927.0940378,-19.53125,-10.7421875,-24.90234375,-21.97265625,0.0
1676923927.0942771,-20.5078125,-11.71875,-18.06640625,-14.16015625,0.0
1676923927.0945163,-25.390625,-15.13671875,-23.4375,-31.25,0.0
1676923927.0947556,-25.87890625,-10.7421875,-25.87890625,-27.83203125,0.0
1676923927.094995,-29.78515625,-20.5078125,-24.4140625,-16.6015625,0.0
1676923927.0952342,-29.78515625,-21.484375,-20.01953125,-21.484375,0.0
1676923927.0954735,-23.4375,-13.18359375,-11.71875,-14.16015625,0.0
1676923927.095713,-6.34765625,-0.48828125,-0.48828125,-4.39453125,0.0
1676923927.095952,-6.34765625,1.46484375,-6.8359375,-6.34765625,0.0
1676923927.0961914,-12.20703125,-17.578125,-24.4140625,-7.32421875,0.0
1676923927.0964308,-4.39453125,-21.97265625,-33.203125,-0.9765625,0.0
1676923927.09667,-7.32421875,-11.71875,-34.66796875,-6.8359375,0.0
1676923927.0969093,-4.8828125,-8.7890625,-39.55078125,-18.5546875,0.0
1676923927.1003907,-2.9296875,-23.92578125,-52.734375,-14.16015625,0.0
1676923927.1038723,-10.25390625,-26.3671875,-42.96875,5.859375,0.0
1676923927.1073537,-7.8125,-8.30078125,-32.71484375,1.953125,0.0
1676923927.1108353,-5.37109375,-7.32421875,-40.52734375,-11.71875,0.0
1676923927.1143167,-5.859375,-24.4140625,-55.17578125,0.0,0.0
1676923927.1177983,-17.578125,-37.59765625,-55.17578125,4.39453125,0.0
1676923927.1212797,-31.25,-25.87890625,-39.0625,-7.32421875,0.0
1676923927.124761,-23.4375,-11.23046875,-31.73828125,-11.23046875,0.0
1676923927.1282427,-21.97265625,-20.01953125,-40.52734375,-4.8828125,0.0
1676923927.131724,-26.85546875,-44.921875,-65.91796875,7.32421875,0.0
1676923927.1352057,-17.08984375,-6.8359375,-34.66796875,-2.9296875,0.0
1676923927.1386871,-12.6953125,17.08984375,-15.13671875,-26.3671875,0.0
1676923927.1424356,-14.6484375,-3.90625,-33.203125,-22.4609375,0.0
1676923927.1461837,-18.5546875,-7.8125,-30.76171875,-11.71875,0.0
1676923927.149932,-19.04296875,-11.23046875,-27.83203125,-12.6953125,0.0
1676923927.1536803,-23.4375,-26.85546875,-36.1328125,-16.6015625,0.0
1676923927.1574287,-26.85546875,-24.90234375,-37.59765625,-21.97265625,0.0
1676923927.161177,-27.34375,-13.671875,-29.78515625,-22.94921875,0.0
1676923927.164925,-37.59765625,-13.18359375,-29.296875,-21.97265625,0.0
1676923927.1686735,-31.73828125,-10.7421875,-33.203125,-11.23046875,0.0
1676923927.172422,-22.4609375,-21.97265625,-45.8984375,-4.8828125,0.0
1676923927.17617,-22.94921875,-12.20703125,-41.50390625,-21.97265625,0.0
1676923927.1799183,-23.92578125,6.8359375,-28.3203125,-16.6015625,0.0
1676923927.1836667,-20.01953125,-2.9296875,-44.921875,-9.27734375,0.0
1676923927.1874175,-28.80859375,-14.16015625,-60.05859375,-20.5078125,0.0
1676923927.1911683,-34.1796875,-3.41796875,-44.43359375,-32.71484375,0.0
1676923927.194919,-12.20703125,-1.46484375,-39.0625,-22.4609375,0.0
1676923927.19867,-11.23046875,-6.34765625,-40.0390625,-3.41796875,0.0
1676923927.2024207,-13.18359375,-6.8359375,-39.0625,-3.41796875,0.0
1676923927.2061715,-17.08984375,-15.625,-54.6875,-12.6953125,0.0
1676923927.2099226,-33.69140625,-25.390625,-55.17578125,-22.4609375,0.0
1676923927.2136734,-22.94921875,-46.38671875,-64.453125,-18.06640625,0.0
1676923927.2174242,-12.6953125,-41.50390625,-67.87109375,-6.8359375,0.0
1676923927.221175,-19.04296875,-6.8359375,-41.015625,-12.20703125,0.0
1676923927.2249258,-23.92578125,-20.01953125,-55.17578125,-23.92578125,0.0
1676923927.2286766,-21.484375,-34.1796875,-66.40625,-27.34375,0.0
1676923927.2324967,-17.08984375,-33.203125,-53.7109375,-31.25,0.0
1676923927.236317,-17.578125,-18.06640625,-35.64453125,-23.92578125,0.0
1676923927.240137,-19.04296875,-20.99609375,-41.015625,-12.20703125,0.0
1676923927.2439573,-17.08984375,-33.203125,-52.24609375,-13.18359375,0.0
1676923927.2477775,-20.01953125,-19.04296875,-40.52734375,-6.34765625,0.0
1676923927.2515974,-20.5078125,-18.06640625,-37.109375,-13.18359375,0.0
1676923927.2554176,-16.11328125,-21.484375,-35.15625,-33.203125,0.0
1676923927.2592378,-23.4375,-31.73828125,-45.8984375,-25.390625,0.0
1676923927.263058,-28.3203125,-25.390625,-43.9453125,-25.390625,0.0
1676923927.2668781,-40.0390625,-11.71875,-34.66796875,-31.73828125,0.0
1676923927.2706983,-47.36328125,-22.94921875,-40.0390625,-26.3671875,0.0
1676923927.2745185,-32.2265625,-20.99609375,-35.64453125,-30.76171875,0.0
1676923927.279411,-28.80859375,-10.25390625,-24.90234375,-34.66796875,0.0
1676923927.284304,-36.1328125,-9.765625,-25.390625,-33.203125,0.0
1676923927.2891965,-26.3671875,-20.99609375,-40.0390625,-24.4140625,0.0
1676923927.294089,-27.83203125,-31.25,-47.8515625,-29.78515625,0.0
1676923927.298982,-39.0625,-21.97265625,-41.015625,-32.2265625,0.0
1676923927.3038745,-40.52734375,-22.94921875,-47.36328125,-34.66796875,0.0
1676923927.308767,-43.9453125,-39.0625,-66.89453125,-34.66796875,0.0
1676923927.31366,-48.33984375,-53.7109375,-74.21875,-20.01953125,0.0
1676923927.3185525,-44.43359375,-14.6484375,-31.25,-20.99609375,0.0
1676923927.323445,-33.69140625,-4.8828125,-22.4609375,-28.3203125,0.0
1676923927.328338,-30.2734375,-28.80859375,-38.57421875,-25.87890625,0.0
1676923927.3332305,-36.1328125,-20.5078125,-37.109375,-19.04296875,0.0
1676923927.3357265,-20.5078125,-11.71875,-29.78515625,-25.390625,0.0
1676923927.3382225,-13.671875,-21.484375,-30.2734375,-28.3203125,0.0
1676923927.3407185,-28.80859375,-34.66796875,-33.69140625,-18.06640625,0.0
1676923927.3432145,-30.76171875,-29.296875,-26.3671875,-16.6015625,0.0
1676923927.3457105,-32.71484375,-21.484375,-24.90234375,-22.4609375,0.0
1676923927.3482065,-29.78515625,-29.296875,-36.62109375,-13.18359375,0.0
1676923927.3507028,-26.3671875,-32.2265625,-36.62109375,-19.04296875,0.0
1676923927.3531988,-30.76171875,-11.23046875,-22.4609375,-23.92578125,0.0
1676923927.3556948,-42.48046875,-1.953125,-24.90234375,-14.6484375,0.0
1676923927.3581908,-46.875,-12.20703125,-33.203125,-23.92578125,0.0
1676923927.3606868,-36.62109375,-34.66796875,-48.33984375,-25.87890625,0.0
1676923927.3631828,-29.78515625,-15.625,-33.203125,-24.4140625,0.0
1676923927.3669424,-34.1796875,15.13671875,-8.7890625,-35.64453125,0.0
1676923927.3707023,-30.76171875,-8.30078125,-30.2734375,-43.9453125,0.0
1676923927.374462,-25.87890625,-13.671875,-27.34375,-44.921875,0.0
1676923927.3782215,-27.83203125,-1.953125,-11.71875,-40.0390625,0.0
1676923927.3819814,-20.99609375,-0.9765625,-16.6015625,-34.66796875,0.0
1676923927.385741,-20.01953125,-22.94921875,-34.66796875,-36.1328125,0.0
1676923927.3895006,-11.71875,-17.578125,-31.25,-17.08984375,0.0
1676923927.3932605,-3.41796875,15.625,-10.7421875,-6.34765625,0.0
1676923927.39702,-11.71875,9.27734375,-16.6015625,-17.08984375,0.0
1676923927.4007797,-10.7421875,-13.18359375,-30.2734375,-5.859375,0.0
1676923927.4045396,-7.32421875,-8.30078125,-20.5078125,-10.25390625,0.0
1676923927.4082992,-10.25390625,11.71875,-9.27734375,-17.578125,1.0
1676923927.413316,-20.99609375,-9.765625,-25.87890625,-17.08984375,0.0
1676923927.418333,-22.94921875,-22.94921875,-34.1796875,-23.4375,0.0
1676923927.4233499,-23.92578125,-12.6953125,-32.71484375,-20.99609375,0.0
1676923927.4283667,-29.296875,-7.32421875,-37.109375,-19.04296875,0.0
1676923927.4333835,-29.78515625,-11.23046875,-41.9921875,-14.6484375,0.0
1676923927.4384003,-33.69140625,-28.3203125,-50.78125,0.48828125,0.0
1676923927.4434173,-38.57421875,-26.3671875,-47.36328125,-13.671875,0.0
1676923927.448434,-38.0859375,-13.671875,-49.31640625,-30.2734375,0.0
1676923927.453451,-24.4140625,-18.06640625,-58.59375,-5.37109375,0.0
1676923927.458468,-13.671875,-21.484375,-51.7578125,-4.39453125,0.0
1676923927.4634848,-24.4140625,-20.5078125,-55.6640625,-20.5078125,0.0
1676923927.4685016,-18.5546875,-23.92578125,-61.03515625,-11.71875,0.0
1676923927.4722517,-9.27734375,-25.390625,-45.41015625,-4.8828125,0.0
1676923927.4760017,-22.4609375,-39.0625,-50.78125,-3.41796875,0.0
1676923927.4797516,-26.85546875,-23.92578125,-48.828125,-17.08984375,0.0
1676923927.4835017,-26.85546875,-13.18359375,-40.0390625,-14.6484375,0.0
1676923927.4872518,-29.296875,-29.78515625,-56.640625,-6.8359375,0.0
1676923927.4910016,-22.94921875,-29.296875,-57.6171875,-16.6015625,0.0
1676923927.4947517,-22.4609375,-12.6953125,-38.57421875,-16.6015625,0.0
1676923927.4985018,-18.5546875,3.90625,-25.87890625,-7.32421875,0.0
1676923927.5022519,-13.671875,-25.87890625,-51.26953125,-7.32421875,0.0
1676923927.506002,-20.5078125,-35.64453125,-53.22265625,-12.6953125,0.0
1676923927.5097518,-24.4140625,0.48828125,-24.90234375,-12.6953125,0.0
1676923927.513502,-19.53125,-3.90625,-37.109375,-3.41796875,0.0
1676923927.5172634,-6.34765625,-10.7421875,-44.921875,-14.6484375,0.0
1676923927.5210247,-2.44140625,-10.7421875,-43.45703125,-30.2734375,0.0
1676923927.524786,-23.4375,-12.6953125,-48.33984375,-22.94921875,0.0
1676923927.5285475,-41.9921875,-22.4609375,-46.875,-20.5078125,0.0
1676923927.532309,-38.0859375,-26.85546875,-39.55078125,-18.5546875,0.0
1676923927.5360703,-25.87890625,-15.625,-25.390625,-12.20703125,0.0
1676923927.5398316,-29.78515625,-8.7890625,-11.71875,-17.578125,0.0
1676923927.5435932,-21.97265625,-17.08984375,-16.11328125,-20.01953125,0.0
1676923927.5473547,-3.90625,-34.1796875,-25.87890625,-9.27734375,0.0
1676923927.551116,-5.37109375,-12.20703125,4.8828125,-8.7890625,0.0
1676923927.5548773,-7.32421875,2.44140625,22.94921875,-12.6953125,0.0
1676923927.5586388,-7.32421875,-19.53125,-0.48828125,-15.13671875,0.0
1676923927.5624037,-17.08984375,-19.53125,1.46484375,-18.06640625,0.0
1676923927.5661685,-16.6015625,-3.90625,20.01953125,-15.625,0.0
1676923927.5699334,-7.8125,-3.41796875,12.6953125,-13.671875,0.0
1676923927.5736983,-12.20703125,-14.16015625,-10.7421875,-10.7421875,0.0
1676923927.5774632,-20.5078125,-17.578125,-23.4375,-6.8359375,0.0
1676923927.5812283,-17.08984375,-13.18359375,-14.6484375,-4.39453125,0.0
1676923927.5849931,-19.04296875,-18.06640625,-11.71875,-8.30078125,0.0
1676923927.588758,-16.11328125,-23.4375,-17.08984375,0.48828125,0.0
1676923927.5925229,-9.765625,-13.671875,-12.20703125,-1.46484375,0.0
1676923927.5962877,-8.30078125,4.39453125,2.9296875,-10.7421875,0.0
1676923927.6000526,-8.30078125,-3.41796875,-0.9765625,-5.859375,0.0
1676923927.6038175,-18.06640625,-17.08984375,-16.6015625,-6.8359375,0.0
1676923927.6075137,-16.6015625,-5.859375,-9.27734375,-12.20703125,0.0
1676923927.61121,-19.53125,0.48828125,-4.39453125,-18.5546875,0.0
1676923927.6149063,-28.3203125,-1.46484375,-16.6015625,-18.06640625,0.0
1676923927.6186028,-32.71484375,-25.87890625,-26.85546875,-5.37109375,0.0
1676923927.622299,-30.2734375,-18.5546875,-10.7421875,7.32421875,0.0
1676923927.6259952,-28.3203125,0.0,2.44140625,-0.9765625,0.0
1676923927.6296916,-40.52734375,-14.16015625,-17.08984375,-25.390625,0.0
1676923927.6333878,-33.69140625,-27.34375,-38.0859375,-21.484375,0.0
1676923927.6370842,-32.2265625,-26.3671875,-25.87890625,-16.11328125,0.0
1676923927.6407804,-38.57421875,-9.27734375,-4.39453125,-21.97265625,0.0
1676923927.644477,-36.1328125,-22.94921875,-19.53125,-23.4375,0.0
1676923927.648173,-29.296875,-29.296875,-19.53125,-28.80859375,0.0
1676923927.651921,-26.85546875,-16.11328125,-3.90625,-27.34375,0.0
1676923927.655669,-26.85546875,-16.6015625,-7.32421875,-28.80859375,0.0
1676923927.659417,-12.6953125,-29.296875,-19.53125,-27.83203125,0.0
1676923927.6631649,-20.5078125,-30.2734375,-15.13671875,-25.87890625,0.0
1676923927.6669128,-22.4609375,-26.3671875,-18.06640625,-20.01953125,0.0
1676923927.6706607,-14.6484375,-31.73828125,-33.203125,-29.78515625,0.0
1676923927.6744087,-23.92578125,-35.64453125,-32.2265625,-29.296875,0.0
1676923927.6781566,-22.4609375,-29.296875,-20.5078125,-13.18359375,0.0
1676923927.6819046,-23.92578125,-5.37109375,-8.30078125,-16.6015625,0.0
1676923927.6856525,-21.97265625,-9.27734375,-31.25,-22.4609375,0.0
1676923927.6894004,-16.11328125,-20.01953125,-49.31640625,-22.94921875,0.0
1676923927.6931484,-21.97265625,-33.69140625,-58.10546875,-27.34375,0.0
1676923927.6970131,-37.109375,-31.25,-48.828125,-25.87890625,0.0
1676923927.7008781,-32.71484375,-20.5078125,-34.1796875,-10.7421875,0.0
1676923927.704743,-21.97265625,-40.52734375,-43.45703125,-2.44140625,0.0
1676923927.7086077,-26.85546875,-29.78515625,-26.3671875,-23.92578125,0.0
1676923927.7124724,-39.0625,-20.99609375,-30.2734375,-32.71484375,0.0
1676923927.7163372,-39.0625,-41.50390625,-50.78125,-38.0859375,0.0
1676923927.7202022,-38.0859375,-64.94140625,-61.03515625,-46.38671875,0.0
1676923927.724067,-35.15625,-43.45703125,-43.9453125,-32.71484375,0.0
1676923927.7279317,-38.0859375,-20.01953125,-32.71484375,-35.15625,0.0
1676923927.7317967,-46.38671875,-45.8984375,-51.26953125,-40.52734375,0.0
1676923927.7356615,-43.45703125,-53.7109375,-45.8984375,-29.78515625,0.0
1676923927.7395263,-35.15625,-35.15625,-34.66796875,-18.06640625,0.0
1676923927.743198,-37.109375,-33.203125,-42.48046875,-40.0390625,0.0
1676923927.7468696,-51.7578125,-52.24609375,-42.96875,-43.45703125,0.0
1676923927.750541,-47.8515625,-60.546875,-34.66796875,-27.34375,0.0
1676923927.7542126,-37.109375,-47.36328125,-23.92578125,-32.2265625,0.0
1676923927.7578843,-37.109375,-38.0859375,-14.16015625,-32.2265625,0.0
1676923927.7615557,-25.87890625,-53.7109375,-26.85546875,-23.92578125,0.0
1676923927.7652273,-19.53125,-66.89453125,-38.0859375,-16.6015625,0.0
1676923927.768899,-28.80859375,-33.203125,-17.578125,-12.6953125,0.0
1676923927.7725706,-25.390625,-26.85546875,-17.578125,-21.484375,0.0
1676923927.7762423,-20.01953125,-42.48046875,-29.296875,-22.94921875,0.0
1676923927.7799137,-27.83203125,-35.15625,-20.01953125,-15.13671875,0.0
1676923927.7835853,-31.25,-32.71484375,-23.4375,-27.34375,0.0
1676923927.788591,-24.90234375,-29.296875,-35.64453125,-25.390625,0.0
1676923927.7935967,-22.4609375,-32.2265625,-37.59765625,-22.4609375,0.0
1676923927.7986023,-30.76171875,-30.2734375,-35.64453125,-22.94921875,0.0
1676923927.803608,-28.3203125,-20.01953125,-36.62109375,-16.6015625,0.0
1676923927.8086135,-15.13671875,-20.5078125,-30.76171875,-6.34765625,0.0
1676923927.8136191,-20.01953125,-38.0859375,-40.0390625,-12.6953125,0.0
1676923927.818625,-29.296875,-44.43359375,-48.33984375,-23.4375,0.0
1676923927.8236306,-30.76171875,-27.83203125,-43.9453125,-20.5078125,0.0
1676923927.8286362,-21.484375,-21.97265625,-48.33984375,-17.578125,0.0
1676923927.833642,-16.11328125,-48.828125,-67.87109375,-3.41796875,0.0
1676923927.8386476,-18.06640625,-28.80859375,-48.33984375,-0.48828125,0.0
1676923927.8436532,-19.53125,3.41796875,-24.90234375,-12.20703125,0.0
1676923927.8474016,-22.94921875,-18.06640625,-39.0625,-8.7890625,0.0
1676923927.85115,-19.04296875,-27.34375,-38.57421875,-3.90625,0.0
1676923927.8548982,-19.04296875,-14.6484375,-26.85546875,-7.8125,0.0
1676923927.8586466,-16.6015625,-6.34765625,-21.484375,-6.8359375,0.0
1676923927.862395,-13.671875,-21.484375,-30.76171875,0.48828125,0.0
1676923927.8661432,-13.18359375,-40.0390625,-41.015625,-7.32421875,0.0
1676923927.8698916,-15.625,-15.13671875,-27.34375,-6.34765625,0.0
1676923927.87364,-16.6015625,0.0,-16.6015625,-0.9765625,0.0
1676923927.8773885,-9.765625,-29.78515625,-44.43359375,2.44140625,0.0
1676923927.881137,-14.16015625,-32.71484375,-47.36328125,4.8828125,0.0
1676923927.884885,-16.6015625,2.9296875,-19.04296875,-13.18359375,0.0
1676923927.8886335,-20.99609375,-10.25390625,-38.57421875,-19.04296875,0.0
1676923927.8923867,-27.83203125,-26.85546875,-48.828125,-11.23046875,0.0
1676923927.8961399,-18.5546875,-15.625,-30.76171875,-18.06640625,0.0
1676923927.8998928,-11.71875,-6.34765625,-22.4609375,-19.04296875,0.0
1676923927.903646,-15.13671875,-21.484375,-35.64453125,-19.04296875,0.0
1676923927.9073992,-23.4375,-33.203125,-50.78125,-15.13671875,0.0
1676923927.9111524,-25.87890625,-39.55078125,-58.10546875,-20.5078125,0.0
1676923927.9149055,-16.11328125,-28.80859375,-48.33984375,-22.94921875,0.0
1676923927.9186587,-9.27734375,-22.4609375,-48.33984375,-16.6015625,0.0
1676923927.922412,-15.625,-56.15234375,-71.77734375,-11.71875,0.0
1676923927.9261649,-27.34375,-41.015625,-52.734375,-10.25390625,0.0
1676923927.929918,-25.87890625,-11.71875,-35.64453125,-18.5546875,0.0
1676923927.9336712,-22.4609375,-28.3203125,-57.6171875,-15.625,0.0
1676923927.937424,-23.92578125,-27.83203125,-64.453125,-32.2265625,0.0
1676923927.9411764,-17.08984375,-13.18359375,-56.640625,-34.66796875,0.0
1676923927.9449291,-21.484375,-16.6015625,-49.8046875,-26.3671875,0.0
1676923927.9486818,-24.4140625,-28.3203125,-56.640625,-23.4375,0.0
1676923927.9524343,-20.99609375,-24.4140625,-51.26953125,-17.08984375,0.0
1676923927.956187,-31.25,-22.4609375,-42.96875,-14.16015625,0.0
1676923927.9599397,-35.15625,-19.53125,-37.109375,-24.90234375,0.0
1676923927.9636922,-32.2265625,-28.80859375,-42.48046875,-19.53125,0.0
1676923927.967445,-27.34375,-32.71484375,-38.0859375,-2.44140625,0.0
1676923927.9711976,-30.76171875,3.90625,-8.30078125,-13.18359375,0.0
1676923927.97495,-25.390625,-0.9765625,-20.5078125,-9.765625,0.0
1676923927.9787028,-16.6015625,-15.13671875,-36.62109375,-7.8125,0.0
1676923927.9824505,-21.97265625,-5.859375,-27.83203125,-6.34765625,0.0
1676923927.9861982,-20.5078125,-9.27734375,-27.34375,-12.6953125,0.0
1676923927.989946,-20.99609375,-20.5078125,-37.59765625,-22.94921875,0.0
1676923927.9936934,-20.5078125,-28.3203125,-39.55078125,-15.625,0.0
1676923927.997441,-19.04296875,-22.94921875,-35.64453125,-12.6953125,0.0
1676923928.0011888,-28.80859375,-25.390625,-46.38671875,-11.71875,0.0
1676923928.0049365,-37.109375,-25.87890625,-50.78125,-24.90234375,0.0
1676923928.0086842,-39.0625,-32.2265625,-59.08203125,-29.296875,0.0
