timestamps,TP9,Fp1,Fp2,TP10,stim
1676922788.962,-26.85546875,-47.8515625,-35.64453125,-1.953125,0.0
1676922788.96701,-19.53125,-37.59765625,-25.390625,-2.44140625,0.0
1676922788.97202,-17.578125,-22.94921875,-26.85546875,-26.3671875,0.0
1676922788.97703,-53.7109375,-9.765625,-34.1796875,-36.1328125,0.0
1676922788.9796386,-42.48046875,-17.578125,-38.0859375,-14.16015625,0.0
1676922788.9822469,-2.9296875,-46.875,-41.9921875,-6.34765625,0.0
1676922788.9848554,-16.6015625,-35.15625,-30.76171875,-22.4609375,0.0
1676922788.987464,-20.01953125,-40.52734375,-31.73828125,-43.9453125,0.0
1676922788.9900723,-17.578125,-49.31640625,-39.55078125,-20.99609375,0.0
1676922788.9926808,-9.765625,-52.734375,-50.78125,5.37109375,0.0
1676922788.9952893,-12.20703125,-52.734375,-61.03515625,-12.20703125,0.0
1676922788.9978976,-14.16015625,-41.9921875,-51.7578125,-30.2734375,0.0
1676922789.0005062,-13.18359375,-46.875,-37.59765625,-27.83203125,0.0
1676922789.0031147,-14.6484375,-38.57421875,-39.0625,-2.9296875,0.0
1676922789.005723,-34.66796875,-31.73828125,-58.10546875,-9.765625,0.0
1676922789.0083315,-43.45703125,-29.78515625,-50.78125,-43.45703125,0.0
1676922789.0119867,-23.4375,-23.92578125,-47.8515625,-50.78125,0.0
1676922789.0156422,-9.27734375,-36.1328125,-36.62109375,-6.34765625,0.0
1676922789.0192974,-3.90625,-55.17578125,-46.38671875,7.32421875,0.0
1676922789.0229526,-8.7890625,-47.36328125,-61.5234375,-16.6015625,0.0
1676922789.026608,-23.4375,-27.34375,-38.57421875,-32.71484375,0.0
1676922789.0302632,-17.578125,-27.34375,-27.83203125,-14.16015625,0.0
1676922789.0339184,-11.23046875,-36.1328125,-44.43359375,9.765625,0.0
1676922789.0375738,-33.69140625,-46.38671875,-55.17578125,-29.78515625,0.0
1676922789.041229,-26.85546875,-40.0390625,-47.36328125,-49.31640625,0.0
1676922789.0448842,-13.671875,-32.2265625,-38.0859375,-23.4375,0.0
1676922789.0485396,-20.99609375,-49.31640625,-45.8984375,-13.671875,0.0
1676922789.0521948,-19.53125,-85.9375,-35.15625,-19.53125,0.0
1676922789.0571895,-22.94921875,-78.125,-34.66796875,-49.8046875,0.0
1676922789.062184,-22.94921875,-18.5546875,-47.36328125,-45.41015625,0.0
1676922789.0671787,-23.4375,-9.765625,-40.0390625,-6.34765625,0.0
1676922789.0721734,-45.41015625,-35.15625,-50.29296875,-20.99609375,0.0
1676922789.077168,-35.15625,-39.0625,-47.8515625,-41.50390625,0.0
1676922789.0821626,-6.8359375,-37.109375,-34.1796875,-41.015625,0.0
1676922789.0871572,-7.32421875,-43.45703125,-30.76171875,-13.18359375,0.0
1676922789.0921519,-14.16015625,-44.43359375,-35.64453125,-0.48828125,0.0
1676922789.0971465,-20.99609375,-33.203125,-41.9921875,-30.76171875,0.0
1676922789.1021411,-23.92578125,-41.9921875,-53.7109375,-40.0390625,0.0
1676922789.1071358,-21.97265625,-45.41015625,-44.921875,-24.4140625,0.0
1676922789.1121304,-47.8515625,-50.29296875,-35.15625,-24.4140625,0.0
1676922789.1158693,-50.78125,-66.89453125,-31.73828125,-30.76171875,0.0
1676922789.119608,-18.5546875,-41.50390625,-10.7421875,-42.96875,0.0
1676922789.1233468,-19.04296875,-23.92578125,-18.5546875,-25.390625,0.0
1676922789.1270857,-32.2265625,-37.109375,-42.96875,-4.8828125,0.0
1676922789.1308243,-41.015625,-39.55078125,-48.828125,-36.1328125,0.0
1676922789.1345632,-37.109375,-36.62109375,-50.29296875,-61.5234375,0.0
1676922789.138302,-29.296875,-41.015625,-40.0390625,-43.9453125,0.0
1676922789.1420407,-32.71484375,-45.41015625,-28.80859375,-20.5078125,0.0
1676922789.1457796,-25.87890625,-41.50390625,-37.59765625,-10.7421875,0.0
1676922789.1495185,-17.08984375,-47.36328125,-44.43359375,-27.34375,0.0
1676922789.1532571,-21.97265625,-67.3828125,-34.66796875,-36.62109375,0.0
1676922789.156996,-17.08984375,-79.1015625,-22.4609375,-7.8125,0.0
1676922789.1607566,-18.5546875,-54.19921875,-16.11328125,14.16015625,0.0
1676922789.1645174,-22.94921875,-25.87890625,-13.671875,-12.6953125,0.0
1676922789.168278,-46.875,-53.22265625,-37.109375,-54.19921875,0.0
1676922789.1720386,-40.52734375,-43.9453125,-60.05859375,-27.83203125,0.0
1676922789.1757994,-28.3203125,-30.2734375,-54.19921875,-14.6484375,0.0
1676922789.17956,-34.1796875,-50.78125,-32.71484375,-35.64453125,0.0
1676922789.1833205,-16.11328125,-62.98828125,-19.04296875,-33.69140625,0.0
1676922789.1870813,-15.625,-54.6875,-30.2734375,-16.6015625,0.0
1676922789.190842,-17.08984375,-31.73828125,-52.24609375,12.20703125,0.0
1676922789.1946025,-8.30078125,-40.0390625,-44.43359375,2.44140625,0.0
1676922789.1983633,-20.01953125,-50.78125,-23.92578125,-38.0859375,0.0
1676922789.2021239,-22.94921875,-50.29296875,-20.5078125,-24.4140625,0.0
1676922789.2059753,-10.7421875,-50.29296875,-18.5546875,14.6484375,0.0
1676922789.2098267,-5.37109375,-58.10546875,-33.203125,5.859375,0.0
1676922789.213678,-10.25390625,-68.359375,-44.921875,-22.4609375,0.0
1676922789.2175293,-17.578125,-73.2421875,-48.828125,-26.3671875,0.0
1676922789.2213807,-19.53125,-65.4296875,-51.7578125,-9.765625,0.0
1676922789.2252321,-18.5546875,-45.8984375,-34.1796875,-2.9296875,0.0
1676922789.2290835,-13.671875,-27.83203125,-31.25,-12.6953125,0.0
1676922789.232935,-22.4609375,-23.4375,-51.26953125,-30.2734375,0.0
1676922789.2367864,-39.55078125,-57.12890625,-46.875,-21.484375,0.0
1676922789.2406375,-25.390625,-60.546875,-23.4375,-3.41796875,0.0
1676922789.244489,-16.6015625,-39.0625,-22.94921875,-20.99609375,0.0
1676922789.2483404,-39.0625,-50.29296875,-41.015625,-52.24609375,0.0
1676922789.2519853,-35.15625,-62.01171875,-50.29296875,-42.96875,0.0
1676922789.2556303,-16.6015625,-66.89453125,-46.38671875,-3.90625,0.0
1676922789.2592752,-15.625,-56.640625,-41.9921875,-4.39453125,0.0
1676922789.2629201,-23.4375,-31.25,-36.1328125,-37.59765625,0.0
1676922789.266565,-19.04296875,-45.41015625,-36.1328125,-41.9921875,0.0
1676922789.2702103,-20.5078125,-59.5703125,-43.45703125,-15.625,0.0
1676922789.2738552,-23.92578125,-35.64453125,-42.96875,-10.7421875,0.0
1676922789.2775002,-27.34375,-38.0859375,-46.38671875,-26.3671875,0.0
1676922789.281145,-40.52734375,-56.15234375,-48.828125,-30.76171875,0.0
1676922789.28479,-45.8984375,-43.9453125,-35.15625,-16.6015625,0.0
1676922789.288435,-27.34375,-48.33984375,-37.109375,-6.34765625,0.0
1676922789.29208,-15.13671875,-60.546875,-41.015625,-24.90234375,0.0
1676922789.2958117,-27.83203125,-55.17578125,-40.0390625,-43.45703125,0.0
1676922789.2995434,-35.64453125,-55.6640625,-41.50390625,-41.50390625,0.0
1676922789.303275,-48.33984375,-49.8046875,-41.50390625,-24.4140625,0.0
1676922789.3070068,-46.38671875,-53.7109375,-41.9921875,-45.41015625,0.0
1676922789.3107386,-15.625,-63.4765625,-36.62109375,-58.59375,0.0
1676922789.3144703,-31.73828125,-61.5234375,-36.62109375,-41.015625,0.0
1676922789.3182018,-23.4375,-38.0859375,-25.390625,-6.34765625,0.0
1676922789.3219335,-11.71875,-24.4140625,-34.66796875,-1.953125,0.0
1676922789.3256652,-39.0625,-39.55078125,-52.734375,-44.43359375,0.0
1676922789.329397,-37.109375,-61.5234375,-41.50390625,-53.7109375,0.0
1676922789.3331287,-24.4140625,-59.5703125,-52.734375,-25.390625,0.0
1676922789.3368604,-25.390625,-42.48046875,-53.22265625,-11.71875,0.0
1676922789.3406303,-28.3203125,-26.3671875,-27.34375,-20.5078125,0.0
1676922789.3444,-14.16015625,-38.57421875,-36.62109375,-32.2265625,0.0
1676922789.3481698,-19.04296875,-53.22265625,-49.8046875,-16.11328125,0.0
1676922789.3519397,-23.4375,-50.29296875,-44.43359375,8.30078125,0.0
1676922789.3557093,-18.06640625,-59.5703125,-40.0390625,-19.04296875,0.0
1676922789.3594792,-38.57421875,-55.6640625,-37.109375,-41.9921875,0.0
1676922789.363249,-32.71484375,-54.19921875,-38.57421875,-11.71875,0.0
1676922789.3670187,-30.76171875,-53.7109375,-45.41015625,4.39453125,0.0
1676922789.3707886,-53.7109375,-43.45703125,-58.10546875,-25.87890625,0.0
1676922789.3745584,-41.015625,-40.0390625,-56.15234375,-39.55078125,0.0
1676922789.378328,-27.34375,-41.9921875,-43.9453125,-25.390625,0.0
1676922789.382098,-22.4609375,-38.0859375,-36.1328125,6.34765625,0.0
1676922789.3859518,-13.671875,-40.0390625,-39.55078125,12.6953125,0.0
1676922789.3898058,-23.92578125,-41.015625,-41.015625,-24.4140625,0.0
1676922789.3936596,-16.6015625,-43.45703125,-37.109375,-35.64453125,0.0
1676922789.3975134,-19.53125,-64.453125,-50.29296875,-12.6953125,0.0
1676922789.4013672,-39.0625,-63.4765625,-49.31640625,-13.671875,0.0
1676922789.405221,-41.50390625,-50.29296875,-32.71484375,-40.52734375,0.0
1676922789.409075,-39.55078125,-55.6640625,-38.0859375,-38.57421875,0.0
1676922789.4129288,-23.92578125,-46.38671875,-37.109375,-11.23046875,0.0
1676922789.4167826,-35.64453125,-41.50390625,-22.4609375,9.765625,0.0
1676922789.4206367,-34.1796875,-34.1796875,-35.64453125,-4.39453125,0.0
1676922789.4244905,-22.4609375,-39.0625,-38.0859375,-31.73828125,0.0
1676922789.4283442,-24.90234375,-49.31640625,-29.78515625,-14.16015625,0.0
1676922789.433344,-26.3671875,-51.7578125,-49.31640625,4.8828125,0.0
1676922789.4383438,-41.015625,-63.4765625,-49.8046875,-17.08984375,0.0
1676922789.4433434,-40.0390625,-56.15234375,-35.15625,-38.0859375,0.0
1676922789.448343,-16.11328125,-22.94921875,-40.52734375,-24.4140625,0.0
1676922789.453343,-16.6015625,-35.15625,-36.1328125,4.8828125,0.0
1676922789.4583426,-23.92578125,-48.33984375,-26.3671875,12.20703125,0.0
1676922789.4633422,-31.25,-54.19921875,-40.52734375,-27.34375,0.0
1676922789.468342,-32.2265625,-55.6640625,-54.19921875,-44.43359375,0.0
1676922789.4733417,-37.109375,-46.875,-43.9453125,-7.32421875,0.0
1676922789.4783413,-25.87890625,-53.22265625,-35.15625,3.90625,0.0
1676922789.4833412,-12.6953125,-48.828125,-45.8984375,-23.92578125,0.0
1676922789.4883409,-25.87890625,-34.1796875,-40.52734375,-37.59765625,0.0
1676922789.491987,-5.37109375,-29.78515625,-28.80859375,-10.7421875,0.0
1676922789.495633,-13.671875,-52.734375,-33.203125,3.90625,0.0
1676922789.499279,-25.390625,-42.96875,-40.52734375,-23.92578125,0.0
1676922789.5029252,-12.6953125,-30.2734375,-51.7578125,-44.43359375,0.0
1676922789.506571,-11.71875,-41.50390625,-48.828125,-31.25,0.0
1676922789.5102172,-11.23046875,-35.15625,-43.45703125,-7.8125,0.0
1676922789.5138633,-6.34765625,-54.19921875,-47.36328125,-5.37109375,0.0
1676922789.5175092,-20.5078125,-55.6640625,-42.96875,-38.57421875,0.0
1676922789.5211554,-27.34375,-39.55078125,-39.0625,-47.36328125,0.0
1676922789.5248015,-38.0859375,-49.31640625,-25.87890625,-1.953125,0.0
1676922789.5284474,-21.484375,-28.3203125,-35.64453125,6.34765625,0.0
1676922789.5320935,-0.9765625,-33.69140625,-49.8046875,-34.1796875,0.0
1676922789.5358465,-28.3203125,-57.6171875,-50.78125,-56.15234375,0.0
1676922789.5395992,-26.85546875,-48.828125,-54.6875,-35.15625,0.0
1676922789.5433521,-20.5078125,-48.828125,-47.36328125,-20.5078125,0.0
1676922789.5471048,-19.53125,-54.6875,-43.45703125,-37.109375,0.0
1676922789.5508578,-2.9296875,-33.69140625,-39.0625,-43.45703125,0.0
1676922789.5546107,-9.27734375,-33.203125,-53.22265625,-20.01953125,0.0
1676922789.5583634,-35.15625,-57.6171875,-52.24609375,-16.11328125,0.0
1676922789.5621164,-28.80859375,-65.91796875,-33.69140625,-37.109375,0.0
1676922789.565869,-8.7890625,-58.59375,-43.9453125,-36.62109375,0.0
1676922789.569622,-9.27734375,-48.828125,-46.38671875,-22.94921875,0.0
1676922789.5733747,-19.04296875,-54.19921875,-41.50390625,-4.8828125,0.0
1676922789.5771277,-20.99609375,-53.7109375,-55.6640625,-4.39453125,0.0
1676922789.5808778,-30.2734375,-55.17578125,-43.45703125,-22.94921875,0.0
1676922789.5846279,-41.50390625,-50.78125,-31.73828125,-30.76171875,0.0
1676922789.588378,-26.85546875,-46.38671875,-51.26953125,-18.5546875,0.0
1676922789.5921283,-19.04296875,-57.12890625,-47.36328125,-5.859375,0.0
1676922789.5958784,-19.53125,-44.921875,-34.1796875,-31.73828125,0.0
1676922789.5996284,-6.34765625,-38.0859375,-36.62109375,-44.921875,0.0
1676922789.6033785,-5.859375,-54.19921875,-45.8984375,-17.578125,0.0
1676922789.6071286,-14.16015625,-53.22265625,-41.50390625,2.44140625,0.0
1676922789.610879,-22.94921875,-48.828125,-40.52734375,-14.6484375,0.0
1676922789.614629,-15.625,-50.78125,-52.734375,-44.921875,0.0
1676922789.618379,-16.6015625,-50.78125,-48.828125,-31.25,0.0
1676922789.6221292,-20.5078125,-62.01171875,-42.48046875,-5.37109375,0.0
1676922789.6259115,-23.4375,-38.57421875,-41.9921875,-21.484375,0.0
1676922789.6296935,-41.50390625,-28.80859375,-65.91796875,-45.41015625,0.0
1676922789.6334758,-48.33984375,-63.4765625,-87.40234375,-45.8984375,0.0
1676922789.6372578,-41.50390625,-71.77734375,-64.94140625,-16.11328125,0.0
1676922789.64104,-35.64453125,-55.6640625,-50.29296875,-1.953125,0.0
1676922789.6448221,-45.41015625,-51.26953125,-47.36328125,-29.296875,0.0
1676922789.6486044,-37.109375,-51.26953125,-59.08203125,-36.1328125,0.0
1676922789.6523867,-33.203125,-43.9453125,-68.84765625,-8.7890625,0.0
1676922789.6561687,-33.203125,-39.55078125,-52.734375,-9.27734375,0.0
1676922789.659951,-30.2734375,-39.0625,-40.52734375,-31.73828125,0.0
1676922789.663733,-33.69140625,-41.50390625,-35.64453125,-32.2265625,0.0
1676922789.6675153,-25.87890625,-68.84765625,-45.8984375,-9.27734375,0.0
1676922789.6712286,-14.6484375,-75.1953125,-57.6171875,3.41796875,0.0
1676922789.6749423,-22.4609375,-47.36328125,-60.05859375,-18.06640625,0.0
1676922789.6786556,-30.76171875,-33.69140625,-62.01171875,-42.96875,0.0
1676922789.6823692,-27.34375,-42.48046875,-57.12890625,-29.78515625,0.0
1676922789.6860826,-28.3203125,-47.36328125,-41.9921875,-0.9765625,0.0
1676922789.689796,-29.296875,-43.45703125,-40.0390625,-18.5546875,0.0
1676922789.6935096,-23.92578125,-44.921875,-51.26953125,-33.203125,0.0
1676922789.697223,-22.4609375,-57.6171875,-48.828125,-14.16015625,0.0
1676922789.7009366,-3.41796875,-54.6875,-43.45703125,0.9765625,0.0
1676922789.70465,-0.9765625,-54.19921875,-43.9453125,-11.71875,0.0
1676922789.7083635,-11.23046875,-41.50390625,-35.64453125,-24.90234375,0.0
1676922789.712077,-12.20703125,-32.71484375,-36.1328125,-22.94921875,0.0
1676922789.7158363,-20.99609375,-55.6640625,-40.0390625,-18.5546875,0.0
1676922789.7195954,-31.73828125,-51.26953125,-48.33984375,-4.8828125,0.0
1676922789.7233548,-28.3203125,-56.640625,-60.05859375,-23.4375,0.0
1676922789.7271142,-15.625,-74.70703125,-42.48046875,-50.78125,0.0
1676922789.7308736,-16.11328125,-63.96484375,-32.71484375,-28.80859375,0.0
1676922789.734633,-19.04296875,-41.50390625,-50.29296875,-12.20703125,0.0
1676922789.738392,-20.99609375,-28.80859375,-50.78125,-17.08984375,0.0
1676922789.7421515,-10.25390625,-22.4609375,-47.8515625,-34.1796875,0.0
1676922789.745911,-2.9296875,-31.25,-42.48046875,-23.92578125,0.0
1676922789.74967,5.37109375,-22.4609375,-13.18359375,7.8125,0.0
1676922789.7534294,11.23046875,-26.85546875,-29.78515625,-6.34765625,0.0
1676922789.7571888,-11.23046875,-54.6875,-58.59375,-51.26953125,0.0
1676922789.7609391,-23.4375,-70.3125,-50.29296875,-51.7578125,0.0
1676922789.7646892,-21.484375,-62.5,-41.50390625,-11.71875,0.0
1676922789.7684395,-36.62109375,-46.38671875,-34.66796875,-19.04296875,0.0
1676922789.7721899,-30.2734375,-54.19921875,-29.78515625,-42.48046875,0.0
1676922789.77594,-20.99609375,-55.6640625,-24.4140625,-27.83203125,0.0
1676922789.7796903,-23.4375,-30.76171875,-22.94921875,-1.46484375,0.0
1676922789.7834406,-21.97265625,-35.15625,-23.92578125,-0.9765625,0.0
1676922789.7871907,-27.34375,-42.48046875,-38.0859375,-32.71484375,0.0
1676922789.790941,-37.59765625,-31.73828125,-45.41015625,-48.33984375,0.0
1676922789.7946913,-35.15625,-45.41015625,-34.66796875,-14.16015625,0.0
1676922789.7984414,-32.2265625,-54.19921875,-26.3671875,6.34765625,0.0
1676922789.8021917,-19.04296875,-56.15234375,-24.90234375,-23.92578125,0.0
1676922789.808435,-14.16015625,-49.8046875,-35.64453125,-44.921875,0.0
1676922789.8146782,-29.296875,-42.96875,-38.57421875,-26.85546875,0.0
1676922789.8209214,-22.94921875,-40.52734375,-36.1328125,-0.9765625,0.0
1676922789.8271646,-21.484375,-43.9453125,-32.71484375,-12.20703125,0.0
1676922789.8334079,-20.99609375,-74.21875,-29.296875,-30.2734375,0.0
1676922789.839651,-17.578125,-73.73046875,-39.55078125,-25.390625,0.0
1676922789.8458943,-22.94921875,-36.62109375,-51.26953125,-6.8359375,0.0
1676922789.8521376,-18.06640625,-27.83203125,-38.0859375,-9.765625,0.0
1676922789.8583808,-32.71484375,-56.640625,-27.34375,-35.15625,0.0
1676922789.864624,-37.59765625,-63.4765625,-35.64453125,-39.0625,0.0
1676922789.8708673,-18.06640625,-35.15625,-25.87890625,-15.625,0.0
1676922789.8771105,-26.3671875,-41.50390625,-15.13671875,-5.37109375,0.0
1676922789.8796186,-26.85546875,-61.03515625,-26.85546875,-21.97265625,0.0
1676922789.8821268,-26.3671875,-67.3828125,-42.48046875,-53.22265625,0.0
1676922789.884635,-42.48046875,-52.734375,-48.828125,-40.52734375,0.0
1676922789.887143,-37.109375,-39.55078125,-57.12890625,-15.625,0.0
1676922789.889651,-41.50390625,-57.6171875,-55.6640625,-44.43359375,0.0
1676922789.8921592,-39.0625,-60.546875,-42.96875,-60.546875,0.0
1676922789.8946674,-38.57421875,-40.52734375,-33.69140625,-37.109375,0.0
1676922789.8971756,-44.43359375,-32.71484375,-34.1796875,-19.53125,0.0
1676922789.8996835,-25.87890625,-36.62109375,-40.52734375,-27.34375,0.0
1676922789.9021916,-28.3203125,-37.109375,-31.25,-47.36328125,0.0
1676922789.9046998,-30.2734375,-23.4375,-31.25,-53.22265625,0.0
1676922789.907208,-20.5078125,-38.57421875,-54.6875,-29.78515625,0.0
1676922789.9109511,-27.83203125,-61.5234375,-48.828125,-12.20703125,0.0
1676922789.9146945,-27.83203125,-55.6640625,-27.83203125,-21.97265625,0.0
1676922789.9184377,-27.83203125,-30.76171875,-32.71484375,-28.80859375,0.0
1676922789.9221811,-40.0390625,-25.390625,-53.7109375,-14.6484375,0.0
1676922789.9259243,-23.4375,-46.38671875,-58.10546875,0.0,0.0
1676922789.9296675,-17.578125,-63.4765625,-46.38671875,-21.484375,0.0
1676922789.933411,-26.85546875,-65.4296875,-32.2265625,-48.828125,0.0
1676922789.937154,-32.71484375,-37.109375,-30.2734375,-30.2734375,0.0
1676922789.9408975,-37.59765625,-25.87890625,-32.2265625,-9.27734375,0.0
1676922789.9446406,-37.109375,-29.78515625,-38.57421875,-29.78515625,0.0
1676922789.948384,-45.41015625,-41.015625,-49.8046875,-51.7578125,0.0
1676922789.9521272,-32.71484375,-46.38671875,-36.62109375,-35.64453125,0.0
1676922789.9571247,-21.97265625,-37.59765625,-30.2734375,-7.8125,0.0
1676922789.9621224,-37.59765625,-41.9921875,-37.109375,-8.30078125,0.0
1676922789.96712,-26.85546875,-52.24609375,-38.57421875,-27.83203125,0.0
1676922789.9721177,-20.01953125,-65.91796875,-33.69140625,-35.15625,0.0
1676922789.9771152,-27.83203125,-73.2421875,-29.78515625,-7.32421875,0.0
1676922789.982113,-19.53125,-54.6875,-42.48046875,9.765625,0.0
1676922789.9871104,-18.5546875,-24.90234375,-36.1328125,-8.7890625,0.0
1676922789.9921079,-25.390625,-29.296875,-28.3203125,-33.69140625,0.0
1676922789.9971056,-28.3203125,-41.50390625,-36.62109375,-16.6015625,0.0
1676922790.002103,-35.15625,-36.62109375,-48.33984375,-2.9296875,0.0
1676922790.0071008,-25.87890625,-33.69140625,-49.31640625,-30.76171875,0.0
1676922790.0120983,-33.69140625,-51.7578125,-43.9453125,-57.6171875,0.0
1676922790.01459,-29.78515625,-47.36328125,-50.78125,-44.921875,0.0
1676922790.0170817,-9.27734375,-42.48046875,-50.78125,-10.7421875,0.0
1676922790.0195732,-12.6953125,-61.5234375,-51.7578125,-19.53125,0.0
1676922790.022065,-8.30078125,-50.29296875,-49.31640625,-46.38671875,0.0
1676922790.0245566,-8.30078125,-43.9453125,-49.8046875,-32.2265625,0.0
1676922790.027048,-18.06640625,-50.29296875,-57.12890625,-9.765625,0.0
1676922790.0295398,-15.625,-45.41015625,-36.1328125,-8.30078125,0.0
1676922790.0320315,-26.3671875,-42.48046875,-22.94921875,-28.80859375,0.0
1676922790.0345232,-22.94921875,-54.6875,-37.59765625,-38.57421875,0.0
1676922790.037015,3.41796875,-52.734375,-41.50390625,-12.20703125,0.0
1676922790.0395064,0.48828125,-36.1328125,-35.15625,-0.48828125,0.0
1676922790.0419981,-9.765625,-37.109375,-38.57421875,-18.06640625,0.0
1676922790.0457587,-11.23046875,-39.55078125,-46.38671875,-30.2734375,0.0
1676922790.0495195,-12.20703125,-28.3203125,-44.43359375,-9.765625,0.0
1676922790.0532804,-12.20703125,-45.41015625,-51.7578125,-4.39453125,0.0
1676922790.057041,-19.53125,-48.33984375,-56.640625,-31.25,0.0
1676922790.0608015,-28.80859375,-47.8515625,-52.734375,-45.41015625,0.0
1676922790.0645623,-24.90234375,-63.4765625,-52.24609375,-36.62109375,0.0
1676922790.0683231,-19.53125,-55.6640625,-60.546875,-16.11328125,0.0
1676922790.0720837,-12.20703125,-30.2734375,-60.05859375,-8.30078125,0.0
1676922790.0758443,-20.99609375,-36.62109375,-38.0859375,-37.109375,0.0
1676922790.079605,-33.203125,-53.7109375,-33.69140625,-47.36328125,0.0
1676922790.083366,-20.99609375,-47.36328125,-46.38671875,-11.23046875,0.0
1676922790.0871265,-22.94921875,-52.734375,-45.8984375,-9.765625,0.0
1676922790.090958,-30.2734375,-48.33984375,-45.41015625,-47.36328125,0.0
1676922790.0947895,-16.6015625,-32.71484375,-48.33984375,-50.29296875,0.0
1676922790.0986211,-20.5078125,-28.3203125,-53.22265625,-19.04296875,0.0
1676922790.1024525,-35.64453125,-35.64453125,-58.59375,-3.90625,0.0
1676922790.1062841,-19.53125,-59.08203125,-48.33984375,-14.16015625,0.0
1676922790.1101155,-21.97265625,-69.3359375,-35.64453125,-30.76171875,0.0
1676922790.1139472,-26.3671875,-44.43359375,-36.62109375,-4.39453125,0.0
1676922790.1177788,-0.48828125,-35.64453125,-45.41015625,21.484375,0.0
1676922790.1216102,-18.5546875,-40.0390625,-38.0859375,-17.578125,0.0
1676922790.1254418,-34.66796875,-40.0390625,-31.73828125,-49.31640625,0.0
1676922790.1292732,-27.83203125,-25.390625,-28.80859375,-23.92578125,0.0
1676922790.1331048,-13.18359375,-28.80859375,-25.390625,-5.859375,0.0
1676922790.1367784,-15.625,-43.9453125,-47.36328125,-18.5546875,0.0
1676922790.140452,-25.87890625,-32.71484375,-51.7578125,-25.390625,0.0
1676922790.1441252,-29.296875,-42.48046875,-28.80859375,-28.80859375,0.0
1676922790.1477988,-28.80859375,-73.2421875,-20.99609375,-3.41796875,0.0
1676922790.1514723,-29.296875,-56.640625,-37.109375,-1.953125,0.0
1676922790.1551456,-31.25,-39.55078125,-43.45703125,-19.04296875,0.0
1676922790.1588192,-17.08984375,-45.8984375,-36.62109375,-23.92578125,0.0
1676922790.1624928,-12.6953125,-38.0859375,-39.0625,-8.30078125,0.0
1676922790.1661663,-35.64453125,-32.71484375,-45.8984375,3.90625,0.0
1676922790.1698399,-37.109375,-20.99609375,-48.33984375,-30.76171875,0.0
1676922790.1735132,-25.87890625,-26.85546875,-41.9921875,-52.734375,0.0
1676922790.1771867,-21.484375,-50.78125,-43.45703125,-28.3203125,0.0
1676922790.183435,-18.5546875,-66.89453125,-52.24609375,-5.859375,0.0
1676922790.189683,-24.90234375,-78.125,-41.50390625,-17.08984375,0.0
1676922790.1959312,-19.04296875,-64.94140625,-30.2734375,-37.59765625,0.0
1676922790.2021792,-16.11328125,-61.03515625,-42.48046875,-38.0859375,0.0
1676922790.2084274,-33.69140625,-67.3828125,-51.7578125,-4.39453125,0.0
1676922790.2146754,-48.33984375,-41.9921875,-51.26953125,0.0,0.0
1676922790.2209237,-32.2265625,-32.71484375,-60.05859375,-34.1796875,0.0
1676922790.227172,-17.08984375,-46.38671875,-62.98828125,-33.203125,0.0
1676922790.23342,-26.3671875,-29.78515625,-35.64453125,-8.7890625,0.0
1676922790.2396681,-24.90234375,-38.57421875,-28.3203125,7.8125,0.0
1676922790.2459161,-27.34375,-60.05859375,-44.921875,-15.13671875,0.0
1676922790.2521644,-28.3203125,-44.43359375,-24.4140625,-31.73828125,0.0
1676922790.254661,-12.20703125,-68.359375,-12.20703125,3.41796875,0.0
1676922790.2571576,-20.01953125,-82.51953125,-34.66796875,15.625,0.0
1676922790.259654,-30.76171875,-36.1328125,-41.9921875,-8.30078125,0.0
1676922790.2621508,-36.62109375,-26.3671875,-51.26953125,-41.015625,0.0
1676922790.2646475,-4.8828125,-29.78515625,-48.828125,-20.99609375,0.0
1676922790.267144,-10.7421875,-20.5078125,-38.57421875,8.7890625,0.0
1676922790.2696404,-19.53125,-32.71484375,-54.6875,-4.39453125,0.0
1676922790.2721372,-15.13671875,-45.41015625,-57.6171875,-26.85546875,0.0
1676922790.274634,-24.90234375,-53.7109375,-40.52734375,-26.85546875,0.0
1676922790.2771304,-17.578125,-45.8984375,-29.78515625,4.39453125,0.0
1676922790.2796268,-24.90234375,-34.1796875,-24.4140625,10.25390625,0.0
1676922790.2821236,-20.5078125,-31.25,-27.34375,-28.80859375,0.0
1676922790.2858696,-21.484375,-40.0390625,-24.90234375,-33.69140625,0.0
1676922790.2896154,-22.4609375,-29.296875,-23.4375,0.48828125,0.0
1676922790.2933612,-6.34765625,-31.25,-22.94921875,2.44140625,0.0
1676922790.2971072,-3.41796875,-53.22265625,-37.109375,-20.5078125,0.0
1676922790.3008533,-3.41796875,-37.109375,-48.828125,-35.15625,0.0
1676922790.304599,-15.13671875,-30.2734375,-36.1328125,-11.71875,0.0
1676922790.3083448,-18.5546875,-34.1796875,-28.80859375,2.9296875,0.0
1676922790.3120909,-11.71875,-36.62109375,-42.96875,-24.90234375,0.0
1676922790.315837,-20.5078125,-35.15625,-41.9921875,-44.43359375,0.0
1676922790.3195827,-20.99609375,-47.8515625,-30.2734375,-28.80859375,0.0
1676922790.3233285,-7.8125,-47.8515625,-33.69140625,-4.39453125,0.0
1676922790.3270745,-8.7890625,-38.0859375,-40.0390625,-2.9296875,0.0
1676922790.3309288,-8.7890625,-37.59765625,-36.1328125,-27.83203125,0.0
1676922790.3347828,-16.11328125,-34.66796875,-37.59765625,-26.3671875,0.0
1676922790.338637,-20.01953125,-53.22265625,-46.38671875,-2.9296875,0.0
1676922790.3424911,-29.296875,-45.41015625,-49.31640625,-11.23046875,0.0
1676922790.3463454,-36.62109375,-23.4375,-49.8046875,-36.1328125,0.0
1676922790.3501997,-38.57421875,-40.0390625,-48.828125,-53.7109375,0.0
1676922790.3540537,-31.73828125,-34.1796875,-43.45703125,-23.4375,0.0
1676922790.357908,-31.25,-34.1796875,-40.52734375,1.46484375,0.0
1676922790.361762,-36.1328125,-57.6171875,-44.43359375,-31.73828125,0.0
1676922790.3656163,-27.34375,-59.5703125,-27.34375,-50.29296875,0.0
1676922790.3694704,-31.73828125,-54.19921875,-16.6015625,-22.4609375,0.0
1676922790.3733246,-39.55078125,-41.015625,-35.64453125,-14.6484375,0.0
1676922790.3782244,-33.69140625,-53.22265625,-45.41015625,-37.109375,0.0
1676922790.383124,-29.78515625,-66.40625,-41.015625,-64.453125,0.0
1676922790.3880239,-36.62109375,-41.015625,-47.8515625,-44.43359375,0.0
1676922790.3929236,-30.76171875,-31.25,-51.26953125,-11.23046875,0.0
1676922790.3978233,-32.2265625,-54.6875,-47.36328125,-20.01953125,0.0
1676922790.4027233,-34.1796875,-61.03515625,-44.43359375,-40.52734375,0.0
1676922790.407623,-28.80859375,-59.5703125,-27.83203125,-35.64453125,0.0
1676922790.4125228,-27.83203125,-57.12890625,-21.484375,6.8359375,0.0
1676922790.4174225,-26.85546875,-47.36328125,-20.99609375,15.13671875,0.0
1676922790.4223223,-16.11328125,-48.33984375,-26.85546875,-22.94921875,0.0
1676922790.427222,-22.4609375,-43.9453125,-37.59765625,-37.59765625,0.0
1676922790.4321218,-21.484375,-31.25,-25.390625,-12.20703125,0.0
1676922790.435869,-17.08984375,-23.4375,-46.38671875,-3.41796875,0.0
1676922790.4396162,-28.80859375,-35.15625,-63.96484375,-29.296875,0.0
1676922790.4433637,-26.3671875,-61.5234375,-29.78515625,-50.29296875,0.0
1676922790.447111,-24.4140625,-54.19921875,-21.97265625,-32.2265625,0.0
1676922790.450858,-23.92578125,-36.62109375,-29.78515625,-1.46484375,0.0
1676922790.4546056,-12.6953125,-33.203125,-25.390625,-13.18359375,0.0
1676922790.4583528,-19.53125,-51.26953125,-27.34375,-38.57421875,0.0
1676922790.4621,-43.45703125,-58.10546875,-38.0859375,-34.66796875,0.0
1676922790.4658473,-44.43359375,-36.62109375,-43.45703125,-3.90625,0.0
1676922790.4695945,-23.92578125,-42.48046875,-34.66796875,4.8828125,0.0
1676922790.473342,-13.18359375,-50.29296875,-38.0859375,-18.06640625,0.0
1676922790.4770892,-16.11328125,-46.38671875,-43.9453125,-29.78515625,0.0
1676922790.479592,-21.484375,-17.08984375,-29.296875,-12.6953125,0.0
1676922790.482095,-16.6015625,-19.53125,-25.87890625,-0.48828125,0.0
1676922790.484598,-21.484375,-54.6875,-24.4140625,-34.1796875,0.0
1676922790.4871008,-34.1796875,-56.15234375,-22.4609375,-58.10546875,0.0
1676922790.4896038,-28.3203125,-63.4765625,-39.0625,-25.87890625,0.0
1676922790.492107,-20.5078125,-46.38671875,-44.921875,-7.8125,0.0
1676922790.4946098,-7.8125,-36.1328125,-40.0390625,-28.80859375,0.0
1676922790.4971128,-9.765625,-51.7578125,-45.41015625,-42.96875,0.0
1676922790.4996157,-21.484375,-57.12890625,-50.78125,-26.3671875,0.0
1676922790.5021186,-33.203125,-60.05859375,-45.8984375,-15.625,0.0
1676922790.5046215,-33.69140625,-53.22265625,-41.015625,-18.06640625,0.0
1676922790.5071244,-26.3671875,-55.17578125,-48.33984375,-47.8515625,0.0
1676922790.5110145,-29.296875,-31.73828125,-49.8046875,-47.36328125,0.0
1676922790.5149043,-27.83203125,-21.97265625,-32.71484375,-2.9296875,0.0
1676922790.518794,-34.1796875,-48.33984375,-28.80859375,-2.44140625,0.0
1676922790.522684,-30.76171875,-58.10546875,-41.9921875,-34.1796875,0.0
1676922790.5265741,-19.04296875,-43.45703125,-45.41015625,-43.9453125,0.0
1676922790.530464,-20.01953125,-42.96875,-33.203125,-10.7421875,0.0
1676922790.5343537,-14.6484375,-48.828125,-23.4375,5.859375,0.0
1676922790.5382438,-9.765625,-55.17578125,-20.99609375,-32.2265625,0.0
1676922790.5421338,-22.94921875,-42.48046875,-39.0625,-50.29296875,0.0
1676922790.5460236,-27.83203125,-37.59765625,-55.17578125,-25.390625,0.0
1676922790.5499134,-33.203125,-32.2265625,-49.31640625,2.44140625,0.0
1676922790.5538034,-34.1796875,-36.1328125,-41.9921875,-23.92578125,0.0
1676922790.5586538,-32.2265625,-62.5,-20.5078125,-44.921875,0.0
1676922790.5635042,-28.3203125,-38.0859375,-20.5078125,-23.4375,0.0
1676922790.5683546,-26.85546875,-24.90234375,-40.52734375,-14.16015625,0.0
1676922790.573205,-20.99609375,-45.8984375,-50.78125,-21.484375,0.0
1676922790.5780554,-30.2734375,-49.31640625,-40.52734375,-43.9453125,0.0
1676922790.5829058,-27.34375,-42.96875,-21.97265625,-28.3203125,0.0
1676922790.5877562,-16.11328125,-41.9921875,-34.66796875,-4.8828125,0.0
1676922790.5926065,-32.2265625,-28.80859375,-57.12890625,-32.2265625,0.0
1676922790.597457,-36.1328125,-23.92578125,-64.94140625,-55.6640625,0.0
1676922790.6023073,-39.55078125,-33.69140625,-57.12890625,-52.734375,0.0
1676922790.6071577,-31.73828125,-38.0859375,-47.36328125,-28.3203125,0.0
1676922790.612008,-20.99609375,-47.36328125,-40.0390625,-3.90625,0.0
1676922790.615826,-16.11328125,-65.91796875,-31.73828125,-24.4140625,0.0
1676922790.619644,-20.5078125,-54.6875,-32.71484375,-47.8515625,0.0
1676922790.6234617,-25.390625,-48.828125,-31.25,-17.578125,0.0
1676922790.6272798,-20.01953125,-81.54296875,-33.203125,4.8828125,0.0
1676922790.6310976,-15.13671875,-75.68359375,-44.921875,-13.671875,0.0
1676922790.6349154,-25.390625,-35.15625,-57.12890625,-38.0859375,0.0
1676922790.6387334,-25.390625,-20.01953125,-62.01171875,-24.90234375,0.0
1676922790.6425512,-28.3203125,-18.5546875,-42.96875,-3.90625,0.0
1676922790.6463692,-22.94921875,-21.484375,-31.73828125,-9.765625,0.0
1676922790.650187,-19.53125,-35.15625,-51.26953125,-24.4140625,0.0
1676922790.654005,-32.71484375,-53.22265625,-44.921875,-20.5078125,0.0
1676922790.6578228,-26.3671875,-53.7109375,-27.83203125,6.8359375,0.0
1676922790.6615148,-19.53125,-32.2265625,-25.390625,5.859375,0.0
1676922790.6652067,-32.2265625,-33.203125,-37.59765625,-30.2734375,0.0
1676922790.6688986,-31.25,-50.29296875,-32.2265625,-29.78515625,0.0
1676922790.6725903,-25.87890625,-46.875,-43.45703125,-7.8125,0.0
1676922790.6762822,-22.4609375,-51.26953125,-72.265625,-5.859375,0.0
1676922790.679974,-28.80859375,-54.19921875,-56.15234375,-22.4609375,0.0
1676922790.683666,-35.64453125,-33.69140625,-41.9921875,-34.66796875,0.0
1676922790.687358,-9.27734375,-38.57421875,-40.52734375,-11.71875,0.0
1676922790.6910496,-15.13671875,-71.77734375,-40.0390625,9.765625,0.0
1676922790.6947415,-31.25,-52.24609375,-31.25,2.9296875,0.0
1676922790.6984334,-24.4140625,-25.87890625,-17.578125,-13.671875,0.0
1676922790.7021253,-15.625,-41.015625,-26.3671875,-10.7421875,0.0
1676922790.7058756,-28.80859375,-48.33984375,-36.62109375,3.41796875,0.0
1676922790.7096262,-31.73828125,-46.38671875,-46.875,-3.41796875,0.0
1676922790.7133765,-23.92578125,-30.2734375,-62.5,-27.34375,0.0
1676922790.7171268,-25.390625,-45.8984375,-62.98828125,-32.2265625,0.0
1676922790.7208772,-23.92578125,-55.6640625,-42.48046875,-0.9765625,0.0
1676922790.7246275,-26.85546875,-29.78515625,-40.0390625,-0.48828125,0.0
1676922790.728378,-24.4140625,-41.50390625,-43.9453125,-31.73828125,0.0
1676922790.7321284,-38.57421875,-65.91796875,-54.6875,-47.36328125,0.0
1676922790.7358787,-26.85546875,-53.7109375,-50.78125,-17.578125,0.0
1676922790.7396293,-32.2265625,-47.8515625,-30.76171875,-9.765625,0.0
1676922790.7433796,-43.45703125,-57.12890625,-36.1328125,-24.90234375,0.0
1676922790.74713,-17.08984375,-61.03515625,-47.8515625,-36.62109375,0.0
1676922790.7509713,-20.5078125,-37.59765625,-48.828125,-26.85546875,0.0
1676922790.7548127,-12.20703125,-17.578125,-42.96875,3.90625,0.0
1676922790.758654,-22.94921875,-32.2265625,-58.10546875,-16.11328125,0.0
1676922790.7624953,-35.15625,-37.109375,-67.87109375,-48.33984375,0.0
1676922790.7663367,-26.85546875,-33.203125,-50.78125,-36.1328125,0.0
1676922790.770178,-31.25,-47.8515625,-39.0625,-10.25390625,0.0
1676922790.7740195,-25.390625,-59.5703125,-47.8515625,-13.18359375,0.0
1676922790.7778609,-30.2734375,-56.640625,-55.6640625,-29.78515625,0.0
1676922790.781702,-35.15625,-38.0859375,-40.52734375,-32.2265625,0.0
1676922790.7855434,-22.4609375,-33.69140625,-38.0859375,-22.4609375,0.0
1676922790.7893848,-7.32421875,-49.8046875,-37.109375,2.44140625,0.0
1676922790.7932262,-8.30078125,-44.921875,-30.2734375,-0.48828125,0.0
1676922790.7968843,-22.94921875,-28.80859375,-33.69140625,-36.1328125,0.0
1676922790.8005424,-22.4609375,-31.73828125,-42.48046875,-31.25,0.0
1676922790.8042006,-9.765625,-43.9453125,-39.0625,-1.953125,0.0
1676922790.8078587,-7.32421875,-50.29296875,-19.53125,-5.37109375,0.0
1676922790.8115168,-21.97265625,-68.84765625,-38.57421875,-39.55078125,0.0
1676922790.815175,-37.109375,-59.5703125,-55.17578125,-33.69140625,0.0
1676922790.818833,-36.62109375,-50.29296875,-51.7578125,-5.859375,0.0
1676922790.8224912,-22.4609375,-48.33984375,-47.8515625,-18.06640625,0.0
1676922790.8261492,-30.2734375,-34.1796875,-43.45703125,-42.96875,0.0
1676922790.8298073,-30.2734375,-31.25,-39.55078125,-34.66796875,0.0
1676922790.8334656,-9.27734375,-54.6875,-26.85546875,-3.90625,0.0
1676922790.8371236,-23.92578125,-73.2421875,-42.96875,-16.6015625,0.0
1676922790.840871,-38.57421875,-70.80078125,-54.6875,-41.015625,0.0
1676922790.8446186,-30.2734375,-57.12890625,-51.7578125,-41.9921875,0.0
1676922790.848366,-28.3203125,-56.15234375,-45.41015625,-11.71875,0.0
1676922790.8521135,-10.7421875,-66.40625,-29.296875,8.30078125,0.0
1676922790.855861,-20.99609375,-58.10546875,-39.55078125,-30.76171875,0.0
1676922790.8596082,-26.85546875,-32.2265625,-51.7578125,-47.8515625,0.0
1676922790.8633556,-14.6484375,-27.83203125,-41.9921875,1.46484375,0.0
1676922790.867103,-14.6484375,-28.80859375,-33.69140625,9.765625,0.0
1676922790.8708506,-4.8828125,-29.78515625,-24.90234375,-22.94921875,0.0
1676922790.874598,-4.8828125,-38.0859375,-23.4375,-37.59765625,0.0
1676922790.8783455,-16.6015625,-43.9453125,-45.41015625,-33.69140625,0.0
1676922790.882093,-29.78515625,-59.5703125,-51.26953125,-11.23046875,0.0
1676922790.8858476,-14.6484375,-53.22265625,-37.109375,-5.859375,0.0
1676922790.889602,10.7421875,-55.17578125,-26.85546875,-9.27734375,0.0
1676922790.8933563,-6.8359375,-55.17578125,-36.1328125,-27.83203125,0.0
1676922790.897111,-20.99609375,-60.546875,-34.66796875,-8.7890625,0.0
1676922790.9008656,-30.2734375,-50.29296875,-37.59765625,0.0,0.0
1676922790.90462,-30.76171875,-19.04296875,-49.8046875,-31.25,0.0
1676922790.9083743,-30.76171875,-29.78515625,-37.109375,-34.66796875,0.0
1676922790.912129,-22.94921875,-40.52734375,-31.25,-20.5078125,0.0
1676922790.9158835,-41.015625,-38.57421875,-38.0859375,-8.30078125,0.0
1676922790.919638,-54.19921875,-60.05859375,-46.38671875,-26.85546875,0.0
1676922790.9233923,-31.25,-81.54296875,-51.7578125,-46.38671875,0.0
1676922790.927147,-28.80859375,-76.66015625,-48.33984375,-26.3671875,0.0
1676922790.9322462,-34.66796875,-51.7578125,-51.7578125,1.953125,0.0
1676922790.9373453,-32.71484375,-30.76171875,-53.7109375,-3.41796875,0.0
1676922790.9424446,-17.08984375,-26.3671875,-40.0390625,-19.04296875,0.0
1676922790.9475439,-9.765625,-40.0390625,-27.83203125,-9.765625,0.0
1676922790.952643,-18.06640625,-51.7578125,-44.921875,7.8125,0.0
1676922790.9577422,-20.99609375,-47.8515625,-53.7109375,10.7421875,0.0
1676922790.9628415,-21.484375,-39.0625,-44.921875,-13.671875,0.0
1676922790.9679406,-26.3671875,-44.43359375,-40.0390625,-39.0625,0.0
1676922790.9730399,-18.06640625,-59.5703125,-31.73828125,-7.32421875,0.0
1676922790.9781392,-22.4609375,-65.91796875,-31.25,5.859375,0.0
1676922790.9832382,-22.4609375,-52.734375,-26.85546875,-23.92578125,0.0
1676922790.9883375,-16.6015625,-34.66796875,-29.296875,-44.43359375,0.0
1676922790.9920168,-24.90234375,-25.87890625,-38.57421875,-21.97265625,0.0
1676922790.995696,-25.390625,-33.203125,-53.22265625,-0.48828125,0.0
1676922790.9993753,-9.27734375,-47.36328125,-50.78125,-24.90234375,0.0
1676922791.0030546,-11.23046875,-44.921875,-41.015625,-37.59765625,0.0
1676922791.006734,-29.296875,-42.48046875,-37.109375,-26.3671875,0.0
1676922791.0104132,-26.85546875,-48.33984375,-21.484375,-10.25390625,0.0
1676922791.0140922,-13.18359375,-38.57421875,-31.73828125,-16.6015625,0.0
1676922791.0177715,-19.53125,-26.3671875,-44.921875,-48.828125,0.0
1676922791.0214508,-26.85546875,-41.015625,-50.29296875,-31.25,0.0
1676922791.02513,-35.64453125,-51.7578125,-39.0625,15.625,0.0
1676922791.0288093,-45.8984375,-57.12890625,-43.45703125,-13.671875,0.0
1676922791.0324886,-44.43359375,-44.921875,-60.05859375,-49.8046875,0.0
1676922791.0362287,-42.96875,-42.48046875,-50.29296875,-45.8984375,0.0
1676922791.0399687,-20.5078125,-42.96875,-28.3203125,-14.6484375,0.0
1676922791.0437088,-8.30078125,-56.640625,-22.94921875,-5.37109375,0.0
1676922791.0474489,-32.2265625,-64.453125,-48.828125,-33.69140625,0.0
1676922791.051189,-21.484375,-24.4140625,-41.50390625,-39.55078125,0.0
1676922791.0549288,-13.18359375,-17.578125,-30.76171875,-24.90234375,0.0
1676922791.0586689,-18.06640625,-36.62109375,-41.9921875,-11.71875,0.0
1676922791.062409,-20.01953125,-35.15625,-37.109375,-20.99609375,0.0
1676922791.066149,-32.71484375,-40.0390625,-34.1796875,-29.296875,0.0
1676922791.069889,-31.25,-49.31640625,-39.0625,-24.4140625,0.0
1676922791.0736291,-34.66796875,-54.19921875,-50.29296875,-19.04296875,0.0
1676922791.0773692,-33.203125,-56.15234375,-54.6875,-18.5546875,0.0
1676922791.0810962,-39.55078125,-38.0859375,-38.57421875,-34.66796875,0.0
1676922791.0848231,-24.90234375,-28.80859375,-32.71484375,-23.4375,0.0
1676922791.08855,-21.484375,-46.875,-37.59765625,9.765625,0.0
1676922791.092277,-18.5546875,-35.64453125,-27.83203125,17.578125,0.0
1676922791.096004,-1.953125,-10.25390625,-40.0390625,-14.6484375,0.0
1676922791.099731,-21.97265625,-37.59765625,-42.48046875,-43.45703125,0.0
1676922791.103458,-25.390625,-51.26953125,-30.2734375,-17.578125,0.0
1676922791.107185,-25.87890625,-41.9921875,-39.0625,3.41796875,0.0
1676922791.1109118,-22.4609375,-41.50390625,-42.96875,-5.37109375,0.0
1676922791.1146388,-5.859375,-35.64453125,-45.8984375,-27.34375,0.0
1676922791.1183658,-10.25390625,-26.85546875,-65.4296875,-9.27734375,0.0
1676922791.1220927,-12.20703125,-23.4375,-56.640625,17.08984375,0.0
1676922791.1270952,-2.9296875,-42.96875,-33.69140625,0.48828125,0.0
1676922791.1320977,-16.6015625,-68.359375,-31.73828125,-31.25,0.0
1676922791.1371002,-19.53125,-47.8515625,-34.1796875,-24.4140625,0.0
1676922791.1421027,-14.6484375,-26.3671875,-40.0390625,6.8359375,0.0
1676922791.1471052,-16.6015625,-28.80859375,-38.57421875,-12.6953125,0.0
1676922791.1521077,-16.11328125,-43.9453125,-36.62109375,-39.55078125,0.0
1676922791.1571102,-12.6953125,-51.26953125,-49.8046875,-23.92578125,0.0
1676922791.1621127,-12.20703125,-33.203125,-43.45703125,8.7890625,0.0
1676922791.1671152,2.9296875,-34.1796875,-40.52734375,9.765625,0.0
1676922791.1721177,-3.90625,-44.921875,-52.24609375,-21.97265625,0.0
1676922791.1771202,-9.27734375,-47.8515625,-44.921875,-26.3671875,0.0
1676922791.1821227,-8.30078125,-44.43359375,-47.36328125,-9.27734375,0.0
1676922791.1846552,-14.16015625,-42.48046875,-32.71484375,-2.9296875,0.0
1676922791.1871877,-1.46484375,-36.1328125,-18.5546875,-16.6015625,0.0
1676922791.1897202,-3.41796875,-32.71484375,-27.83203125,-34.66796875,0.0
1676922791.1922526,-12.6953125,-48.33984375,-34.66796875,-10.7421875,0.0
1676922791.194785,-8.7890625,-50.78125,-30.76171875,4.39453125,0.0
1676922791.1973176,-14.6484375,-58.59375,-33.69140625,-20.01953125,0.0
1676922791.19985,-37.109375,-61.5234375,-49.8046875,-42.48046875,0.0
1676922791.2023826,-28.80859375,-61.03515625,-52.734375,-41.015625,0.0
1676922791.204915,-26.85546875,-55.6640625,-40.52734375,-14.6484375,0.0
1676922791.2074475,-23.4375,-36.62109375,-43.45703125,-6.8359375,0.0
1676922791.20998,-11.23046875,-28.3203125,-45.8984375,-25.87890625,0.0
1676922791.2125125,-16.11328125,-35.15625,-45.41015625,-21.484375,0.0
1676922791.2162275,-15.13671875,-61.03515625,-53.22265625,-2.9296875,0.0
1676922791.2199426,-25.390625,-47.8515625,-47.8515625,-10.7421875,0.0
1676922791.2236576,-35.15625,-26.3671875,-42.96875,-37.109375,0.0
1676922791.2273724,-24.4140625,-50.29296875,-39.0625,-46.875,0.0
1676922791.2310874,-41.9921875,-68.359375,-48.33984375,-29.296875,0.0
1676922791.2348025,-31.25,-49.31640625,-55.17578125,-8.30078125,0.0
1676922791.2385175,-7.8125,-35.64453125,-53.7109375,-8.30078125,0.0
1676922791.2422326,-20.01953125,-42.48046875,-57.12890625,-33.203125,0.0
1676922791.2459474,-21.484375,-41.015625,-41.9921875,-34.1796875,0.0
1676922791.2496624,-35.15625,-41.015625,-30.2734375,-11.23046875,0.0
1676922791.2533774,-42.48046875,-38.0859375,-34.1796875,-19.53125,0.0
1676922791.2570925,-32.2265625,-50.78125,-34.1796875,-41.015625,0.0
1676922791.260855,-39.55078125,-56.640625,-35.15625,-38.57421875,0.0
1676922791.2646172,-44.921875,-48.33984375,-41.50390625,-12.6953125,0.0
1676922791.2683797,-39.0625,-48.828125,-36.62109375,-2.44140625,0.0
1676922791.2721422,-20.99609375,-54.19921875,-31.25,-33.69140625,0.0
1676922791.2759044,-30.2734375,-65.4296875,-32.71484375,-44.921875,0.0
1676922791.279667,-35.64453125,-71.2890625,-39.0625,-10.25390625,0.0
1676922791.2834294,-23.4375,-59.5703125,-56.640625,-3.41796875,0.0
1676922791.2871916,-29.78515625,-34.66796875,-58.59375,-38.0859375,0.0
1676922791.290954,-33.203125,-32.71484375,-47.36328125,-53.22265625,0.0
1676922791.2947166,-34.1796875,-59.08203125,-45.8984375,-14.6484375,0.0
1676922791.2984788,-30.76171875,-61.5234375,-35.15625,10.7421875,0.0
1676922791.3022413,-19.53125,-40.0390625,-35.64453125,-18.06640625,0.0
1676922791.307271,-15.625,-42.96875,-39.0625,-36.1328125,0.0
1676922791.3123007,-10.25390625,-41.9921875,-35.64453125,-8.30078125,0.0
1676922791.3173304,-0.48828125,-19.04296875,-39.0625,8.7890625,0.0
1676922791.3223603,-10.25390625,-21.484375,-33.69140625,-19.04296875,0.0
1676922791.32739,-15.625,-58.59375,-45.41015625,-39.0625,0.0
1676922791.3324196,-29.296875,-68.359375,-65.4296875,-25.390625,0.0
1676922791.3374493,-36.62109375,-45.8984375,-53.22265625,-9.765625,0.0
1676922791.342479,-16.6015625,-33.69140625,-34.66796875,-12.6953125,0.0
1676922791.347509,-4.39453125,-26.85546875,-29.78515625,-30.2734375,0.0
1676922791.3525386,2.44140625,-44.921875,-36.62109375,-24.90234375,0.0
1676922791.3575683,-29.78515625,-58.59375,-41.50390625,-15.13671875,0.0
1676922791.362598,-36.62109375,-38.57421875,-39.0625,-17.578125,0.0
1676922791.3688085,-19.04296875,-24.90234375,-38.0859375,-35.15625,0.0
1676922791.3750193,-25.390625,-42.96875,-38.0859375,-49.31640625,0.0
1676922791.3812299,-26.85546875,-70.3125,-41.9921875,-29.296875,0.0
1676922791.3874407,-31.25,-59.5703125,-44.921875,-19.53125,0.0
1676922791.3936512,-18.5546875,-35.64453125,-37.59765625,-14.6484375,0.0
1676922791.3998618,-29.78515625,-53.22265625,-39.55078125,-36.1328125,0.0
1676922791.4060726,-31.25,-62.01171875,-48.33984375,-32.71484375,0.0
1676922791.4122832,-5.859375,-41.015625,-50.78125,0.0,0.0
1676922791.418494,-11.23046875,-33.203125,-42.48046875,-9.27734375,0.0
1676922791.4247046,-30.76171875,-65.4296875,-39.0625,-42.96875,0.0
1676922791.4309154,-37.59765625,-62.98828125,-41.9921875,-46.875,0.0
1676922791.437126,-29.296875,-37.109375,-38.0859375,-15.625,0.0
1676922791.4383833,-17.08984375,-28.3203125,-25.87890625,3.90625,0.0
1676922791.4396408,-13.671875,-32.71484375,-32.71484375,-13.18359375,0.0
1676922791.4408982,-13.671875,-42.96875,-41.50390625,-21.97265625,0.0
1676922791.4421556,-14.16015625,-40.52734375,-47.8515625,2.44140625,0.0
1676922791.443413,-20.01953125,-40.52734375,-54.19921875,8.7890625,0.0
1676922791.4446707,-26.85546875,-43.45703125,-38.57421875,-18.06640625,0.0
1676922791.445928,-41.9921875,-52.734375,-30.76171875,-44.43359375,0.0
1676922791.4471855,-38.57421875,-41.50390625,-36.62109375,-24.4140625,0.0
1676922791.448443,-22.4609375,-32.71484375,-39.55078125,2.44140625,0.0
1676922791.4497004,-21.97265625,-41.9921875,-41.015625,-28.80859375,0.0
1676922791.4509578,-38.0859375,-60.05859375,-38.57421875,-51.26953125,0.0
1676922791.4522152,-41.9921875,-59.5703125,-43.45703125,-36.1328125,0.0
1676922791.4559548,-26.85546875,-47.36328125,-44.921875,-11.71875,0.0
1676922791.4596944,-40.52734375,-48.33984375,-39.0625,-25.87890625,0.0
1676922791.463434,-41.50390625,-46.875,-40.0390625,-55.17578125,0.0
1676922791.4671736,-27.34375,-39.55078125,-41.015625,-49.8046875,0.0
1676922791.4709132,-24.90234375,-45.8984375,-43.9453125,-11.23046875,0.0
1676922791.4746528,-17.08984375,-44.921875,-48.33984375,-2.9296875,0.0
1676922791.4783924,-20.01953125,-36.1328125,-60.546875,-31.73828125,0.0
1676922791.482132,-17.08984375,-46.38671875,-49.8046875,-43.9453125,0.0
1676922791.4858716,-2.44140625,-43.9453125,-12.20703125,-14.6484375,0.0
1676922791.4896111,-16.6015625,-36.62109375,-15.13671875,4.39453125,0.0
1676922791.4933507,-39.55078125,-46.875,-45.8984375,-35.15625,0.0
1676922791.4970903,-29.78515625,-62.98828125,-52.24609375,-47.8515625,0.0
1676922791.5009053,-25.390625,-62.98828125,-45.8984375,-19.04296875,0.0
1676922791.50472,-37.59765625,-40.0390625,-38.0859375,-4.39453125,0.0
1676922791.508535,-29.296875,-40.52734375,-41.50390625,-21.97265625,0.0
1676922791.5123498,-17.578125,-56.640625,-47.36328125,-44.43359375,0.0
1676922791.5161645,-28.3203125,-48.33984375,-47.8515625,-39.0625,0.0
1676922791.5199795,-33.69140625,-52.734375,-41.015625,-13.18359375,0.0
1676922791.5237944,-24.90234375,-51.7578125,-26.85546875,-3.90625,0.0
1676922791.527609,-23.92578125,-41.015625,-35.64453125,-24.4140625,0.0
1676922791.531424,-27.83203125,-45.41015625,-46.875,-39.55078125,0.0
1676922791.535239,-19.04296875,-54.6875,-35.15625,-22.4609375,0.0
1676922791.5390537,-15.13671875,-49.31640625,-33.203125,-7.32421875,0.0
1676922791.5428686,-14.6484375,-26.3671875,-42.48046875,-10.7421875,0.0
1676922791.5465567,-32.2265625,-38.57421875,-41.50390625,-27.34375,0.0
1676922791.5502448,-8.7890625,-32.71484375,-40.52734375,-13.18359375,0.0
1676922791.553933,-3.41796875,-19.53125,-40.52734375,5.37109375,0.0
1676922791.557621,-30.2734375,-34.66796875,-39.55078125,-21.97265625,0.0
1676922791.561309,-28.3203125,-50.78125,-41.50390625,-48.33984375,0.0
1676922791.5649972,-27.34375,-59.08203125,-35.64453125,-35.15625,0.0
1676922791.5686855,-31.73828125,-39.0625,-37.59765625,-14.16015625,0.0
1676922791.5723736,-23.4375,-42.96875,-39.0625,-9.27734375,0.0
1676922791.5760617,-15.13671875,-61.5234375,-38.57421875,-25.390625,0.0
1676922791.5797498,-10.7421875,-34.66796875,-49.8046875,-24.90234375,0.0
1676922791.583438,-19.53125,-15.13671875,-43.9453125,2.9296875,0.0
1676922791.587126,-27.83203125,-35.64453125,-45.41015625,-8.30078125,0.0
1676922791.5908737,-28.80859375,-52.24609375,-53.22265625,-34.1796875,0.0
1676922791.5946214,-28.80859375,-49.8046875,-42.48046875,-30.76171875,0.0
1676922791.5983691,-34.66796875,-35.64453125,-29.78515625,-7.8125,0.0
1676922791.6021168,-44.921875,-38.57421875,-30.2734375,-5.37109375,0.0
1676922791.6058645,-34.1796875,-32.71484375,-36.1328125,-29.296875,0.0
1676922791.6096122,-35.64453125,-31.73828125,-49.8046875,-38.57421875,0.0
1676922791.61336,-33.69140625,-47.36328125,-50.29296875,-6.8359375,0.0
1676922791.6171076,-27.34375,-48.33984375,-53.7109375,14.6484375,0.0
1676922791.6208553,-20.99609375,-44.43359375,-45.8984375,-8.30078125,0.0
1676922791.624603,-11.71875,-39.55078125,-27.34375,-30.2734375,0.0
1676922791.6283507,-33.203125,-61.5234375,-42.96875,-26.3671875,0.0
1676922791.6320984,-35.15625,-72.75390625,-47.8515625,-16.11328125,0.0
1676922791.6371043,-17.578125,-55.17578125,-41.50390625,-28.3203125,0.0
1676922791.6421099,-20.5078125,-33.203125,-50.29296875,-44.43359375,0.0
1676922791.6471157,-38.57421875,-27.34375,-55.17578125,-52.734375,0.0
1676922791.6521215,-32.2265625,-29.296875,-40.0390625,-24.90234375,0.0
1676922791.6571271,-22.94921875,-32.2265625,-32.71484375,-1.46484375,0.0
1676922791.662133,-21.97265625,-49.8046875,-32.2265625,-16.11328125,0.0
1676922791.6671388,-27.83203125,-51.7578125,-41.9921875,-23.4375,0.0
1676922791.6721444,-42.48046875,-37.109375,-62.01171875,-13.671875,0.0
1676922791.6771502,-25.87890625,-42.96875,-48.33984375,-7.32421875,0.0
1676922791.682156,-18.5546875,-74.21875,-38.57421875,-31.25,0.0
1676922791.6871617,-24.4140625,-76.66015625,-45.41015625,-47.8515625,0.0
1676922791.6921675,-32.71484375,-56.640625,-38.57421875,-26.85546875,0.0
1676922791.6959064,-35.64453125,-45.41015625,-32.2265625,-7.8125,0.0
1676922791.6996453,-23.92578125,-32.2265625,-28.3203125,-19.53125,0.0
1676922791.7033842,-25.87890625,-31.25,-24.4140625,-37.109375,0.0
1676922791.707123,-30.2734375,-47.8515625,-34.66796875,-25.390625,0.0
1676922791.710862,-27.83203125,-50.78125,-45.8984375,-20.01953125,0.0
1676922791.7146008,-24.4140625,-41.015625,-44.43359375,-38.0859375,0.0
1676922791.7183397,-16.6015625,-74.21875,-47.36328125,-50.29296875,0.0
1676922791.7220786,-7.32421875,-59.08203125,-43.9453125,-31.73828125,0.0
1676922791.7258174,-8.30078125,-24.4140625,-36.62109375,-1.46484375,0.0
1676922791.7295563,-12.6953125,-53.7109375,-39.0625,-15.13671875,0.0
1676922791.7332952,-19.04296875,-46.38671875,-34.1796875,-45.8984375,0.0
1676922791.737034,-33.203125,-41.9921875,-29.78515625,-25.87890625,0.0
1676922791.7407942,-31.73828125,-49.8046875,-42.48046875,-1.46484375,0.0
1676922791.7445543,-18.06640625,-62.5,-51.26953125,-8.30078125,0.0
1676922791.7483144,-22.4609375,-67.3828125,-41.50390625,-32.71484375,0.0
1676922791.7520745,-30.76171875,-53.22265625,-43.45703125,-41.50390625,0.0
1676922791.7558346,-27.34375,-49.31640625,-53.22265625,-10.7421875,0.0
1676922791.759595,-27.83203125,-49.8046875,-54.6875,-5.37109375,0.0
1676922791.763355,-26.3671875,-51.7578125,-50.29296875,-27.34375,0.0
1676922791.767115,-28.80859375,-45.41015625,-54.6875,-38.0859375,0.0
1676922791.7708752,-39.55078125,-37.109375,-53.7109375,-14.16015625,0.0
1676922791.7746353,-54.6875,-38.0859375,-52.24609375,-5.859375,0.0
1676922791.7783954,-37.109375,-49.31640625,-50.29296875,-25.87890625,0.0
1676922791.7821555,-26.3671875,-53.22265625,-47.8515625,-33.203125,0.0
1676922791.7858942,-27.83203125,-55.6640625,-46.38671875,-15.625,0.0
1676922791.789633,-17.08984375,-65.91796875,-36.62109375,0.9765625,0.0
1676922791.7933717,-10.25390625,-61.03515625,-34.66796875,-10.25390625,0.0
1676922791.7971106,-12.6953125,-48.828125,-35.64453125,-31.25,0.0
1676922791.8008492,-26.3671875,-50.78125,-43.9453125,-33.203125,0.0
1676922791.8045878,-34.66796875,-52.24609375,-61.03515625,-11.23046875,0.0
1676922791.8083267,-29.78515625,-29.296875,-64.94140625,-15.13671875,0.0
1676922791.8120654,-27.34375,-28.80859375,-56.640625,-36.1328125,0.0
1676922791.8158042,-26.3671875,-37.109375,-55.17578125,-35.64453125,0.0
1676922791.819543,-29.78515625,-35.15625,-45.8984375,-11.23046875,0.0
1676922791.8232818,-34.66796875,-62.98828125,-37.109375,-7.32421875,0.0
1676922791.8270204,-29.78515625,-63.96484375,-28.3203125,-22.94921875,0.0
1676922791.8307822,-27.34375,-47.36328125,-27.34375,-28.80859375,0.0
1676922791.834544,-22.94921875,-54.6875,-40.52734375,-7.8125,0.0
1676922791.8383055,-14.6484375,-49.31640625,-39.0625,17.578125,0.0
1676922791.8420672,-10.7421875,-45.8984375,-37.59765625,0.48828125,0.0
1676922791.845829,-29.296875,-50.29296875,-29.78515625,-39.0625,0.0
1676922791.8495908,-30.76171875,-41.9921875,-27.83203125,-29.296875,0.0
1676922791.8533525,-35.64453125,-47.8515625,-47.8515625,0.48828125,0.0
1676922791.8571143,-34.1796875,-49.8046875,-40.0390625,2.9296875,0.0
1676922791.860876,-30.2734375,-55.17578125,-32.2265625,-18.5546875,0.0
1676922791.8646376,-19.04296875,-51.7578125,-38.57421875,-9.765625,0.0
1676922791.8683994,-10.25390625,-51.7578125,-34.66796875,13.671875,0.0
1676922791.8721611,-35.64453125,-47.36328125,-31.73828125,3.41796875,0.0
1676922791.8760486,-32.71484375,-25.87890625,-37.109375,-23.4375,0.0
1676922791.879936,-5.37109375,-30.2734375,-36.62109375,-29.78515625,0.0
1676922791.8838234,-15.625,-51.7578125,-31.25,-6.34765625,0.0
1676922791.8877108,-28.80859375,-42.48046875,-42.48046875,0.48828125,0.0
1676922791.8915982,-29.78515625,-37.59765625,-56.640625,-36.62109375,0.0
1676922791.8954856,-28.3203125,-47.36328125,-41.50390625,-56.640625,0.0
1676922791.899373,-15.625,-33.203125,-30.2734375,-12.20703125,0.0
1676922791.9032605,-20.99609375,-42.48046875,-41.50390625,10.25390625,0.0
1676922791.907148,-19.04296875,-39.0625,-43.9453125,-15.13671875,0.0
1676922791.9110353,-10.7421875,-44.921875,-35.15625,-29.296875,0.0
1676922791.9149227,-34.66796875,-55.6640625,-38.0859375,-23.92578125,0.0
1676922791.9188101,-35.64453125,-34.66796875,-37.109375,12.20703125,0.0
1676922791.9224205,-27.83203125,-21.97265625,-31.25,-0.9765625,0.0
1676922791.9260306,-25.390625,-31.73828125,-39.0625,-30.2734375,0.0
1676922791.9296408,-12.20703125,-41.50390625,-35.15625,-16.6015625,0.0
1676922791.9332511,-9.765625,-43.9453125,-22.94921875,8.7890625,0.0
1676922791.9368615,-14.6484375,-49.31640625,-14.6484375,12.20703125,0.0
1676922791.9404716,-15.625,-41.015625,-25.87890625,-16.11328125,0.0
1676922791.9440818,-7.8125,-36.62109375,-41.015625,-19.53125,0.0
1676922791.9476922,-6.34765625,-46.38671875,-27.34375,14.16015625,0.0
1676922791.9513025,-10.7421875,-30.2734375,-30.2734375,16.11328125,0.0
1676922791.9549127,-24.4140625,-21.484375,-53.22265625,-15.13671875,0.0
1676922791.9585228,-20.99609375,-36.62109375,-48.828125,-28.3203125,0.0
1676922791.9621332,-35.15625,-49.8046875,-43.9453125,-26.3671875,0.0
1676922791.9658759,-36.62109375,-41.9921875,-42.48046875,-11.23046875,0.0
1676922791.9696188,-27.34375,-51.7578125,-44.921875,-14.6484375,0.0
1676922791.9733615,-28.80859375,-75.1953125,-31.73828125,-29.296875,0.0
1676922791.9771042,-17.08984375,-64.453125,-26.3671875,-14.6484375,0.0
1676922791.9808471,-34.1796875,-26.3671875,-41.50390625,-4.8828125,0.0
1676922791.9845898,-54.19921875,-20.5078125,-36.1328125,-20.5078125,0.0
1676922791.9883325,-35.15625,-29.296875,-41.9921875,-36.1328125,0.0
1676922791.9920754,-27.34375,-33.203125,-59.5703125,-31.73828125,0.0
1676922791.9958181,-19.04296875,-47.8515625,-41.50390625,-0.9765625,0.0
1676922791.9995608,-6.8359375,-73.73046875,-32.2265625,6.8359375,0.0
1676922792.0033038,-15.625,-66.89453125,-34.66796875,-25.390625,0.0
1676922792.0070465,-27.34375,-35.15625,-43.9453125,-44.43359375,0.0
1676922792.012056,-26.3671875,-36.1328125,-51.7578125,-26.85546875,0.0
1676922792.0170655,-29.296875,-38.0859375,-29.78515625,-5.37109375,0.0
1676922792.0220752,-39.0625,-39.0625,-20.01953125,-20.99609375,0.0
1676922792.0270848,-28.3203125,-35.64453125,-31.73828125,-53.7109375,0.0
1676922792.0320945,-22.94921875,-38.0859375,-39.55078125,-33.203125,0.0
1676922792.0371041,-23.92578125,-52.734375,-43.9453125,-1.953125,0.0
1676922792.0421135,1.46484375,-60.546875,-40.52734375,-8.30078125,0.0
1676922792.0471232,-4.8828125,-51.7578125,-44.43359375,-32.2265625,0.0
1676922792.0521328,-10.7421875,-30.2734375,-31.73828125,-22.4609375,0.0
1676922792.0571423,-16.6015625,-26.3671875,-31.73828125,1.46484375,0.0
1676922792.062152,-35.15625,-41.015625,-57.12890625,-22.4609375,0.0
1676922792.0671616,-28.80859375,-67.3828125,-61.03515625,-46.38671875,0.0
1676922792.0709088,-16.11328125,-58.59375,-47.36328125,-23.92578125,0.0
1676922792.0746558,-13.671875,-48.828125,-21.484375,14.16015625,0.0
1676922792.078403,-5.859375,-41.50390625,-17.578125,7.8125,0.0
1676922792.0821502,0.48828125,-10.7421875,-20.5078125,-16.11328125,0.0
1676922792.0858972,-0.48828125,-6.8359375,-20.01953125,-30.76171875,0.0
1676922792.0896444,-17.08984375,-35.15625,-35.64453125,-30.2734375,0.0
1676922792.0933917,-16.11328125,-51.7578125,-41.015625,-15.625,0.0
1676922792.0971386,-13.18359375,-53.22265625,-41.015625,-34.1796875,0.0
1676922792.1008859,-21.484375,-62.98828125,-34.1796875,-48.828125,0.0
1676922792.104633,-13.671875,-52.24609375,-44.43359375,-13.18359375,0.0
1676922792.10838,-20.5078125,-46.38671875,-71.77734375,4.39453125,0.0
1676922792.1121273,-30.2734375,-80.078125,-69.82421875,-10.7421875,0.0
1676922792.1159813,-22.94921875,-77.63671875,-42.48046875,-23.4375,0.0
1676922792.1198356,-29.78515625,-32.71484375,-30.76171875,-19.53125,0.0
1676922792.1236897,-19.53125,-25.87890625,-38.0859375,-3.41796875,0.0
1676922792.1275437,-15.625,-37.59765625,-36.1328125,-15.625,0.0
1676922792.131398,-22.4609375,-37.109375,-31.73828125,-35.64453125,0.0
1676922792.135252,-16.11328125,-35.15625,-33.69140625,-38.0859375,0.0
1676922792.139106,-19.53125,-42.48046875,-39.55078125,-11.23046875,0.0
1676922792.1429603,-27.83203125,-59.5703125,-54.19921875,-13.671875,0.0
1676922792.1468143,-25.390625,-54.19921875,-66.89453125,-32.2265625,0.0
1676922792.1506684,-32.2265625,-46.875,-59.08203125,-34.1796875,0.0
1676922792.1545227,-27.34375,-55.17578125,-50.29296875,-25.390625,0.0
1676922792.1583767,-5.37109375,-53.7109375,-31.25,-1.46484375,0.0
1676922792.1620247,-21.97265625,-25.87890625,-29.296875,-17.08984375,0.0
1676922792.1656728,-26.3671875,-44.43359375,-47.36328125,-44.43359375,0.0
1676922792.1693208,-17.08984375,-76.66015625,-56.15234375,-37.109375,0.0
1676922792.1729689,-26.85546875,-36.62109375,-54.6875,-18.06640625,0.0
1676922792.176617,-29.296875,-11.71875,-43.45703125,-26.85546875,0.0
1676922792.180265,-32.2265625,-35.15625,-50.78125,-60.546875,0.0
1676922792.1839128,-34.1796875,-56.640625,-76.66015625,-56.640625,0.0
1676922792.1875608,-40.52734375,-62.01171875,-66.40625,-21.97265625,0.0
1676922792.1912088,-51.26953125,-58.10546875,-47.36328125,-15.625,0.0
1676922792.194857,-35.64453125,-44.921875,-35.15625,-38.57421875,0.0
1676922792.198505,-23.92578125,-44.43359375,-29.78515625,-47.8515625,0.0
1676922792.202153,-26.3671875,-40.0390625,-37.59765625,-19.53125,0.0
1676922792.2071526,-23.92578125,-44.43359375,-49.8046875,-4.8828125,0.0
1676922792.2121522,-22.4609375,-39.0625,-55.6640625,-24.4140625,0.0
1676922792.2171519,-34.1796875,-27.34375,-46.875,-44.921875,0.0
1676922792.2221515,-25.390625,-50.29296875,-33.203125,-24.4140625,0.0
1676922792.2271512,-22.94921875,-60.05859375,-38.57421875,-10.7421875,0.0
1676922792.2321506,-36.1328125,-58.10546875,-51.26953125,-29.78515625,0.0
1676922792.2371502,-23.4375,-80.078125,-49.8046875,-44.921875,0.0
1676922792.2421498,-8.7890625,-47.8515625,-42.96875,-20.99609375,0.0
1676922792.2471495,-9.765625,3.90625,-37.109375,14.16015625,0.0
1676922792.252149,-15.13671875,-14.16015625,-38.57421875,-2.44140625,0.0
1676922792.2571487,-25.390625,-35.15625,-49.31640625,-38.57421875,0.0
1676922792.2621484,-18.5546875,-38.57421875,-64.453125,-38.0859375,0.0
1676922792.2646484,-22.4609375,-42.96875,-49.31640625,-12.6953125,0.0
1676922792.2671485,-28.80859375,-36.62109375,-25.87890625,-8.7890625,0.0
1676922792.2696486,-17.08984375,-49.31640625,-49.8046875,-35.15625,0.0
1676922792.2721486,-16.11328125,-54.19921875,-50.29296875,-34.1796875,0.0
1676922792.2746487,-19.53125,-55.17578125,-26.85546875,-7.32421875,0.0
1676922792.2771487,-26.85546875,-51.26953125,-36.62109375,-6.34765625,0.0
1676922792.279649,-28.80859375,-36.1328125,-53.7109375,-29.78515625,0.0
1676922792.282149,-19.04296875,-23.92578125,-64.94140625,-43.9453125,0.0
1676922792.2846491,-20.01953125,-31.73828125,-59.5703125,-22.4609375,0.0
1676922792.2871492,-19.04296875,-48.33984375,-48.33984375,-4.39453125,0.0
1676922792.2896492,-8.30078125,-34.66796875,-32.2265625,-10.7421875,0.0
1676922792.2921493,-22.4609375,-33.69140625,-26.85546875,-23.92578125,0.0
1676922792.2960007,-27.34375,-45.8984375,-36.62109375,-28.3203125,0.0
1676922792.299852,-19.53125,-49.8046875,-44.921875,-1.46484375,0.0
1676922792.3037033,-30.2734375,-43.9453125,-47.8515625,-3.90625,0.0
1676922792.3075547,-39.0625,-39.0625,-36.1328125,-30.2734375,0.0
1676922792.311406,-22.4609375,-48.828125,-38.0859375,-38.0859375,0.0
1676922792.3152573,-10.25390625,-61.5234375,-57.6171875,-15.13671875,0.0
1676922792.3191087,-21.97265625,-59.08203125,-55.17578125,0.48828125,0.0
1676922792.32296,-17.08984375,-46.38671875,-26.85546875,-16.6015625,0.0
1676922792.3268113,-16.11328125,-46.875,-27.34375,-47.36328125,0.0
1676922792.3306627,-23.4375,-35.64453125,-21.97265625,-29.78515625,0.0
1676922792.334514,-28.80859375,-41.50390625,-19.53125,-10.25390625,0.0
1676922792.3383653,-24.4140625,-42.96875,-31.73828125,-30.2734375,0.0
1676922792.3419995,-17.578125,-36.62109375,-37.109375,-51.7578125,0.0
1676922792.3456337,-13.671875,-34.1796875,-26.85546875,-20.99609375,0.0
1676922792.349268,-9.765625,-23.92578125,-25.87890625,-2.44140625,0.0
1676922792.3529022,-18.06640625,-42.48046875,-34.1796875,-28.3203125,0.0
1676922792.3565364,-18.5546875,-42.48046875,-24.4140625,-53.7109375,0.0
1676922792.3601706,-21.97265625,-61.5234375,-21.97265625,-36.62109375,0.0
1676922792.3638048,-33.69140625,-64.94140625,-26.3671875,-5.859375,0.0
1676922792.367439,-32.2265625,-54.6875,-30.2734375,-29.296875,0.0
1676922792.3710732,-31.73828125,-60.05859375,-42.48046875,-49.31640625,0.0
1676922792.3747075,-28.3203125,-48.828125,-41.50390625,-42.96875,0.0
1676922792.3783417,-26.3671875,-40.0390625,-36.62109375,-14.16015625,0.0
1676922792.381976,-48.828125,-42.96875,-41.50390625,-9.765625,0.0
1676922792.3870254,-34.66796875,-49.8046875,-55.6640625,-41.9921875,0.0
1676922792.3920746,-15.13671875,-56.640625,-56.15234375,-43.45703125,0.0
1676922792.397124,-15.625,-51.26953125,-24.4140625,-24.4140625,0.0
1676922792.4021735,-23.4375,-47.8515625,-14.16015625,-15.13671875,0.0
1676922792.407223,-11.71875,-53.22265625,-19.53125,-12.20703125,0.0
1676922792.4122725,-14.16015625,-63.4765625,-35.64453125,-31.73828125,0.0
1676922792.4173217,-30.2734375,-63.4765625,-51.26953125,-33.69140625,0.0
1676922792.4223711,-24.4140625,-52.734375,-51.26953125,-13.671875,0.0
1676922792.4274206,-22.94921875,-38.0859375,-40.0390625,-30.2734375,0.0
1676922792.4324698,-36.62109375,-54.6875,-37.109375,-43.9453125,0.0
1676922792.4375193,-11.23046875,-61.03515625,-33.69140625,-29.296875,0.0
1676922792.4425688,0.0,-47.36328125,-31.73828125,-5.37109375,0.0
1676922792.4462845,-9.27734375,-33.203125,-45.41015625,-3.41796875,0.0
1676922792.4500003,-14.6484375,-40.52734375,-54.6875,-36.62109375,0.0
1676922792.4537163,-22.4609375,-59.5703125,-39.0625,-43.45703125,0.0
1676922792.457432,-24.4140625,-48.33984375,-26.85546875,-17.08984375,0.0
1676922792.4611478,-35.15625,-23.92578125,-29.296875,-9.765625,0.0
1676922792.4648635,-17.08984375,-32.71484375,-32.2265625,-28.3203125,0.0
1676922792.4685793,1.953125,-58.59375,-32.71484375,-33.203125,0.0
1676922792.472295,-16.6015625,-63.4765625,-23.92578125,-16.11328125,0.0
1676922792.4760108,-30.2734375,-53.22265625,-30.2734375,0.9765625,0.0
1676922792.4797268,-19.04296875,-52.24609375,-39.55078125,-5.37109375,0.0
1676922792.4834425,-20.5078125,-43.45703125,-44.43359375,-45.8984375,0.0
1676922792.4871583,-30.76171875,-47.8515625,-48.828125,-44.921875,0.0
1676922792.4909081,-25.87890625,-62.01171875,-55.17578125,-8.7890625,0.0
1676922792.4946582,-20.5078125,-46.875,-43.45703125,-13.671875,0.0
1676922792.4984083,-27.83203125,-39.55078125,-47.8515625,-41.015625,0.0
1676922792.5021582,-43.9453125,-47.36328125,-53.7109375,-33.69140625,0.0
1676922792.505908,-39.55078125,-54.19921875,-41.015625,-2.9296875,0.0
1676922792.509658,-9.765625,-32.71484375,-26.85546875,4.8828125,0.0
1676922792.5134082,-24.90234375,-31.73828125,-41.50390625,-34.66796875,0.0
1676922792.517158,-27.83203125,-56.640625,-49.31640625,-40.0390625,0.0
1676922792.5209079,-11.23046875,-59.5703125,-39.55078125,14.6484375,0.0
1676922792.524658,-33.203125,-64.94140625,-51.26953125,-7.32421875,0.0
1676922792.528408,-32.71484375,-47.8515625,-50.29296875,-52.24609375,0.0
1676922792.532158,-28.3203125,-27.83203125,-49.8046875,-46.875,0.0
1676922792.535941,-33.203125,-41.50390625,-49.8046875,-31.73828125,0.0
1676922792.5397236,-27.34375,-44.43359375,-29.296875,-20.99609375,0.0
1676922792.5435066,-25.390625,-33.69140625,-27.34375,-23.92578125,0.0
1676922792.5472896,-17.08984375,-52.734375,-29.296875,-45.8984375,0.0
1676922792.5510724,-26.3671875,-49.31640625,-43.9453125,-42.48046875,0.0
1676922792.5548553,-41.015625,-20.99609375,-50.29296875,-13.18359375,0.0
1676922792.5586383,-21.97265625,-25.390625,-27.83203125,-11.71875,0.0
1676922792.562421,-20.99609375,-57.12890625,-25.390625,-43.9453125,0.0
1676922792.566204,-43.45703125,-50.78125,-44.43359375,-53.7109375,0.0
1676922792.569987,-34.66796875,-27.83203125,-51.26953125,-13.671875,0.0
1676922792.5737698,-26.85546875,-39.0625,-20.5078125,7.8125,0.0
1676922792.5775528,-37.59765625,-51.7578125,-21.97265625,-22.94921875,0.0
1676922792.58127,-34.1796875,-60.546875,-40.52734375,-41.015625,0.0
1676922792.584987,-26.85546875,-57.12890625,-33.203125,-23.4375,0.0
1676922792.588704,-32.2265625,-59.08203125,-41.9921875,-15.13671875,0.0
1676922792.592421,-27.34375,-60.05859375,-40.52734375,-25.390625,0.0
1676922792.5961382,-11.23046875,-44.921875,-25.87890625,-35.64453125,0.0
1676922792.5998554,-12.20703125,-48.33984375,-46.875,-27.34375,0.0
1676922792.6035724,-20.99609375,-49.8046875,-58.10546875,-5.37109375,0.0
1676922792.6072896,-24.90234375,-32.2265625,-57.12890625,-7.8125,0.0
1676922792.6110065,-20.01953125,-25.390625,-39.0625,-22.94921875,0.0
1676922792.6147237,-8.30078125,-26.3671875,-20.5078125,-13.18359375,0.0
1676922792.6184406,0.48828125,-17.578125,-30.2734375,16.11328125,0.0
1676922792.6221578,-18.06640625,-29.296875,-49.8046875,-2.44140625,0.0
1676922792.6259077,-26.3671875,-40.52734375,-53.7109375,-40.52734375,0.0
1676922792.6296575,-25.87890625,-52.24609375,-48.33984375,-32.71484375,0.0
1676922792.6334076,-27.83203125,-70.3125,-56.640625,-5.859375,0.0
1676922792.6371574,-17.08984375,-38.57421875,-51.7578125,-2.9296875,0.0
1676922792.6409073,-18.06640625,-20.99609375,-50.29296875,-16.6015625,0.0
1676922792.6446571,-26.85546875,-39.55078125,-70.3125,-38.57421875,0.0
1676922792.648407,-15.625,-30.76171875,-49.8046875,-22.94921875,0.0
1676922792.6521568,-19.53125,-24.4140625,-32.71484375,6.34765625,0.0
1676922792.6559067,-30.76171875,-31.25,-40.52734375,-14.16015625,0.0
1676922792.6596568,-15.13671875,-34.1796875,-47.36328125,-38.0859375,0.0
1676922792.6634066,-13.18359375,-41.9921875,-50.29296875,-8.7890625,0.0
1676922792.6671565,-12.20703125,-36.1328125,-42.48046875,19.04296875,0.0
1676922792.6709018,5.37109375,-41.50390625,-41.015625,6.8359375,0.0
1676922792.6746469,5.859375,-47.36328125,-42.96875,-14.6484375,0.0
1676922792.678392,-7.8125,-36.1328125,-45.8984375,-21.484375,0.0
1676922792.6821373,-31.25,-23.4375,-44.43359375,-2.9296875,0.0
1676922792.6858826,-28.80859375,-26.85546875,-50.78125,-3.90625,0.0
1676922792.6896276,-7.8125,-42.96875,-54.6875,-28.80859375,0.0
1676922792.6933727,-8.30078125,-43.9453125,-47.36328125,-19.53125,0.0
1676922792.697118,-8.7890625,-45.41015625,-45.8984375,7.8125,0.0
1676922792.7008634,-18.06640625,-57.12890625,-42.48046875,-10.25390625,0.0
1676922792.7046084,-23.92578125,-59.5703125,-40.52734375,-34.1796875,0.0
1676922792.7083535,-12.6953125,-38.0859375,-34.1796875,-28.3203125,0.0
1676922792.7120988,-4.8828125,-23.92578125,-33.69140625,-8.7890625,0.0
1676922792.715861,-9.765625,-43.45703125,-40.52734375,3.90625,0.0
1676922792.7196236,-3.90625,-48.828125,-39.0625,-1.953125,0.0
1676922792.7233858,-23.4375,-34.1796875,-44.921875,-36.1328125,0.0
1676922792.727148,-43.45703125,-37.109375,-47.8515625,-37.59765625,0.0
1676922792.7309103,-28.3203125,-54.19921875,-40.52734375,0.48828125,0.0
1676922792.7346725,-9.765625,-65.4296875,-39.55078125,0.9765625,0.0
1676922792.738435,-4.8828125,-58.59375,-29.78515625,-18.5546875,0.0
1676922792.7421973,-5.37109375,-41.9921875,-22.4609375,-18.06640625,0.0
1676922792.7459595,-15.13671875,-47.8515625,-42.96875,0.9765625,0.0
1676922792.749722,-20.01953125,-58.10546875,-49.31640625,-9.765625,0.0
1676922792.7534842,-21.97265625,-44.921875,-39.0625,-37.109375,0.0
1676922792.7572465,-33.69140625,-39.0625,-49.8046875,-51.7578125,0.0
1676922792.7622344,-34.1796875,-45.41015625,-55.17578125,-28.80859375,0.0
1676922792.7672224,-38.57421875,-41.9921875,-52.734375,-7.8125,0.0
1676922792.7722104,-44.921875,-40.52734375,-46.38671875,-27.83203125,0.0
1676922792.7771983,-32.2265625,-51.7578125,-35.15625,-52.24609375,0.0
1676922792.7821863,-15.625,-50.78125,-44.921875,-31.73828125,0.0
1676922792.7871742,-22.94921875,-54.19921875,-52.24609375,-10.25390625,0.0
1676922792.792162,-21.484375,-54.6875,-39.0625,-22.4609375,0.0
1676922792.79715,-28.80859375,-36.1328125,-29.78515625,-42.48046875,0.0
1676922792.8021379,-33.203125,-30.76171875,-32.71484375,-35.64453125,0.0
1676922792.8071258,-30.76171875,-24.4140625,-30.76171875,-7.8125,0.0
1676922792.8121138,-41.015625,-40.0390625,-42.48046875,-18.06640625,0.0
1676922792.8171017,-35.64453125,-55.17578125,-36.62109375,-48.828125,0.0
1676922792.8208923,-26.3671875,-41.50390625,-25.390625,-44.921875,0.0
1676922792.8246827,-40.52734375,-32.2265625,-33.203125,-18.5546875,0.0
1676922792.828473,-26.85546875,-39.55078125,-38.57421875,-4.39453125,0.0
1676922792.8322637,-17.08984375,-40.0390625,-41.015625,-22.94921875,0.0
1676922792.8360543,-35.15625,-47.8515625,-27.83203125,-35.15625,0.0
1676922792.8398447,-30.2734375,-53.22265625,-30.2734375,-10.25390625,0.0
1676922792.843635,-21.484375,-56.640625,-52.734375,-10.25390625,0.0
1676922792.8474257,-28.3203125,-74.21875,-33.69140625,-17.08984375,0.0
1676922792.8512163,-37.109375,-86.9140625,-23.92578125,-25.87890625,0.0
1676922792.8550067,-33.69140625,-62.01171875,-43.45703125,-15.13671875,0.0
1676922792.858797,-20.01953125,-19.04296875,-36.62109375,0.9765625,0.0
1676922792.8625877,-15.625,-17.578125,-26.3671875,-4.39453125,0.0
1676922792.8662992,-17.08984375,-40.52734375,-30.2734375,-23.92578125,0.0
1676922792.8700109,-18.06640625,-34.1796875,-42.48046875,-20.5078125,0.0
1676922792.8737223,-21.484375,-36.1328125,-36.62109375,4.39453125,0.0
1676922792.8774338,-28.3203125,-46.38671875,-32.71484375,-9.765625,0.0
1676922792.8811455,-26.3671875,-50.78125,-33.203125,-39.0625,0.0
1676922792.884857,-18.06640625,-57.6171875,-30.76171875,-36.1328125,0.0
1676922792.8885684,-18.06640625,-56.640625,-38.0859375,-7.8125,0.0
1676922792.89228,-20.5078125,-37.109375,-49.31640625,-0.48828125,0.0
1676922792.8959916,-23.4375,-28.80859375,-38.57421875,-11.23046875,0.0
1676922792.899703,-6.8359375,-52.24609375,-22.94921875,-28.80859375,0.0
1676922792.9034147,-2.44140625,-48.33984375,-22.4609375,-18.5546875,0.0
1676922792.9071262,-13.671875,-47.8515625,-27.34375,-4.8828125,0.0
1676922792.9108763,-9.765625,-40.0390625,-40.52734375,-23.4375,0.0
1676922792.9146261,-20.01953125,-36.62109375,-51.7578125,-48.33984375,0.0
1676922792.9183762,-22.4609375,-68.84765625,-37.59765625,-23.4375,0.0
1676922792.9221263,-18.06640625,-63.96484375,-31.73828125,10.25390625,0.0
1676922792.9258764,-21.484375,-29.78515625,-53.22265625,-14.16015625,0.0
1676922792.9296265,-18.5546875,-29.78515625,-67.87109375,-39.55078125,0.0
1676922792.9333763,-25.87890625,-34.1796875,-57.12890625,-29.78515625,0.0
1676922792.9371264,-31.73828125,-33.69140625,-32.71484375,4.8828125,0.0
1676922792.9408765,-34.1796875,-44.921875,-36.1328125,-1.953125,0.0
1676922792.9446263,-26.3671875,-63.96484375,-41.50390625,-42.96875,0.0
1676922792.9483764,-16.11328125,-70.3125,-32.2265625,-37.109375,0.0
1676922792.9521265,-7.8125,-60.05859375,-32.2265625,-6.34765625,0.0
1676922792.9571204,-20.5078125,-49.31640625,-33.69140625,-1.46484375,0.0
1676922792.962114,-33.69140625,-30.2734375,-39.0625,-19.53125,0.0
1676922792.967108,-21.484375,-34.66796875,-40.52734375,-30.2734375,0.0
1676922792.972102,-15.13671875,-41.50390625,-38.0859375,-7.32421875,0.0
1676922792.9770956,-20.01953125,-29.78515625,-35.64453125,12.20703125,0.0
1676922792.9820895,-17.08984375,-46.875,-38.57421875,-11.71875,0.0
1676922792.9870834,-28.3203125,-72.265625,-37.109375,-42.48046875,0.0
1676922792.992077,-19.04296875,-45.41015625,-39.0625,-20.99609375,0.0
1676922792.997071,-21.97265625,-30.2734375,-43.9453125,3.41796875,0.0
1676922793.002065,-47.8515625,-33.69140625,-51.26953125,-24.90234375,0.0
1676922793.0070586,-33.203125,-45.8984375,-56.15234375,-57.12890625,0.0
1676922793.0120525,-30.2734375,-72.75390625,-49.31640625,-41.015625,0.0
1676922793.014659,-24.4140625,-55.6640625,-41.50390625,-18.06640625,0.0
1676922793.017265,-15.13671875,-42.96875,-41.015625,-11.71875,0.0
1676922793.0198715,-12.20703125,-48.33984375,-44.43359375,-20.01953125,0.0
1676922793.0224776,-12.20703125,-37.109375,-42.96875,-29.296875,0.0
1676922793.025084,-10.25390625,-32.2265625,-43.45703125,-17.578125,0.0
1676922793.0276904,-22.94921875,-44.921875,-51.7578125,-10.25390625,0.0
1676922793.0302966,-34.66796875,-54.19921875,-56.640625,-29.78515625,0.0
1676922793.032903,-33.69140625,-59.5703125,-61.5234375,-46.38671875,0.0
1676922793.035509,-19.53125,-59.08203125,-50.29296875,-20.99609375,0.0
1676922793.0381155,-21.97265625,-57.6171875,-23.92578125,3.41796875,0.0
1676922793.0407217,-24.90234375,-54.6875,-30.2734375,-16.6015625,0.0
1676922793.043328,-27.34375,-38.57421875,-41.015625,-45.8984375,0.0
1676922793.0469804,-35.15625,-31.73828125,-32.2265625,-41.015625,0.0
1676922793.0506327,-28.80859375,-40.0390625,-36.1328125,-0.48828125,0.0
1676922793.054285,-19.04296875,-40.0390625,-41.50390625,1.953125,0.0
1676922793.0579374,-16.6015625,-37.59765625,-33.203125,-27.34375,0.0
1676922793.0615897,-22.94921875,-42.48046875,-31.73828125,-30.2734375,0.0
1676922793.065242,-27.34375,-53.22265625,-36.62109375,-19.04296875,0.0
1676922793.0688944,-25.390625,-57.12890625,-41.50390625,-4.39453125,0.0
1676922793.0725467,-12.6953125,-40.52734375,-34.66796875,-20.01953125,0.0
1676922793.076199,-14.6484375,-29.78515625,-37.59765625,-46.38671875,0.0
1676922793.0798514,-30.76171875,-38.0859375,-41.015625,-16.6015625,0.0
1676922793.0835037,-20.5078125,-49.31640625,-44.921875,-6.8359375,0.0
1676922793.087156,-17.08984375,-44.43359375,-43.9453125,-30.2734375,0.0
1676922793.0909135,-32.2265625,-52.24609375,-36.1328125,-42.96875,0.0
1676922793.094671,-38.0859375,-62.5,-43.45703125,-21.97265625,0.0
1676922793.0984282,-26.3671875,-40.52734375,-45.41015625,-0.9765625,0.0
1676922793.1021857,-28.80859375,-20.99609375,-38.0859375,-22.94921875,0.0
1676922793.1059432,-32.2265625,-34.1796875,-35.15625,-45.8984375,0.0
1676922793.1097007,-30.76171875,-47.8515625,-41.50390625,-23.92578125,0.0
1676922793.1134582,-43.9453125,-47.36328125,-33.203125,5.859375,0.0
1676922793.1172156,-49.8046875,-59.08203125,-43.45703125,-21.97265625,0.0
1676922793.120973,-47.36328125,-62.98828125,-43.9453125,-44.43359375,0.0
1676922793.1247303,-37.109375,-45.41015625,-32.71484375,-30.76171875,0.0
1676922793.1284878,-34.66796875,-31.25,-49.8046875,-8.30078125,0.0
1676922793.1322453,-25.87890625,-37.59765625,-54.6875,-8.7890625,0.0
1676922793.1384826,-20.01953125,-45.8984375,-49.8046875,-37.59765625,0.0
1676922793.14472,-26.85546875,-33.69140625,-34.1796875,-43.9453125,0.0
1676922793.1509573,-22.4609375,-51.7578125,-18.5546875,-11.23046875,0.0
1676922793.1571946,-19.53125,-59.08203125,-25.87890625,-4.8828125,0.0
1676922793.163432,-24.4140625,-49.31640625,-40.52734375,-23.4375,0.0
1676922793.1696692,-40.52734375,-42.48046875,-50.78125,-43.9453125,0.0
1676922793.1759067,-23.92578125,-28.3203125,-47.36328125,-31.73828125,0.0
1676922793.182144,-14.6484375,-28.3203125,-32.2265625,-4.39453125,0.0
1676922793.1883812,-32.2265625,-35.64453125,-37.59765625,-18.5546875,0.0
1676922793.1946187,-32.2265625,-34.1796875,-32.71484375,-42.96875,0.0
1676922793.200856,-20.99609375,-39.55078125,-27.34375,-44.43359375,0.0
1676922793.2070932,-24.4140625,-50.29296875,-30.76171875,-17.578125,0.0
1676922793.2095907,-28.3203125,-49.8046875,-35.15625,-9.27734375,0.0
1676922793.2120883,-33.203125,-75.68359375,-33.203125,-38.57421875,0.0
1676922793.2145858,-25.87890625,-80.56640625,-16.11328125,-44.921875,0.0
1676922793.2170835,-18.06640625,-36.62109375,-20.01953125,-7.32421875,0.0
1676922793.219581,-27.34375,-20.01953125,-41.50390625,-0.48828125,0.0
1676922793.2220783,-20.99609375,-34.1796875,-51.26953125,-27.34375,0.0
1676922793.224576,-25.87890625,-53.7109375,-43.9453125,-41.9921875,0.0
1676922793.2270734,-28.80859375,-52.734375,-26.85546875,-23.92578125,0.0
1676922793.229571,-24.4140625,-46.38671875,-45.41015625,-5.859375,0.0
1676922793.2320685,-28.3203125,-43.9453125,-64.453125,-21.97265625,0.0
1676922793.2345662,-29.296875,-43.9453125,-50.78125,-46.875,0.0
1676922793.2370636,-29.78515625,-54.6875,-43.45703125,-33.203125,0.0
1676922793.2408211,-28.3203125,-58.10546875,-52.24609375,-7.8125,0.0
1676922793.2445786,-19.04296875,-53.22265625,-52.734375,-12.6953125,0.0
1676922793.248336,-20.01953125,-33.69140625,-43.45703125,-31.73828125,0.0
1676922793.2520936,-16.6015625,-29.296875,-47.36328125,-28.3203125,0.0
1676922793.255851,-13.18359375,-49.8046875,-62.5,-11.23046875,0.0
1676922793.2596083,-13.671875,-47.8515625,-59.5703125,-7.32421875,0.0
1676922793.2633657,-17.08984375,-45.41015625,-47.36328125,-36.62109375,0.0
1676922793.2671232,-41.9921875,-59.5703125,-37.59765625,-62.5,0.0
1676922793.2708807,-47.8515625,-55.17578125,-46.38671875,-33.203125,0.0
1676922793.2746382,-30.76171875,-49.31640625,-56.640625,-12.6953125,0.0
1676922793.2783957,-26.85546875,-56.640625,-51.7578125,-28.80859375,0.0
1676922793.2821531,-34.66796875,-40.0390625,-51.7578125,-49.8046875,0.0
1676922793.2859044,-19.53125,-37.109375,-46.875,-25.87890625,0.0
1676922793.289656,-23.4375,-49.31640625,-49.8046875,2.9296875,0.0
1676922793.2934072,-61.03515625,-42.48046875,-54.6875,-34.1796875,0.0
1676922793.2971587,-40.52734375,-36.1328125,-49.8046875,-53.7109375,0.0
1676922793.30091,-12.6953125,-31.25,-51.7578125,-25.390625,0.0
1676922793.3046613,-28.3203125,-36.62109375,-49.31640625,-8.7890625,0.0
1676922793.3084128,-24.90234375,-44.43359375,-40.0390625,-17.08984375,0.0
1676922793.312164,-10.25390625,-58.59375,-23.92578125,-26.3671875,0.0
1676922793.3159156,-5.37109375,-63.4765625,-26.85546875,-13.18359375,0.0
1676922793.3196669,-26.3671875,-43.9453125,-47.8515625,0.0,0.0
1676922793.3234184,-36.1328125,-31.25,-53.22265625,-3.41796875,0.0
1676922793.3271697,-29.296875,-39.0625,-60.05859375,-30.76171875,0.0
1676922793.3309183,-29.296875,-49.31640625,-56.15234375,-36.1328125,0.0
1676922793.3346672,-23.92578125,-36.62109375,-35.15625,-2.44140625,0.0
1676922793.3384159,-21.97265625,-28.80859375,-31.73828125,3.90625,0.0
1676922793.3421648,-16.6015625,-31.73828125,-40.0390625,-20.01953125,0.0
1676922793.3459134,-6.34765625,-36.1328125,-29.78515625,-26.85546875,0.0
1676922793.3496623,-9.27734375,-40.52734375,-34.1796875,-17.08984375,0.0
1676922793.353411,-18.06640625,-55.6640625,-43.45703125,-10.25390625,0.0
1676922793.3571596,-6.34765625,-43.45703125,-33.203125,-3.41796875,0.0
1676922793.3609085,-7.32421875,-20.99609375,-28.80859375,-25.390625,0.0
1676922793.3646572,-23.4375,-33.69140625,-28.3203125,-23.92578125,0.0
1676922793.368406,-20.01953125,-29.296875,-51.26953125,0.48828125,0.0
1676922793.3721547,-24.90234375,-16.6015625,-44.43359375,-12.20703125,0.0
1676922793.375905,-29.78515625,-29.296875,-25.390625,-42.96875,0.0
1676922793.3796556,-24.4140625,-39.55078125,-34.1796875,-31.25,0.0
1676922793.383406,-19.53125,-43.9453125,-26.3671875,2.9296875,0.0
1676922793.3871562,-13.671875,-68.84765625,-27.34375,12.6953125,0.0
1676922793.3909068,-13.671875,-83.0078125,-50.78125,-20.99609375,0.0
1676922793.3946571,-14.6484375,-47.8515625,-47.8515625,-37.109375,0.0
1676922793.3984075,-20.5078125,-20.01953125,-36.1328125,-10.7421875,0.0
1676922793.402158,-20.99609375,-29.78515625,-41.50390625,14.6484375,0.0
1676922793.4059083,-12.6953125,-41.9921875,-46.38671875,-8.7890625,0.0
1676922793.4096587,-18.06640625,-45.41015625,-44.921875,-49.8046875,0.0
1676922793.4134092,-17.578125,-38.0859375,-39.55078125,-25.87890625,0.0
1676922793.4171596,-20.01953125,-48.33984375,-38.0859375,12.20703125,0.0
1676922793.4210083,-15.625,-47.8515625,-29.78515625,-0.9765625,0.0
1676922793.4248571,-8.7890625,-47.36328125,-36.1328125,-18.5546875,0.0
1676922793.428706,-11.23046875,-54.19921875,-43.9453125,-11.71875,0.0
1676922793.4325547,-30.2734375,-47.8515625,-41.015625,2.9296875,0.0
1676922793.4364035,-31.73828125,-48.33984375,-39.0625,-18.06640625,0.0
1676922793.4402523,-29.296875,-36.62109375,-55.6640625,-53.7109375,0.0
1676922793.4441013,-35.15625,-34.66796875,-51.26953125,-35.15625,0.0
1676922793.4479501,-18.5546875,-57.12890625,-28.3203125,3.90625,0.0
1676922793.451799,-23.92578125,-65.91796875,-34.66796875,-6.8359375,0.0
1676922793.4556477,-15.13671875,-33.203125,-37.59765625,-27.34375,0.0
1676922793.4594965,-12.20703125,-18.5546875,-32.2265625,-27.34375,0.0
1676922793.4633453,-14.6484375,-32.71484375,-30.2734375,-7.32421875,0.0
1676922793.4670036,-0.48828125,-42.96875,-35.15625,6.8359375,0.0
1676922793.4706616,-10.25390625,-53.22265625,-37.109375,-15.13671875,0.0
1676922793.47432,-23.4375,-43.45703125,-41.015625,-38.57421875,0.0
1676922793.4779782,-19.04296875,-49.31640625,-48.33984375,-20.5078125,0.0
1676922793.4816365,-17.578125,-72.265625,-63.4765625,-0.48828125,0.0
1676922793.4852948,-21.484375,-64.94140625,-50.29296875,-2.44140625,0.0
1676922793.4889529,-10.25390625,-36.1328125,-33.203125,-4.39453125,0.0
1676922793.4926112,-15.13671875,-35.15625,-43.9453125,-11.71875,0.0
1676922793.4962695,-40.52734375,-52.734375,-50.29296875,-5.37109375,0.0
1676922793.4999275,-31.25,-50.78125,-37.59765625,-5.859375,0.0
1676922793.5035858,-17.578125,-32.2265625,-24.4140625,-34.66796875,0.0
1676922793.507244,-29.78515625,-29.78515625,-35.15625,-41.015625,0.0
1676922793.5122344,-22.4609375,-48.828125,-39.0625,3.90625,0.0
1676922793.517225,-13.18359375,-65.4296875,-35.15625,22.4609375,0.0
1676922793.5222154,-24.90234375,-71.2890625,-38.0859375,-10.25390625,0.0
1676922793.527206,-29.78515625,-52.734375,-47.8515625,-45.8984375,0.0
1676922793.5321963,-23.4375,-35.15625,-46.38671875,-19.04296875,0.0
1676922793.5371866,-23.92578125,-41.9921875,-33.69140625,8.30078125,0.0
1676922793.5421772,-20.5078125,-48.33984375,-42.96875,-20.5078125,0.0
1676922793.5471675,-28.80859375,-41.50390625,-49.31640625,-47.36328125,0.0
1676922793.552158,-22.94921875,-24.4140625,-33.69140625,-28.80859375,0.0
1676922793.5571485,-11.71875,-26.85546875,-36.1328125,7.32421875,0.0
1676922793.562139,-11.23046875,-40.52734375,-42.96875,-0.9765625,0.0
1676922793.5671294,-13.671875,-42.96875,-38.57421875,-37.59765625,0.0
1676922793.5708706,-13.18359375,-40.0390625,-42.48046875,-34.1796875,0.0
1676922793.5746117,-4.39453125,-31.73828125,-39.0625,-5.859375,0.0
1676922793.578353,-32.71484375,-23.92578125,-41.50390625,-16.6015625,0.0
1676922793.5820942,-41.9921875,-33.203125,-47.36328125,-54.19921875,0.0
1676922793.5858352,-19.53125,-46.38671875,-43.45703125,-51.7578125,0.0
1676922793.5895765,-25.390625,-57.12890625,-37.109375,-27.34375,0.0
1676922793.5933177,-37.59765625,-40.52734375,-20.01953125,-10.7421875,0.0
1676922793.5970588,-23.4375,-40.52734375,-24.4140625,-28.3203125,0.0
1676922793.6008,-15.13671875,-36.1328125,-45.8984375,-47.36328125,0.0
1676922793.6045413,-39.0625,-30.76171875,-54.6875,-32.71484375,0.0
1676922793.6082823,-38.0859375,-28.3203125,-52.734375,-19.53125,0.0
1676922793.6120236,-19.04296875,-42.96875,-40.52734375,-25.87890625,0.0
1676922793.6157846,-23.92578125,-61.03515625,-41.9921875,-49.8046875,0.0
1676922793.6195457,-47.36328125,-53.7109375,-39.0625,-42.48046875,0.0
1676922793.6233068,-30.2734375,-33.69140625,-31.73828125,-24.90234375,0.0
1676922793.627068,3.41796875,-31.73828125,-45.8984375,-33.69140625,0.0
1676922793.630829,-3.41796875,-56.15234375,-56.15234375,-47.8515625,0.0
1676922793.6345901,-15.13671875,-62.01171875,-43.45703125,-40.0390625,0.0
1676922793.6383512,-23.4375,-41.015625,-31.25,-12.20703125,0.0
1676922793.6421123,-32.2265625,-31.73828125,-43.45703125,-12.6953125,0.0
1676922793.6458735,-38.57421875,-48.33984375,-64.453125,-45.41015625,0.0
1676922793.6496346,-36.1328125,-52.734375,-53.22265625,-63.4765625,0.0
1676922793.6533957,-28.80859375,-23.4375,-37.109375,-29.78515625,0.0
1676922793.6571567,-29.78515625,-27.83203125,-40.0390625,-10.7421875,0.0
1676922793.6610048,-27.34375,-43.9453125,-40.0390625,-31.73828125,0.0
1676922793.6648529,-37.109375,-37.109375,-52.734375,-61.03515625,0.0
1676922793.6687007,-36.62109375,-50.78125,-50.78125,-45.41015625,0.0
1676922793.6725488,-18.06640625,-58.10546875,-42.48046875,-10.7421875,0.0
1676922793.6763968,-17.578125,-37.59765625,-43.9453125,-22.94921875,0.0
1676922793.680245,-22.94921875,-27.34375,-45.8984375,-40.0390625,0.0
1676922793.684093,-19.04296875,-32.71484375,-50.78125,-33.69140625,0.0
1676922793.687941,-14.16015625,-48.828125,-41.9921875,-2.9296875,0.0
1676922793.6917892,-12.6953125,-56.640625,-45.8984375,-0.48828125,0.0
1676922793.695637,-22.4609375,-34.1796875,-44.921875,-40.0390625,0.0
1676922793.699485,-19.04296875,-33.203125,-43.45703125,-46.38671875,0.0
1676922793.7033331,-11.71875,-45.8984375,-45.41015625,-21.97265625,0.0
1676922793.7095037,-23.4375,-48.33984375,-46.38671875,-24.4140625,0.0
1676922793.715674,-19.04296875,-55.17578125,-40.0390625,-50.29296875,0.0
1676922793.7218444,7.8125,-39.0625,-35.64453125,-34.66796875,0.0
1676922793.728015,0.9765625,-50.78125,-53.7109375,-13.18359375,0.0
1676922793.7341852,-26.3671875,-69.3359375,-53.7109375,-17.08984375,0.0
1676922793.7403557,-29.296875,-40.0390625,-51.26953125,-35.15625,0.0
1676922793.7465262,-36.1328125,-42.48046875,-58.59375,-64.94140625,0.0
1676922793.7526965,-26.3671875,-64.453125,-45.41015625,-33.203125,0.0
1676922793.758867,-8.7890625,-36.1328125,-27.34375,8.30078125,0.0
1676922793.7650375,-8.30078125,-35.64453125,-36.62109375,-11.71875,0.0
1676922793.7712078,-9.765625,-43.9453125,-38.57421875,-25.87890625,0.0
1676922793.7773783,-28.3203125,-45.8984375,-38.57421875,-33.203125,0.0
1676922793.7786412,-45.8984375,-71.77734375,-63.4765625,-29.296875,0.0
1676922793.7799044,-52.24609375,-73.73046875,-53.7109375,-18.06640625,0.0
1676922793.7811673,-37.59765625,-57.12890625,-40.0390625,-34.1796875,0.0
1676922793.7824302,-21.484375,-45.8984375,-39.0625,-41.9921875,0.0
1676922793.7836933,-26.85546875,-49.31640625,-28.3203125,-15.13671875,0.0
1676922793.7849562,-4.39453125,-56.15234375,-42.48046875,15.625,0.0
1676922793.7862191,9.27734375,-64.453125,-56.640625,6.8359375,0.0
1676922793.7874823,-15.625,-42.48046875,-33.69140625,-33.69140625,0.0
1676922793.7887452,-26.3671875,-3.90625,-27.34375,-27.83203125,0.0
1676922793.790008,-33.69140625,-19.04296875,-44.43359375,-20.01953125,0.0
1676922793.7912712,-41.50390625,-44.921875,-38.57421875,-37.59765625,0.0
1676922793.792534,-46.875,-51.7578125,-36.1328125,-48.33984375,0.0
1676922793.7962523,-40.0390625,-65.4296875,-30.76171875,-35.64453125,0.0
1676922793.7999706,-35.64453125,-66.89453125,-34.1796875,-24.4140625,0.0
1676922793.8036888,-41.015625,-61.5234375,-44.921875,-25.390625,0.0
1676922793.807407,-46.875,-53.22265625,-40.0390625,-44.921875,0.0
1676922793.8111253,-38.0859375,-51.26953125,-25.87890625,-46.38671875,0.0
1676922793.8148434,-20.99609375,-69.3359375,-22.4609375,-12.6953125,0.0
1676922793.8185616,-17.08984375,-60.546875,-50.78125,-14.16015625,0.0
1676922793.82228,-7.32421875,-44.43359375,-47.36328125,-35.15625,0.0
1676922793.825998,-18.5546875,-52.734375,-32.2265625,-44.43359375,0.0
1676922793.8297162,-31.25,-52.734375,-39.0625,-23.4375,0.0
1676922793.8334346,-26.3671875,-49.31640625,-51.7578125,-19.53125,0.0
1676922793.8371527,-22.94921875,-34.1796875,-42.48046875,-36.62109375,0.0
1676922793.840996,-26.3671875,-34.66796875,-38.0859375,-49.8046875,0.0
1676922793.844839,-23.4375,-46.875,-47.8515625,-37.109375,0.0
1676922793.8486824,-22.4609375,-42.96875,-45.41015625,-7.32421875,0.0
1676922793.8525257,-30.2734375,-37.109375,-55.6640625,-25.390625,0.0
1676922793.8563688,-13.671875,-46.875,-49.8046875,-50.78125,0.0
1676922793.860212,-9.765625,-68.359375,-31.73828125,-32.71484375,0.0
1676922793.8640554,-8.7890625,-58.10546875,-40.52734375,-0.9765625,0.0
1676922793.8678985,-7.8125,-42.48046875,-44.921875,-1.953125,0.0
1676922793.8717418,-29.296875,-46.38671875,-53.7109375,-41.9921875,0.0
1676922793.875585,-28.3203125,-52.24609375,-51.7578125,-54.6875,0.0
1676922793.8794281,-27.34375,-45.41015625,-32.2265625,-20.5078125,0.0
1676922793.8832715,-52.24609375,-39.55078125,-46.38671875,-18.06640625,0.0
1676922793.8883169,-31.73828125,-50.29296875,-55.17578125,-39.55078125,0.0
1676922793.8933625,-5.859375,-45.41015625,-39.55078125,-33.69140625,0.0
1676922793.898408,-14.6484375,-41.015625,-34.66796875,-5.37109375,0.0
1676922793.9034534,-22.4609375,-51.26953125,-40.0390625,-6.34765625,0.0
1676922793.9084988,-30.2734375,-44.43359375,-51.7578125,-36.1328125,0.0
1676922793.9135442,-27.83203125,-36.62109375,-52.734375,-46.38671875,0.0
1676922793.9185898,-21.484375,-44.921875,-43.45703125,-29.78515625,0.0
1676922793.9236352,-17.08984375,-42.96875,-43.45703125,-13.18359375,0.0
1676922793.9286807,-17.578125,-43.45703125,-29.296875,-26.85546875,0.0
1676922793.9337263,-27.34375,-51.7578125,-26.3671875,-57.12890625,0.0
1676922793.9387717,-38.0859375,-57.12890625,-40.0390625,-49.8046875,0.0
1676922793.9438171,-44.43359375,-61.03515625,-41.50390625,-15.625,0.0
1676922793.9474285,-30.76171875,-82.51953125,-33.203125,-9.765625,0.0
1676922793.9510398,-19.04296875,-60.05859375,-41.9921875,-38.0859375,0.0
1676922793.9546509,-24.90234375,-34.66796875,-52.24609375,-39.0625,0.0
1676922793.9582622,-20.99609375,-40.0390625,-50.78125,-14.6484375,0.0
1676922793.9618735,-17.578125,-40.0390625,-59.08203125,-15.625,0.0
1676922793.9654846,-20.99609375,-52.734375,-60.05859375,-37.109375,0.0
1676922793.969096,-36.1328125,-46.875,-40.0390625,-43.45703125,0.0
1676922793.9727073,-20.5078125,-29.296875,-26.85546875,-20.5078125,0.0
1676922793.9763186,-26.85546875,-47.8515625,-41.9921875,-8.30078125,0.0
1676922793.97993,-34.1796875,-63.96484375,-43.9453125,-9.765625,0.0
1676922793.983541,-21.97265625,-57.12890625,-39.0625,-33.69140625,0.0
1676922793.9871523,-26.85546875,-67.87109375,-46.875,-28.80859375,0.0
1676922793.990903,-26.85546875,-66.89453125,-51.7578125,-2.44140625,0.0
1676922793.9946532,-25.87890625,-41.015625,-60.546875,-19.53125,0.0
1676922793.9984038,-26.85546875,-47.8515625,-51.26953125,-29.78515625,0.0
1676922794.0021544,-27.34375,-55.6640625,-48.33984375,-15.13671875,0.0
1676922794.005905,-26.85546875,-46.875,-41.50390625,-3.41796875,0.0
1676922794.0096555,-32.2265625,-68.359375,-25.87890625,-7.32421875,0.0
1676922794.0134058,-34.66796875,-56.15234375,-32.2265625,-37.59765625,0.0
1676922794.0171564,-34.66796875,-25.87890625,-38.0859375,-50.78125,0.0
1676922794.020907,-40.52734375,-21.484375,-50.29296875,-19.53125,0.0
1676922794.0246572,-32.2265625,-26.85546875,-50.78125,-2.9296875,0.0
1676922794.0284078,-20.5078125,-43.9453125,-39.55078125,-25.87890625,0.0
1676922794.0321584,-23.4375,-57.6171875,-41.50390625,-31.73828125,0.0
1676922794.035908,-27.83203125,-49.31640625,-54.6875,-17.578125,0.0
1676922794.0396576,-21.484375,-50.29296875,-57.12890625,-5.37109375,0.0
1676922794.043407,-16.6015625,-53.22265625,-62.98828125,-12.20703125,0.0
1676922794.0471566,-26.85546875,-40.52734375,-47.8515625,-44.921875,0.0
1676922794.0509062,-24.4140625,-59.08203125,-34.66796875,-39.0625,0.0
1676922794.0546558,-39.55078125,-62.01171875,-43.45703125,-16.6015625,0.0
1676922794.0584054,-34.66796875,-36.62109375,-31.73828125,-18.5546875,0.0
1676922794.062155,-3.90625,-38.0859375,-14.16015625,-30.2734375,0.0
1676922794.0659046,-19.53125,-38.0859375,-32.2265625,-25.87890625,0.0
1676922794.069654,-24.4140625,-41.50390625,-44.43359375,-1.953125,0.0
1676922794.0734036,-20.99609375,-60.546875,-52.24609375,-9.27734375,0.0
1676922794.0771532,-14.16015625,-58.59375,-48.33984375,-34.66796875,0.0
1676922794.0809355,-16.6015625,-54.19921875,-54.19921875,-41.50390625,0.0
1676922794.0847178,-25.390625,-53.7109375,-59.08203125,-29.78515625,0.0
1676922794.0885,-23.4375,-45.41015625,-26.85546875,-9.765625,0.0
1676922794.0922823,-26.85546875,-47.36328125,-24.90234375,-23.4375,0.0
1676922794.0960646,-22.94921875,-51.7578125,-40.52734375,-42.48046875,0.0
1676922794.0998468,-22.4609375,-54.19921875,-49.31640625,-32.71484375,0.0
1676922794.1036289,-34.1796875,-40.52734375,-57.6171875,-14.16015625,0.0
1676922794.1074111,-31.73828125,-28.3203125,-60.05859375,-24.4140625,0.0
1676922794.1111934,-33.69140625,-36.1328125,-49.8046875,-56.15234375,0.0
1676922794.1149757,-34.66796875,-43.9453125,-45.41015625,-38.57421875,0.0
1676922794.118758,-26.3671875,-54.6875,-42.96875,-0.9765625,0.0
1676922794.1225402,-29.78515625,-47.8515625,-37.109375,-15.13671875,0.0
1676922794.1262503,-25.390625,-56.640625,-37.59765625,-46.875,0.0
1676922794.1299603,-21.97265625,-59.5703125,-43.9453125,-43.9453125,0.0
1676922794.1336703,-25.87890625,-32.71484375,-37.59765625,-12.6953125,0.0
1676922794.1373804,-28.80859375,-29.296875,-29.296875,-12.6953125,0.0
1676922794.1410904,-32.2265625,-33.203125,-48.33984375,-43.9453125,0.0
1676922794.1448002,-32.2265625,-13.671875,-64.94140625,-46.38671875,0.0
1676922794.1485102,-28.80859375,-33.203125,-31.73828125,-0.48828125,0.0
1676922794.1522202,-22.4609375,-68.359375,-23.92578125,16.11328125,0.0
1676922794.1559303,-29.296875,-55.6640625,-37.59765625,-22.4609375,0.0
1676922794.1596403,-38.57421875,-44.43359375,-31.73828125,-51.26953125,0.0
1676922794.1633503,-34.1796875,-37.59765625,-20.99609375,-28.3203125,0.0
1676922794.1670604,-30.2734375,-31.73828125,-31.73828125,-8.7890625,0.0
1676922794.17084,-36.1328125,-42.96875,-44.921875,-26.85546875,0.0
1676922794.17462,-31.25,-27.83203125,-38.0859375,-38.0859375,0.0
1676922794.1783996,-19.04296875,-22.94921875,-38.0859375,-20.99609375,0.0
1676922794.1821792,-26.3671875,-48.33984375,-40.0390625,-0.9765625,0.0
1676922794.185959,-47.36328125,-69.3359375,-46.38671875,-9.765625,0.0
1676922794.1897388,-34.1796875,-61.5234375,-35.64453125,-28.3203125,0.0
1676922794.1935184,-34.1796875,-47.36328125,-37.109375,-36.62109375,0.0
1676922794.1972983,-51.26953125,-35.15625,-47.8515625,-26.3671875,0.0
1676922794.201078,-35.15625,-37.109375,-35.15625,-21.97265625,0.0
1676922794.2048576,-25.87890625,-40.0390625,-31.73828125,-38.0859375,0.0
1676922794.2086375,-18.06640625,-41.50390625,-41.50390625,-45.41015625,0.0
1676922794.2124171,-32.71484375,-51.26953125,-50.78125,-27.83203125,0.0
1676922794.2161548,-44.921875,-48.828125,-58.59375,-15.625,0.0
1676922794.2198925,-24.4140625,-41.50390625,-44.921875,-24.90234375,0.0
1676922794.22363,-18.5546875,-52.734375,-39.55078125,-37.59765625,0.0
1676922794.2273676,-22.4609375,-60.05859375,-41.015625,-20.99609375,0.0
1676922794.2311053,-25.390625,-31.73828125,-36.62109375,0.48828125,0.0
1676922794.2348428,-25.87890625,-15.13671875,-36.1328125,-15.13671875,0.0
1676922794.2385805,-29.296875,-50.29296875,-38.0859375,-39.55078125,0.0
1676922794.2423182,-27.34375,-63.96484375,-41.015625,-34.66796875,0.0
1676922794.2460558,-30.76171875,-47.8515625,-45.41015625,-6.34765625,0.0
1676922794.2497935,-25.87890625,-32.71484375,-56.640625,-6.8359375,0.0
1676922794.253531,-24.90234375,-37.109375,-54.19921875,-34.66796875,0.0
1676922794.2572687,-25.390625,-35.15625,-34.1796875,-42.96875,0.0
1676922794.2622964,-24.4140625,-32.2265625,-34.1796875,-22.4609375,0.0
1676922794.2673244,-33.203125,-59.08203125,-57.12890625,-24.4140625,0.0
1676922794.2723522,-29.78515625,-65.91796875,-63.4765625,-37.59765625,0.0
1676922794.27738,-22.94921875,-51.7578125,-46.38671875,-39.55078125,0.0
1676922794.282408,-11.71875,-54.6875,-34.1796875,-4.8828125,0.0
1676922794.2874358,-16.11328125,-42.96875,-41.9921875,14.16015625,0.0
1676922794.2924635,-30.76171875,-30.76171875,-61.03515625,-15.625,0.0
1676922794.2974916,-26.85546875,-37.59765625,-67.87109375,-35.64453125,0.0
1676922794.3025193,-27.34375,-48.33984375,-51.26953125,-17.578125,0.0
1676922794.307547,-29.296875,-52.24609375,-42.48046875,9.27734375,0.0
1676922794.312575,-26.3671875,-58.59375,-41.9921875,-2.9296875,0.0
1676922794.3176029,-25.390625,-41.9921875,-38.57421875,-34.66796875,0.0
1676922794.3213232,-16.6015625,-31.25,-45.41015625,-24.4140625,0.0
1676922794.3250437,-18.5546875,-56.640625,-60.05859375,4.8828125,0.0
1676922794.328764,-32.2265625,-43.9453125,-51.26953125,-9.765625,0.0
1676922794.3324845,-28.80859375,-32.2265625,-42.48046875,-35.64453125,0.0
1676922794.3362048,-30.2734375,-50.29296875,-45.41015625,-40.52734375,0.0
1676922794.3399253,-31.73828125,-49.31640625,-39.0625,-11.71875,0.0
1676922794.3436456,-17.578125,-29.78515625,-39.55078125,11.71875,0.0
1676922794.3473659,-14.16015625,-38.57421875,-44.921875,-11.71875,0.0
1676922794.3510864,-27.34375,-58.10546875,-41.9921875,-37.109375,0.0
1676922794.3548067,-40.0390625,-45.41015625,-44.921875,-22.4609375,0.0
1676922794.3585272,-26.85546875,-39.55078125,-48.33984375,-3.41796875,0.0
1676922794.3622475,-13.18359375,-53.22265625,-44.43359375,-13.18359375,0.0
1676922794.3659875,-20.01953125,-72.265625,-48.828125,-38.0859375,0.0
1676922794.3697276,-17.578125,-57.6171875,-63.4765625,-25.87890625,0.0
1676922794.3734674,-19.04296875,-24.90234375,-69.3359375,-9.27734375,0.0
1676922794.3772075,-21.484375,-22.94921875,-44.921875,-11.71875,0.0
1676922794.3809476,-18.5546875,-31.73828125,-35.15625,-26.85546875,0.0
1676922794.3846874,-29.296875,-27.34375,-32.71484375,-30.76171875,0.0
1676922794.3884275,-37.109375,-37.59765625,-30.76171875,-12.6953125,0.0
1676922794.3921676,-26.85546875,-58.10546875,-31.25,-13.671875,0.0
1676922794.3959076,-39.0625,-59.08203125,-31.73828125,-31.73828125,0.0
1676922794.3996477,-38.0859375,-38.57421875,-33.203125,-36.62109375,0.0
1676922794.4033875,-18.5546875,-28.80859375,-32.2265625,-10.7421875,0.0
1676922794.4071276,-28.3203125,-23.4375,-31.25,-0.9765625,0.0
1676922794.4108796,-28.80859375,-32.71484375,-46.38671875,-31.25,0.0
1676922794.4146318,-11.23046875,-51.26953125,-51.7578125,-38.0859375,0.0
1676922794.4183838,-18.5546875,-49.8046875,-38.57421875,-21.484375,0.0
1676922794.4221358,-20.5078125,-47.8515625,-39.0625,-18.06640625,0.0
1676922794.425888,-20.99609375,-40.52734375,-44.43359375,-33.69140625,0.0
1676922794.42964,-22.4609375,-45.41015625,-39.0625,-47.8515625,0.0
1676922794.433392,-17.08984375,-69.82421875,-26.85546875,-30.76171875,0.0
1676922794.4371443,-18.06640625,-62.98828125,-30.2734375,3.41796875,0.0
1676922794.4408963,-9.765625,-36.62109375,-43.45703125,11.23046875,0.0
1676922794.4446483,-16.6015625,-20.99609375,-32.71484375,-25.390625,0.0
1676922794.4484005,-28.80859375,-38.0859375,-36.1328125,-48.828125,0.0
1676922794.4521525,-38.0859375,-50.78125,-52.734375,-22.94921875,0.0
1676922794.4558954,-48.33984375,-43.45703125,-44.921875,-18.06640625,0.0
1676922794.4596384,-46.38671875,-43.45703125,-36.1328125,-38.57421875,0.0
1676922794.4633813,-43.9453125,-50.78125,-33.203125,-46.875,0.0
1676922794.4671242,-35.15625,-70.80078125,-37.109375,-23.92578125,0.0
1676922794.4708672,-33.203125,-73.2421875,-44.921875,-7.8125,0.0
1676922794.4746103,-30.2734375,-60.546875,-40.0390625,-27.83203125,0.0
1676922794.4783533,-26.85546875,-55.6640625,-38.57421875,-42.48046875,0.0
1676922794.4820962,-17.578125,-47.36328125,-42.48046875,-9.765625,0.0
1676922794.4858391,-20.01953125,-41.9921875,-44.43359375,9.765625,0.0
1676922794.489582,-30.76171875,-36.1328125,-37.59765625,-16.11328125,0.0
1676922794.493325,-27.34375,-39.0625,-42.48046875,-35.15625,0.0
1676922794.497068,-29.296875,-45.41015625,-50.29296875,-19.04296875,0.0
1676922794.5008254,-28.3203125,-62.01171875,-45.8984375,-3.41796875,0.0
1676922794.504583,-18.5546875,-57.6171875,-43.9453125,-8.7890625,0.0
1676922794.5083404,-17.578125,-52.24609375,-38.57421875,-28.3203125,0.0
1676922794.5120978,-17.08984375,-50.78125,-37.59765625,-28.80859375,0.0
1676922794.5158553,-20.99609375,-38.0859375,-51.7578125,5.37109375,0.0
1676922794.5196128,-18.5546875,-20.5078125,-38.57421875,7.32421875,0.0
1676922794.5233705,-33.203125,-38.0859375,-33.203125,-22.94921875,0.0
1676922794.527128,-28.3203125,-61.03515625,-47.36328125,-31.73828125,0.0
1676922794.5308855,-24.4140625,-60.05859375,-46.875,-23.92578125,0.0
1676922794.534643,-36.1328125,-59.08203125,-49.31640625,-11.71875,0.0
1676922794.5384004,-34.66796875,-49.31640625,-63.96484375,-27.34375,0.0
1676922794.542158,-41.50390625,-48.828125,-63.96484375,-45.8984375,0.0
1676922794.5460093,-18.5546875,-38.0859375,-49.31640625,-21.484375,0.0
1676922794.5498607,-11.71875,-34.66796875,-53.7109375,0.0,0.0
1676922794.553712,-12.6953125,-46.875,-51.7578125,-3.90625,0.0
1676922794.5575633,-11.23046875,-32.71484375,-39.55078125,-23.92578125,0.0
1676922794.5614147,-18.06640625,-37.59765625,-43.9453125,-31.73828125,0.0
1676922794.5652661,-20.5078125,-48.828125,-39.55078125,-11.71875,0.0
1676922794.5691175,-24.4140625,-41.015625,-24.90234375,-7.8125,0.0
1676922794.572969,-29.296875,-41.015625,-25.390625,-27.34375,0.0
1676922794.5768204,-31.25,-38.0859375,-51.26953125,-33.69140625,0.0
1676922794.5806715,-26.85546875,-47.8515625,-62.98828125,-9.765625,0.0
1676922794.584523,-25.390625,-42.96875,-35.15625,4.39453125,0.0
1676922794.5883744,-30.2734375,-28.80859375,-24.90234375,-19.53125,0.0
1676922794.5920115,-24.90234375,-38.57421875,-39.55078125,-40.52734375,0.0
1676922794.5956483,-25.390625,-59.08203125,-27.83203125,-20.99609375,0.0
1676922794.5992854,-13.671875,-52.734375,-12.6953125,5.37109375,0.0
1676922794.6029224,-13.671875,-45.41015625,-30.2734375,-18.06640625,0.0
1676922794.6065593,-18.06640625,-59.5703125,-57.6171875,-53.22265625,0.0
1676922794.6101964,-12.20703125,-64.94140625,-53.22265625,-30.2734375,0.0
1676922794.6138334,-19.04296875,-51.26953125,-37.109375,16.11328125,0.0
1676922794.6174703,-28.3203125,-21.97265625,-41.50390625,2.9296875,0.0
1676922794.6211073,-25.390625,-15.13671875,-62.5,-37.59765625,0.0
1676922794.6247444,-17.08984375,-30.76171875,-58.10546875,-31.73828125,0.0
1676922794.6283813,-6.8359375,-33.203125,-27.83203125,2.44140625,0.0
1676922794.6320183,-26.3671875,-50.29296875,-20.5078125,-3.90625,0.0
1676922794.6370838,-47.8515625,-59.08203125,-37.59765625,-51.7578125,0.0
1676922794.642149,-46.38671875,-47.36328125,-42.48046875,-62.01171875,0.0
1676922794.6472144,-50.29296875,-55.17578125,-46.875,-18.5546875,0.0
1676922794.6522796,-41.50390625,-50.29296875,-59.08203125,-5.859375,0.0
1676922794.657345,-40.52734375,-44.921875,-58.59375,-27.83203125,0.0
1676922794.6624103,-49.31640625,-54.6875,-62.01171875,-43.45703125,0.0
1676922794.6674757,-50.29296875,-51.26953125,-64.453125,-24.90234375,0.0
1676922794.6725411,-42.48046875,-46.38671875,-52.24609375,-0.9765625,0.0
1676922794.6776063,-46.875,-51.7578125,-28.80859375,-20.01953125,0.0
1676922794.6826718,-42.48046875,-39.55078125,-20.01953125,-38.0859375,0.0
1676922794.687737,-41.9921875,-30.2734375,-21.484375,-25.87890625,0.0
1676922794.6928024,-43.45703125,-29.78515625,-22.94921875,-2.44140625,0.0
1676922794.6964984,-37.59765625,-26.85546875,-25.87890625,-6.34765625,0.0
1676922794.7001941,-33.69140625,-48.33984375,-25.87890625,-37.109375,0.0
1676922794.70389,-28.3203125,-55.6640625,-40.52734375,-39.55078125,0.0
1676922794.7075858,-27.83203125,-41.50390625,-35.64453125,-4.8828125,0.0
1676922794.7112818,-34.1796875,-64.94140625,-30.2734375,-4.39453125,0.0
1676922794.7149777,-35.64453125,-44.43359375,-51.7578125,-26.85546875,0.0
1676922794.7186735,-45.8984375,-13.671875,-46.875,-36.1328125,0.0
1676922794.7223694,-32.2265625,-31.73828125,-24.4140625,-14.6484375,0.0
1676922794.7260652,-27.83203125,-50.29296875,-16.11328125,5.37109375,0.0
1676922794.7297611,-29.296875,-43.45703125,-14.16015625,-5.37109375,0.0
1676922794.7334569,-30.76171875,-32.2265625,-26.85546875,-39.55078125,0.0
1676922794.7371528,-28.3203125,-41.015625,-41.50390625,-33.203125,0.0
1676922794.7409,-34.1796875,-64.453125,-55.6640625,-13.18359375,0.0
1676922794.7446475,-37.109375,-70.3125,-42.96875,-27.34375,0.0
1676922794.7483947,-23.4375,-53.22265625,-40.52734375,-45.8984375,0.0
1676922794.7521422,-17.578125,-39.55078125,-71.2890625,-34.66796875,0.0
1676922794.7558894,-16.6015625,-48.828125,-66.89453125,-5.37109375,0.0
1676922794.7596369,-14.6484375,-49.31640625,-47.36328125,-8.30078125,0.0
1676922794.763384,-13.671875,-31.73828125,-41.50390625,-44.921875,0.0
1676922794.7671313,-20.99609375,-29.78515625,-27.34375,-46.38671875,0.0
1676922794.7708788,-18.06640625,-38.57421875,-28.3203125,-4.39453125,0.0
1676922794.774626,-1.953125,-37.59765625,-28.3203125,5.37109375,0.0
1676922794.7783735,-8.30078125,-54.19921875,-30.2734375,-29.296875,0.0
1676922794.7821207,-29.78515625,-63.96484375,-37.59765625,-51.7578125,0.0
1676922794.7859755,-37.109375,-35.15625,-47.36328125,-30.2734375,0.0
1676922794.7898304,-17.08984375,-32.2265625,-51.26953125,-6.34765625,0.0
1676922794.7936854,-12.6953125,-45.8984375,-63.4765625,-23.4375,0.0
1676922794.7975402,-25.87890625,-43.9453125,-78.125,-54.6875,0.0
1676922794.801395,-19.04296875,-51.7578125,-49.8046875,-30.76171875,0.0
1676922794.80525,-13.671875,-47.36328125,-31.25,-1.46484375,0.0
1676922794.809105,-21.97265625,-35.64453125,-48.828125,-23.4375,0.0
1676922794.8129597,-11.23046875,-30.2734375,-52.734375,-38.57421875,0.0
1676922794.8168144,-15.13671875,-40.0390625,-48.828125,-22.94921875,0.0
1676922794.8206694,-17.08984375,-25.390625,-39.55078125,-0.48828125,0.0
1676922794.8245244,-2.44140625,-31.25,-29.296875,-5.37109375,0.0
1676922794.8283792,-23.92578125,-60.05859375,-47.36328125,-43.45703125,0.0
1676922794.8332746,-33.69140625,-47.36328125,-65.4296875,-45.41015625,0.0
1676922794.83817,-8.7890625,-55.6640625,-59.5703125,-15.13671875,0.0
1676922794.8430655,-7.8125,-57.6171875,-49.31640625,-6.34765625,0.0
1676922794.847961,-8.30078125,-45.41015625,-36.1328125,-19.53125,0.0
1676922794.8528564,-10.25390625,-44.921875,-27.83203125,-28.80859375,0.0
1676922794.8577518,-16.6015625,-29.78515625,-37.109375,-14.6484375,0.0
1676922794.8626475,-31.25,-40.52734375,-45.41015625,-8.30078125,0.0
1676922794.867543,-31.73828125,-46.38671875,-52.24609375,-12.6953125,0.0
1676922794.8724384,-17.08984375,-30.2734375,-45.8984375,-34.1796875,0.0
1676922794.8773339,-4.39453125,-33.69140625,-35.15625,-30.2734375,0.0
1676922794.8822293,-14.16015625,-55.17578125,-53.22265625,-0.9765625,0.0
1676922794.8871248,-27.83203125,-61.5234375,-70.3125,-18.06640625,0.0
1676922794.8896277,-12.6953125,-52.24609375,-60.05859375,-43.45703125,0.0
1676922794.8921304,-9.765625,-47.8515625,-41.9921875,-28.80859375,0.0
1676922794.8946333,-17.578125,-38.57421875,-36.1328125,5.37109375,0.0
1676922794.897136,-19.53125,-41.50390625,-29.296875,-8.7890625,0.0
1676922794.899639,-19.53125,-53.7109375,-33.203125,-40.0390625,0.0
1676922794.9021416,-17.578125,-40.0390625,-32.2265625,-33.203125,0.0
1676922794.9046445,-19.04296875,-62.5,-28.80859375,3.41796875,0.0
1676922794.9071474,-29.78515625,-83.0078125,-41.9921875,11.23046875,0.0
1676922794.90965,-27.83203125,-38.0859375,-43.9453125,-15.13671875,0.0
1676922794.912153,-9.765625,-12.20703125,-34.66796875,-28.80859375,0.0
1676922794.9146557,-27.83203125,-34.66796875,-39.55078125,-13.671875,0.0
1676922794.9171586,-34.66796875,-46.875,-41.9921875,15.13671875,0.0
1676922794.92091,-15.13671875,-36.62109375,-32.2265625,1.953125,0.0
1676922794.9246612,-5.37109375,-35.15625,-24.4140625,-26.3671875,0.0
1676922794.9284124,-11.71875,-54.6875,-28.80859375,-18.06640625,0.0
1676922794.9321635,-15.625,-58.10546875,-33.203125,5.37109375,0.0
1676922794.9359148,-22.94921875,-49.8046875,-28.3203125,-5.859375,0.0
1676922794.939666,-37.109375,-50.78125,-33.69140625,-40.0390625,0.0
1676922794.9434173,-37.109375,-39.55078125,-48.33984375,-36.62109375,0.0
1676922794.9471686,-24.90234375,-33.203125,-41.9921875,-4.39453125,0.0
1676922794.9509196,-28.3203125,-34.66796875,-30.2734375,-14.6484375,0.0
1676922794.954671,-26.3671875,-38.57421875,-32.71484375,-33.69140625,0.0
1676922794.9584222,-28.3203125,-50.78125,-43.9453125,-33.203125,0.0
1676922794.9621735,-19.04296875,-56.640625,-37.109375,-6.34765625,0.0
1676922794.9659982,-2.9296875,-45.41015625,-23.92578125,17.578125,0.0
1676922794.969823,-3.90625,-47.36328125,-39.55078125,-6.8359375,0.0
1676922794.9736478,-24.90234375,-59.5703125,-42.48046875,-39.0625,0.0
1676922794.9774725,-32.71484375,-38.57421875,-41.50390625,-20.99609375,0.0
1676922794.9812973,-19.04296875,-31.73828125,-41.9921875,9.765625,0.0
1676922794.9851222,-20.99609375,-33.203125,-33.203125,-9.27734375,0.0
1676922794.988947,-17.578125,-34.66796875,-22.94921875,-30.2734375,0.0
1676922794.9927716,-13.18359375,-43.9453125,-16.6015625,-15.625,0.0
1676922794.9965963,-23.4375,-47.36328125,-18.06640625,16.6015625,0.0
1676922795.000421,-36.1328125,-46.38671875,-28.3203125,12.6953125,0.0
1676922795.004246,-34.66796875,-51.7578125,-40.52734375,-22.94921875,0.0
1676922795.0080707,-23.4375,-56.640625,-41.015625,-37.59765625,0.0
1676922795.0129924,-27.34375,-60.546875,-50.78125,-16.11328125,0.0
1676922795.0179138,-38.57421875,-50.29296875,-46.875,1.953125,0.0
1676922795.0228355,-43.9453125,-42.48046875,-38.0859375,-19.04296875,0.0
1676922795.027757,-39.55078125,-41.50390625,-39.0625,-43.9453125,0.0
1676922795.0326786,-28.3203125,-30.76171875,-44.43359375,-17.08984375,0.0
1676922795.0376,-23.4375,-47.8515625,-39.0625,9.765625,0.0
1676922795.0425217,-15.625,-59.5703125,-24.4140625,-6.8359375,0.0
1676922795.0474434,-5.859375,-38.57421875,-18.5546875,-31.25,0.0
1676922795.0523648,-17.08984375,-41.50390625,-27.83203125,-16.11328125,0.0
1676922795.0572865,-34.1796875,-58.59375,-31.73828125,14.16015625,0.0
1676922795.062208,-25.87890625,-42.96875,-30.2734375,-9.765625,0.0
1676922795.0671296,-28.80859375,-29.78515625,-42.96875,-50.78125,0.0
1676922795.0708816,-44.921875,-33.69140625,-49.8046875,-37.59765625,0.0
1676922795.0746336,-38.0859375,-43.9453125,-40.0390625,0.0,0.0
1676922795.0783856,-26.3671875,-52.734375,-35.15625,-3.41796875,0.0
1676922795.0821376,-32.2265625,-57.6171875,-34.1796875,-42.96875,0.0
1676922795.0858896,-23.4375,-57.6171875,-25.390625,-41.015625,0.0
1676922795.0896416,-20.99609375,-46.38671875,-43.45703125,-10.7421875,0.0
1676922795.0933933,-28.80859375,-38.0859375,-49.31640625,-11.23046875,0.0
1676922795.0971453,-16.6015625,-39.0625,-31.25,-24.4140625,0.0
1676922795.1008973,-24.90234375,-47.36328125,-44.921875,-38.0859375,0.0
1676922795.1046493,-34.66796875,-54.6875,-46.875,-15.13671875,0.0
1676922795.1084013,-37.59765625,-58.59375,-34.1796875,-6.8359375,0.0
1676922795.1121533,-41.9921875,-43.45703125,-39.55078125,-29.296875,0.0
1676922795.1159015,-37.59765625,-34.66796875,-35.15625,-41.50390625,0.0
1676922795.1196496,-32.2265625,-50.78125,-32.71484375,-25.390625,0.0
1676922795.1233978,-24.4140625,-52.24609375,-39.0625,-0.48828125,0.0
1676922795.1271462,-30.76171875,-43.45703125,-40.52734375,-14.6484375,0.0
1676922795.1308944,-29.296875,-50.29296875,-27.83203125,-44.43359375,0.0
1676922795.1346426,-19.04296875,-56.15234375,-14.6484375,-24.4140625,0.0
1676922795.1383908,-38.0859375,-44.921875,-35.15625,-4.39453125,0.0
1676922795.142139,-41.50390625,-35.15625,-45.8984375,-18.06640625,0.0
1676922795.1458874,-32.71484375,-29.78515625,-41.015625,-35.64453125,0.0
1676922795.1496356,-30.2734375,-43.9453125,-50.78125,-33.203125,0.0
1676922795.1533837,-32.2265625,-45.8984375,-57.6171875,-10.25390625,0.0
1676922795.157132,-36.1328125,-43.9453125,-49.31640625,-5.37109375,0.0
1676922795.1608813,-27.34375,-43.9453125,-39.55078125,-25.87890625,0.0
1676922795.164631,-15.625,-41.015625,-38.57421875,-36.62109375,0.0
1676922795.1683803,-18.06640625,-61.03515625,-27.83203125,-10.25390625,0.0
1676922795.1721296,-27.34375,-71.2890625,-22.94921875,6.8359375,0.0
1676922795.175879,-33.203125,-53.7109375,-39.55078125,-19.53125,0.0
1676922795.1796284,-31.25,-30.76171875,-40.52734375,-49.8046875,0.0
1676922795.183378,-32.2265625,-34.1796875,-37.109375,-37.59765625,0.0
1676922795.1871274,-31.25,-56.15234375,-49.31640625,-8.30078125,0.0
1676922795.1908767,-22.94921875,-42.48046875,-44.43359375,-10.7421875,0.0
1676922795.1946263,-19.04296875,-27.83203125,-33.203125,-40.52734375,0.0
1676922795.1983757,-23.4375,-40.52734375,-30.76171875,-39.0625,0.0
1676922795.202125,-27.34375,-58.59375,-39.55078125,-6.34765625,0.0
1676922795.2059784,-21.97265625,-49.31640625,-35.64453125,-3.41796875,0.0
1676922795.209832,-11.71875,-43.45703125,-20.01953125,-24.4140625,0.0
1676922795.2136853,-15.625,-36.1328125,-41.015625,-33.69140625,0.0
1676922795.2175388,-20.01953125,-38.57421875,-51.26953125,-12.20703125,0.0
1676922795.2213922,-10.7421875,-39.55078125,-39.0625,10.7421875,0.0
1676922795.2252455,-3.41796875,-27.83203125,-36.62109375,-0.9765625,0.0
1676922795.229099,-11.71875,-50.29296875,-37.59765625,-34.66796875,0.0
1676922795.2329524,-14.6484375,-58.59375,-30.76171875,-16.6015625,0.0
1676922795.236806,-6.8359375,-39.0625,-30.2734375,10.25390625,0.0
1676922795.2406592,-15.625,-33.203125,-37.59765625,-17.08984375,0.0
1676922795.2445128,-13.671875,-20.01953125,-34.66796875,-40.0390625,0.0
1676922795.248366,-5.859375,-22.94921875,-41.50390625,-20.99609375,0.0
1676922795.2520154,-15.625,-52.734375,-52.24609375,3.90625,0.0
1676922795.2556648,-21.484375,-57.12890625,-48.33984375,-11.71875,0.0
1676922795.259314,-21.97265625,-39.0625,-55.17578125,-39.0625,0.0
1676922795.2629633,-18.5546875,-35.15625,-53.7109375,-32.2265625,0.0
1676922795.2666125,-25.390625,-44.921875,-44.921875,-11.23046875,0.0
1676922795.2702618,-21.97265625,-47.8515625,-41.50390625,-4.39453125,0.0
1676922795.2739112,-5.859375,-40.0390625,-25.87890625,-10.7421875,0.0
1676922795.2775605,-18.06640625,-46.38671875,-21.484375,-24.4140625,0.0
1676922795.2812097,-31.73828125,-48.33984375,-29.78515625,-18.5546875,0.0
1676922795.2848592,-27.34375,-39.55078125,-34.66796875,-3.41796875,0.0
1676922795.2885084,-27.83203125,-56.640625,-41.50390625,-31.73828125,0.0
1676922795.2921576,-44.43359375,-59.5703125,-56.15234375,-72.75390625,0.0
1676922795.2958999,-49.31640625,-40.0390625,-63.4765625,-54.6875,0.0
1676922795.299642,-34.1796875,-35.64453125,-52.734375,-22.4609375,0.0
1676922795.3033843,-29.78515625,-59.5703125,-49.8046875,-28.80859375,0.0
1676922795.3071268,-30.2734375,-70.80078125,-50.29296875,-51.26953125,0.0
1676922795.310869,-20.01953125,-69.82421875,-38.0859375,-48.828125,0.0
1676922795.3146112,-25.87890625,-41.015625,-34.66796875,-15.625,0.0
1676922795.3183534,-31.25,-31.73828125,-45.41015625,-8.30078125,0.0
1676922795.3220956,-39.55078125,-53.22265625,-37.109375,-35.15625,0.0
1676922795.325838,-61.5234375,-50.78125,-34.1796875,-53.22265625,0.0
1676922795.3295803,-41.015625,-42.96875,-49.31640625,-42.48046875,0.0
1676922795.3333225,-24.4140625,-34.1796875,-50.78125,-19.53125,0.0
1676922795.3370647,-30.76171875,-55.17578125,-50.78125,-42.48046875,0.0
1676922795.3408122,-29.296875,-86.9140625,-52.24609375,-65.4296875,0.0
1676922795.34456,-33.203125,-53.22265625,-37.109375,-29.296875,0.0
1676922795.3483074,-45.8984375,-56.15234375,-40.52734375,-20.01953125,0.0
1676922795.352055,-21.484375,-65.4296875,-50.78125,-38.57421875,0.0
1676922795.3558025,-1.46484375,-37.109375,-48.828125,-48.828125,0.0
1676922795.35955,-19.04296875,-48.33984375,-57.12890625,-41.50390625,0.0
1676922795.3632977,-38.0859375,-54.19921875,-63.96484375,-9.765625,0.0
1676922795.3670452,-34.1796875,-46.875,-54.19921875,-19.04296875,0.0
1676922795.3707929,-31.73828125,-43.45703125,-46.875,-56.640625,0.0
1676922795.3745403,-47.36328125,-49.31640625,-42.96875,-39.55078125,0.0
1676922795.378288,-42.96875,-60.546875,-47.36328125,-14.16015625,0.0
1676922795.3820355,-32.71484375,-44.43359375,-56.15234375,-23.4375,0.0
1676922795.3882968,-33.69140625,-37.109375,-60.05859375,-35.15625,0.0
1676922795.3945582,-40.0390625,-50.78125,-42.48046875,-37.109375,0.0
1676922795.4008193,-32.2265625,-61.5234375,-27.83203125,-7.8125,0.0
1676922795.4070807,-23.4375,-53.7109375,-44.921875,-2.9296875,0.0
1676922795.413342,-28.80859375,-51.7578125,-62.5,-33.203125,0.0
1676922795.4196033,-35.64453125,-61.03515625,-50.29296875,-45.41015625,0.0
1676922795.4258647,-33.69140625,-46.38671875,-28.80859375,-13.18359375,0.0
1676922795.432126,-40.52734375,-26.3671875,-43.9453125,-8.7890625,0.0
1676922795.4383874,-44.921875,-23.92578125,-62.98828125,-36.62109375,0.0
1676922795.4446485,-40.52734375,-34.66796875,-54.6875,-40.52734375,0.0
1676922795.4509099,-33.203125,-51.7578125,-47.8515625,-29.78515625,0.0
1676922795.4571712,-20.01953125,-54.19921875,-39.0625,-9.765625,0.0
1676922795.4597015,-16.11328125,-44.43359375,-28.80859375,-5.859375,0.0
1676922795.4622316,-20.99609375,-47.36328125,-42.96875,-33.69140625,0.0
1676922795.464762,-31.25,-61.03515625,-53.7109375,-38.0859375,0.0
1676922795.467292,-32.71484375,-68.359375,-45.8984375,-5.859375,0.0
1676922795.4698224,-14.16015625,-63.96484375,-41.015625,6.8359375,0.0
1676922795.4723525,-10.7421875,-52.24609375,-48.828125,-17.08984375,0.0
1676922795.4748828,-22.4609375,-43.9453125,-52.24609375,-39.55078125,0.0
1676922795.4774132,-22.4609375,-41.50390625,-36.62109375,-18.06640625,0.0
1676922795.4799433,-38.57421875,-44.921875,-45.41015625,-8.7890625,0.0
1676922795.4824736,-35.64453125,-32.71484375,-63.4765625,-33.203125,0.0
1676922795.4850037,-13.671875,-19.53125,-52.24609375,-43.9453125,0.0
1676922795.487534,-16.6015625,-32.2265625,-43.9453125,-30.2734375,0.0
1676922795.4912474,-25.87890625,-44.43359375,-41.50390625,-9.27734375,0.0
1676922795.4949608,-20.01953125,-45.41015625,-40.52734375,-15.625,0.0
1676922795.498674,-20.5078125,-39.55078125,-48.33984375,-45.8984375,0.0
1676922795.5023873,-31.25,-42.48046875,-48.33984375,-43.9453125,0.0
1676922795.5061007,-36.1328125,-58.10546875,-44.43359375,-16.6015625,0.0
1676922795.509814,-24.90234375,-65.91796875,-57.12890625,-23.4375,0.0
1676922795.5135274,-10.7421875,-55.17578125,-57.6171875,-50.29296875,0.0
1676922795.5172408,-12.6953125,-45.8984375,-49.31640625,-41.9921875,0.0
1676922795.5209541,-17.578125,-34.66796875,-48.33984375,5.859375,0.0
1676922795.5246673,-19.04296875,-34.1796875,-37.59765625,-5.37109375,0.0
1676922795.5283806,-24.90234375,-45.41015625,-37.59765625,-44.43359375,0.0
1676922795.532094,-29.78515625,-43.9453125,-51.7578125,-45.41015625,0.0
1676922795.5358467,-35.15625,-55.6640625,-45.41015625,-19.53125,0.0
1676922795.5395994,-37.109375,-70.3125,-44.43359375,-7.8125,0.0
1676922795.5433524,-27.34375,-68.359375,-50.78125,-17.08984375,0.0
1676922795.547105,-30.2734375,-39.55078125,-43.9453125,-35.15625,0.0
1676922795.5508578,-26.3671875,-49.31640625,-45.8984375,-34.66796875,0.0
1676922795.5546107,-25.87890625,-66.40625,-57.12890625,-4.39453125,0.0
1676922795.5583634,-21.97265625,-64.94140625,-49.31640625,-4.39453125,0.0
1676922795.5621161,-12.20703125,-52.24609375,-37.109375,-21.97265625,0.0
1676922795.5658689,-21.484375,-34.1796875,-33.69140625,-13.18359375,0.0
1676922795.5696216,-27.34375,-43.9453125,-38.57421875,2.44140625,0.0
1676922795.5733745,-29.78515625,-36.1328125,-58.10546875,-8.7890625,0.0
1676922795.5771272,-24.4140625,-20.01953125,-56.640625,-24.90234375,0.0
1676922795.5808775,-40.52734375,-33.69140625,-60.05859375,-28.80859375,0.0
1676922795.5846279,-24.90234375,-34.66796875,-58.10546875,-6.34765625,0.0
1676922795.5883784,-1.46484375,-41.015625,-39.0625,13.671875,0.0
1676922795.5921288,-8.7890625,-46.38671875,-39.55078125,-14.6484375,0.0
1676922795.595879,-18.06640625,-45.8984375,-41.015625,-35.64453125,0.0
1676922795.5996294,-27.34375,-49.8046875,-55.17578125,-23.4375,0.0
1676922795.6033797,-34.1796875,-58.59375,-71.77734375,-7.32421875,0.0
1676922795.60713,-34.66796875,-62.01171875,-60.05859375,-20.01953125,0.0
1676922795.6108804,-41.50390625,-40.0390625,-43.45703125,-50.29296875,0.0
