timestamps,TP9,Fp1,Fp2,TP10,stim
1676927042.9606047,-123.046875,-85.9375,-48.828125,-22.4609375,0.0
1676927042.9642975,-107.421875,-80.078125,-77.63671875,13.18359375,0.0
1676927042.9679904,-126.953125,-72.265625,-97.16796875,23.4375,0.0
1676927042.9716833,-109.375,-78.125,-134.27734375,-33.69140625,0.0
1676927042.9754515,-118.1640625,-86.9140625,-178.7109375,-60.546875,0.0
1676927042.9792197,-107.421875,-78.125,-189.94140625,-39.55078125,0.0
1676927042.9829879,-61.5234375,-83.0078125,-212.890625,-68.359375,0.0
1676927042.9867558,-95.21484375,-91.30859375,-234.375,-107.91015625,0.0
1676927042.990524,-94.23828125,-82.03125,-229.4921875,-82.03125,0.0
1676927042.9942923,-66.89453125,-71.77734375,-222.16796875,-58.59375,0.0
1676927042.9980605,-60.05859375,-76.66015625,-222.16796875,-117.1875,0.0
1676927043.0018287,-46.875,-84.9609375,-229.4921875,-147.94921875,0.0
1676927043.0055966,-60.05859375,-83.0078125,-228.02734375,-130.859375,0.0
1676927043.0093648,-33.69140625,-78.61328125,-217.7734375,-95.21484375,0.0
1676927043.013133,-18.06640625,-83.0078125,-225.09765625,-77.1484375,0.0
1676927043.0169013,-58.10546875,-86.42578125,-246.58203125,-86.9140625,0.0
1676927043.019451,-27.34375,-81.0546875,-239.74609375,-78.61328125,0.0
1676927043.0220006,10.7421875,-81.0546875,-226.5625,-40.0390625,0.0
1676927043.0245502,4.39453125,-75.68359375,-228.515625,-19.53125,0.0
1676927043.0270998,16.11328125,-71.77734375,-250.9765625,-19.53125,0.0
1676927043.0296495,57.12890625,-74.21875,-260.25390625,15.13671875,0.0
1676927043.0321994,79.1015625,-70.80078125,-250.9765625,12.6953125,0.0
1676927043.034749,70.80078125,-67.3828125,-251.953125,-30.76171875,0.0
1676927043.0372987,67.87109375,-67.87109375,-260.7421875,-27.34375,0.0
1676927043.0398483,88.37890625,-55.6640625,-254.39453125,-29.296875,0.0
1676927043.042398,96.6796875,-33.69140625,-241.69921875,-53.7109375,0.0
1676927043.0449476,96.6796875,-32.2265625,-263.671875,-73.73046875,0.0
1676927043.0474973,71.77734375,-36.62109375,-280.76171875,-93.75,0.0
1676927043.0524309,56.640625,-14.16015625,-267.578125,-101.07421875,0.0
1676927043.0573645,33.203125,-5.37109375,-275.390625,-130.37109375,0.0
1676927043.0622978,50.78125,-4.8828125,-275.87890625,-128.90625,0.0
1676927043.0672314,55.17578125,6.34765625,-267.578125,-103.02734375,0.0
1676927043.072165,5.859375,14.6484375,-270.5078125,-127.44140625,0.0
1676927043.0770986,-10.25390625,36.62109375,-258.7890625,-158.203125,0.0
1676927043.0820322,-43.9453125,30.2734375,-275.87890625,-189.94140625,0.0
1676927043.0869658,-65.4296875,38.57421875,-289.0625,-193.359375,0.0
1676927043.0918994,-105.95703125,74.70703125,-280.2734375,-205.56640625,0.0
1676927043.0968328,-142.578125,86.9140625,-293.9453125,-256.34765625,0.0
1676927043.1017663,-133.30078125,96.6796875,-302.24609375,-282.2265625,0.0
1676927043.1067,-145.5078125,106.4453125,-283.69140625,-278.80859375,0.0
1676927043.1104379,-157.2265625,105.95703125,-275.87890625,-282.71484375,0.0
1676927043.1141758,-202.63671875,103.02734375,-265.13671875,-302.734375,0.0
1676927043.1179137,-250.48828125,96.19140625,-252.44140625,-320.80078125,0.0
1676927043.121652,-215.33203125,89.35546875,-238.76953125,-265.13671875,0.0
1676927043.1253898,-186.03515625,73.2421875,-207.51953125,-213.8671875,0.0
1676927043.1291277,-215.33203125,64.453125,-188.4765625,-262.6953125,0.0
1676927043.1328657,-207.51953125,63.96484375,-183.10546875,-314.453125,0.0
1676927043.1366036,-187.5,42.48046875,-172.8515625,-311.5234375,0.0
1676927043.1403418,-176.7578125,29.78515625,-148.92578125,-227.5390625,0.0
1676927043.1440797,-171.38671875,21.97265625,-142.578125,-200.68359375,0.0
1676927043.1478176,-163.0859375,2.9296875,-146.97265625,-239.74609375,0.0
1676927043.1515555,-122.0703125,-8.30078125,-132.32421875,-212.890625,0.0
1676927043.155281,-129.8828125,-30.2734375,-134.27734375,-188.96484375,0.0
1676927043.1590066,-122.55859375,-56.15234375,-126.953125,-168.45703125,0.0
1676927043.162732,-91.796875,-69.82421875,-113.76953125,-182.6171875,0.0
1676927043.1664574,-60.05859375,-77.1484375,-99.12109375,-162.59765625,0.0
1676927043.170183,-4.8828125,-88.8671875,-82.03125,-104.00390625,0.0
1676927043.1739082,2.44140625,-106.93359375,-69.82421875,-59.5703125,0.0
1676927043.1776338,-7.32421875,-128.41796875,-57.6171875,-54.6875,0.0
1676927043.1813593,18.5546875,-140.625,-40.52734375,-55.17578125,0.0
1676927043.1850848,42.96875,-141.11328125,-34.66796875,-34.66796875,0.0
1676927043.1888103,62.98828125,-150.87890625,-37.109375,0.0,0.0
1676927043.1925356,95.21484375,-153.80859375,-38.57421875,36.62109375,0.0
1676927043.1962612,120.1171875,-149.90234375,-32.2265625,32.71484375,0.0
1676927043.199997,134.27734375,-158.69140625,-39.0625,0.9765625,0.0
1676927043.2037327,148.4375,-159.66796875,-51.7578125,-18.06640625,0.0
1676927043.2074685,160.15625,-145.99609375,-46.875,-10.25390625,0.0
1676927043.2112043,145.99609375,-148.92578125,-41.50390625,-3.41796875,0.0
1676927043.21494,164.0625,-153.80859375,-47.8515625,0.48828125,0.0
1676927043.218676,193.359375,-146.484375,-52.24609375,16.11328125,0.0
1676927043.2224119,160.15625,-155.2734375,-56.640625,7.32421875,0.0
1676927043.2261477,148.92578125,-146.484375,-56.640625,-5.37109375,0.0
1676927043.2298834,164.55078125,-139.6484375,-67.87109375,0.0,0.0
1676927043.2336192,188.4765625,-147.4609375,-83.49609375,-0.9765625,0.0
1676927043.237355,192.3828125,-137.6953125,-73.2421875,13.18359375,0.0
1676927043.2410908,168.9453125,-131.8359375,-67.3828125,13.18359375,0.0
1676927043.2449512,169.921875,-138.671875,-72.265625,38.57421875,0.0
1676927043.2488115,189.453125,-134.765625,-76.66015625,37.109375,0.0
1676927043.252672,185.546875,-119.62890625,-67.3828125,13.671875,0.0
1676927043.2565324,149.4140625,-117.67578125,-74.21875,8.30078125,0.0
1676927043.2603927,139.16015625,-118.1640625,-87.40234375,-20.01953125,0.0
1676927043.2642531,144.04296875,-115.72265625,-82.51953125,-15.625,0.0
1676927043.2681136,144.53125,-111.81640625,-83.0078125,-12.20703125,0.0
1676927043.2719738,125.9765625,-107.91015625,-87.40234375,-22.4609375,0.0
1676927043.2758343,95.21484375,-108.88671875,-88.37890625,-31.73828125,0.0
1676927043.2796948,125.9765625,-101.07421875,-85.9375,-40.0390625,0.0
1676927043.283555,110.83984375,-96.19140625,-78.125,-24.4140625,0.0
1676927043.2874155,71.2890625,-99.12109375,-77.63671875,-13.671875,0.0
1676927043.2910562,84.47265625,-104.00390625,-83.0078125,-35.64453125,0.0
1676927043.2946968,100.5859375,-105.95703125,-80.56640625,-72.75390625,0.0
1676927043.2983375,91.796875,-101.5625,-75.68359375,-83.49609375,0.0
1676927043.301978,79.1015625,-99.12109375,-78.125,-59.5703125,0.0
1676927043.3056188,88.37890625,-96.6796875,-80.56640625,-73.2421875,0.0
1676927043.3092594,104.98046875,-96.19140625,-77.1484375,-63.4765625,0.0
1676927043.3128998,83.984375,-94.23828125,-74.70703125,-37.59765625,0.0
1676927043.3165405,58.10546875,-97.65625,-81.0546875,-45.41015625,0.0
1676927043.3201811,28.80859375,-112.79296875,-92.7734375,-70.3125,0.0
1676927043.3238218,31.73828125,-104.00390625,-80.56640625,-71.2890625,0.0
1676927043.3274624,64.94140625,-100.09765625,-84.9609375,-66.40625,0.0
1676927043.331103,41.015625,-102.5390625,-93.26171875,-47.36328125,0.0
1676927043.3349357,10.7421875,-99.609375,-88.37890625,-55.6640625,0.0
1676927043.3387682,7.32421875,-97.65625,-86.42578125,-88.8671875,0.0
1676927043.3426008,12.6953125,-96.6796875,-90.33203125,-98.14453125,0.0
1676927043.3464336,19.04296875,-97.65625,-92.7734375,-87.40234375,0.0
1676927043.3502662,16.11328125,-92.7734375,-86.9140625,-76.171875,0.0
1676927043.3540988,-3.41796875,-83.0078125,-78.125,-78.61328125,0.0
1676927043.3579314,-18.06640625,-87.890625,-74.21875,-69.3359375,0.0
1676927043.361764,7.32421875,-104.98046875,-85.9375,-93.75,0.0
1676927043.3655968,-4.8828125,-110.83984375,-89.84375,-100.5859375,0.0
1676927043.3694293,-37.109375,-103.515625,-72.265625,-90.33203125,0.0
1676927043.373262,-24.90234375,-95.21484375,-65.91796875,-99.12109375,0.0
1676927043.3770945,5.37109375,-89.35546875,-82.03125,-99.609375,1.0
1676927043.3808994,11.71875,-83.0078125,-85.44921875,-78.125,0.0
1676927043.3847044,-30.2734375,-77.63671875,-76.66015625,-61.03515625,0.0
1676927043.3885093,-48.828125,-85.44921875,-75.68359375,-88.37890625,0.0
1676927043.392314,-46.38671875,-100.09765625,-80.56640625,-111.81640625,0.0
1676927043.3961189,-41.015625,-101.07421875,-82.03125,-111.328125,0.0
1676927043.3999238,-49.8046875,-91.30859375,-73.2421875,-84.47265625,0.0
1676927043.4037287,-49.31640625,-85.9375,-75.68359375,-95.21484375,0.0
1676927043.4075336,-10.7421875,-92.7734375,-86.42578125,-150.87890625,0.0
1676927043.4113383,10.25390625,-87.890625,-88.37890625,-121.09375,0.0
1676927043.4151433,18.5546875,-85.44921875,-78.125,-71.77734375,0.0
1676927043.4189482,10.7421875,-96.6796875,-66.40625,-93.75,0.0
1676927043.422753,-20.99609375,-97.16796875,-72.265625,-134.765625,0.0
1676927043.4289076,-31.25,-86.42578125,-74.70703125,-126.46484375,0.0
1676927043.4350622,-50.29296875,-84.47265625,-84.9609375,-107.91015625,0.0
1676927043.4412167,-71.2890625,-90.33203125,-89.84375,-90.8203125,0.0
1676927043.4473712,-67.87109375,-103.02734375,-79.58984375,-87.890625,0.0
1676927043.4535258,-62.5,-107.91015625,-71.2890625,-83.0078125,0.0
1676927043.4596803,-56.640625,-112.3046875,-50.29296875,-33.203125,0.0
1676927043.4658349,-76.66015625,-115.72265625,-49.31640625,-37.59765625,0.0
1676927043.4719894,-80.56640625,-110.3515625,-59.08203125,-73.73046875,0.0
1676927043.478144,-61.5234375,-100.09765625,-43.9453125,-62.5,0.0
1676927043.4842985,-50.78125,-96.19140625,-43.45703125,-57.6171875,0.0
1676927043.490453,-49.8046875,-99.609375,-58.10546875,-47.36328125,0.0
1676927043.4966075,-83.984375,-92.28515625,-60.05859375,-51.7578125,0.0
1676927043.4992087,-91.30859375,-88.8671875,-51.7578125,-57.6171875,0.0
1676927043.50181,-57.12890625,-93.26171875,-52.24609375,-47.8515625,0.0
1676927043.5044112,-79.1015625,-94.7265625,-63.4765625,-54.19921875,0.0
1676927043.5070124,-110.83984375,-94.7265625,-66.40625,-72.75390625,0.0
1676927043.5096135,-98.6328125,-93.75,-68.359375,-75.68359375,0.0
1676927043.5122147,-85.9375,-93.75,-68.359375,-69.82421875,0.0
1676927043.514816,-89.84375,-100.5859375,-79.1015625,-59.5703125,0.0
1676927043.5174172,-103.02734375,-95.21484375,-87.40234375,-76.66015625,0.0
1676927043.5200183,-127.44140625,-88.8671875,-78.61328125,-94.7265625,0.0
1676927043.5226197,-126.46484375,-93.75,-82.03125,-89.35546875,0.0
1676927043.5252209,-86.9140625,-97.16796875,-90.8203125,-86.42578125,0.0
1676927043.527822,-2.9296875,-97.16796875,-88.37890625,-50.78125,0.0
1676927043.5339444,7.32421875,-91.796875,-77.1484375,-27.34375,0.0
1676927043.540067,-72.75390625,-97.16796875,-83.984375,-42.96875,0.0
1676927043.5461893,-78.61328125,-97.16796875,-91.796875,-39.55078125,0.0
1676927043.5523117,-76.66015625,-90.8203125,-82.03125,-18.06640625,0.0
1676927043.5584342,-109.375,-91.30859375,-84.9609375,-39.0625,0.0
1676927043.5645566,-118.1640625,-85.44921875,-88.8671875,-47.36328125,0.0
1676927043.570679,-112.3046875,-90.8203125,-97.65625,-38.0859375,0.0
1676927043.5768015,-124.0234375,-88.8671875,-100.5859375,-42.96875,0.0
1676927043.582924,-151.85546875,-75.1953125,-82.51953125,-24.90234375,0.0
1676927043.5890462,-165.0390625,-84.47265625,-89.35546875,-36.1328125,0.0
1676927043.5951688,-147.94921875,-84.47265625,-103.515625,-71.77734375,0.0
1676927043.6012912,-132.8125,-68.84765625,-91.796875,-43.9453125,0.0
1676927043.6025302,-152.34375,-71.2890625,-84.47265625,-26.3671875,0.0
1676927043.603769,-166.9921875,-72.265625,-91.30859375,-57.6171875,0.0
1676927043.6050081,-139.16015625,-68.84765625,-91.30859375,-29.78515625,0.0
1676927043.606247,-125.0,-73.2421875,-89.84375,-2.9296875,0.0
1676927043.607486,-145.5078125,-72.75390625,-93.75,-34.66796875,0.0
1676927043.608725,-161.1328125,-67.87109375,-92.7734375,-63.4765625,0.0
1676927043.609964,-150.87890625,-68.359375,-93.26171875,-80.56640625,0.0
1676927043.611203,-131.34765625,-65.91796875,-92.28515625,-63.96484375,0.0
1676927043.6124418,-112.3046875,-71.77734375,-90.33203125,-32.2265625,0.0
1676927043.6136808,-106.93359375,-71.77734375,-89.84375,-43.45703125,0.0
1676927043.6149197,-111.81640625,-65.4296875,-86.42578125,-81.54296875,0.0
1676927043.6161587,-106.4453125,-73.2421875,-79.58984375,-75.1953125,0.0
1676927043.6199088,-114.74609375,-73.73046875,-81.54296875,-29.296875,0.0
1676927043.6236587,-111.81640625,-68.84765625,-87.890625,-4.8828125,0.0
1676927043.6274085,-96.6796875,-69.3359375,-91.796875,-45.8984375,0.0
1676927043.6311586,-74.21875,-60.546875,-81.0546875,-28.80859375,0.0
1676927043.6349087,-72.75390625,-67.3828125,-84.47265625,-19.53125,0.0
1676927043.6386585,-100.09765625,-72.265625,-99.609375,-53.7109375,0.0
1676927043.6424084,-112.3046875,-65.4296875,-97.16796875,-62.5,0.0
1676927043.6461585,-104.00390625,-73.2421875,-91.30859375,-65.4296875,0.0
1676927043.6499085,-73.2421875,-72.75390625,-95.703125,-53.7109375,0.0
1676927043.6536584,-70.3125,-64.453125,-98.14453125,-50.29296875,0.0
1676927043.6574082,-75.68359375,-64.94140625,-82.03125,-45.8984375,0.0
1676927043.6611583,-48.33984375,-62.98828125,-81.0546875,-34.1796875,0.0
1676927043.6649048,-56.15234375,-70.80078125,-92.28515625,-49.8046875,0.0
1676927043.6686513,-49.8046875,-74.21875,-85.44921875,-74.70703125,0.0
1676927043.6723979,-77.1484375,-71.77734375,-82.03125,-83.0078125,0.0
1676927043.6761444,-89.84375,-70.3125,-88.37890625,-110.3515625,0.0
1676927043.6798909,-69.3359375,-71.2890625,-86.9140625,-111.328125,0.0
1676927043.6836374,-73.73046875,-68.359375,-77.1484375,-86.42578125,0.0
1676927043.687384,-64.453125,-64.94140625,-78.125,-82.51953125,0.0
1676927043.6911304,-40.52734375,-80.078125,-80.078125,-85.9375,0.0
1676927043.694877,-36.62109375,-89.35546875,-71.2890625,-99.609375,0.0
1676927043.6986234,-53.22265625,-83.49609375,-58.59375,-107.91015625,0.0
1676927043.70237,-66.89453125,-87.890625,-68.359375,-120.60546875,0.0
1676927043.7061164,-65.91796875,-87.890625,-71.77734375,-122.55859375,0.0
1676927043.7100136,-52.734375,-90.8203125,-65.4296875,-133.7890625,0.0
1676927043.7139108,-67.87109375,-94.7265625,-65.4296875,-134.27734375,0.0
1676927043.717808,-77.63671875,-94.7265625,-62.98828125,-113.76953125,0.0
1676927043.7217052,-71.77734375,-98.6328125,-70.80078125,-128.41796875,0.0
1676927043.7256024,-63.4765625,-90.8203125,-71.2890625,-118.1640625,0.0
1676927043.7294996,-35.64453125,-82.51953125,-65.91796875,-83.984375,0.0
1676927043.7333968,-59.5703125,-86.42578125,-62.5,-73.73046875,0.0
1676927043.737294,-51.7578125,-94.23828125,-63.96484375,-94.23828125,0.0
1676927043.7411911,-41.9921875,-92.28515625,-62.5,-115.234375,0.0
1676927043.7450883,-85.44921875,-91.796875,-54.6875,-69.82421875,0.0
1676927043.7489855,-69.82421875,-92.7734375,-58.59375,-45.8984375,0.0
1676927043.7528827,-55.6640625,-92.7734375,-66.89453125,-93.75,0.0
1676927043.7577753,-55.6640625,-93.75,-63.96484375,-100.5859375,0.0
1676927043.762668,-20.01953125,-92.28515625,-62.01171875,-76.171875,0.0
1676927043.7675605,7.8125,-88.37890625,-65.4296875,-76.66015625,0.0
1676927043.7724533,-42.48046875,-88.8671875,-63.96484375,-73.2421875,0.0
1676927043.777346,-67.87109375,-91.796875,-64.453125,-86.9140625,0.0
1676927043.7822385,-37.109375,-78.61328125,-54.6875,-70.80078125,0.0
1676927043.787131,-34.1796875,-81.54296875,-52.734375,-58.59375,0.0
1676927043.7920237,-60.05859375,-99.12109375,-66.89453125,-96.6796875,0.0
1676927043.7969165,-55.17578125,-84.9609375,-58.10546875,-121.58203125,0.0
1676927043.801809,-32.2265625,-80.078125,-52.734375,-85.44921875,0.0
1676927043.8067017,-27.83203125,-86.9140625,-60.05859375,-59.08203125,0.0
1676927043.8115942,-30.76171875,-85.44921875,-61.03515625,-72.265625,0.0
1676927043.8153522,-42.96875,-83.49609375,-52.734375,-59.5703125,0.0
1676927043.81911,-60.546875,-94.23828125,-51.26953125,-63.4765625,0.0
1676927043.8228679,-42.48046875,-103.02734375,-53.7109375,-71.2890625,0.0
1676927043.8266258,-32.2265625,-97.65625,-59.08203125,-52.734375,0.0
1676927043.8303835,-41.50390625,-94.23828125,-59.5703125,-62.98828125,0.0
1676927043.8341415,-38.57421875,-89.84375,-54.19921875,-77.1484375,0.0
1676927043.8378994,-33.69140625,-92.7734375,-56.640625,-73.73046875,0.0
1676927043.8416572,-18.5546875,-91.796875,-57.6171875,-59.08203125,0.0
1676927043.845415,-15.625,-87.40234375,-63.4765625,-62.5,0.0
1676927043.849173,-29.296875,-85.44921875,-57.12890625,-65.4296875,0.0
1676927043.8529308,-32.2265625,-89.35546875,-66.40625,-97.65625,0.0
1676927043.8566887,-22.94921875,-88.8671875,-71.77734375,-100.09765625,0.0
1676927043.8604383,-33.203125,-82.51953125,-61.5234375,-49.8046875,0.0
1676927043.864188,-45.8984375,-80.078125,-67.87109375,-67.87109375,0.0
1676927043.8679376,-22.4609375,-79.58984375,-62.5,-64.453125,0.0
1676927043.8716874,-20.01953125,-78.61328125,-61.03515625,-50.78125,0.0
1676927043.875437,-34.1796875,-73.73046875,-72.75390625,-69.3359375,0.0
1676927043.8791866,-22.94921875,-70.3125,-62.98828125,-66.89453125,0.0
1676927043.8829362,-39.55078125,-71.77734375,-65.91796875,-76.66015625,0.0
1676927043.8866858,-30.2734375,-79.58984375,-69.82421875,-78.125,0.0
1676927043.8904357,-8.30078125,-72.75390625,-49.31640625,-45.41015625,0.0
1676927043.8941853,-46.38671875,-74.21875,-54.19921875,-47.36328125,0.0
1676927043.897935,-82.03125,-82.51953125,-71.2890625,-72.75390625,0.0
1676927043.9016845,-72.265625,-69.82421875,-70.3125,-79.58984375,0.0
1676927043.9054468,-60.546875,-69.82421875,-69.3359375,-72.75390625,0.0
1676927043.9092093,-63.96484375,-79.58984375,-64.94140625,-61.5234375,0.0
1676927043.9129715,-57.6171875,-80.56640625,-55.6640625,-76.66015625,0.0
1676927043.9167337,-41.50390625,-72.265625,-54.19921875,-76.171875,0.0
1676927043.920496,-73.2421875,-77.1484375,-59.08203125,-73.73046875,0.0
1676927043.9242582,-76.171875,-83.49609375,-65.91796875,-68.84765625,0.0
1676927043.9280207,-66.89453125,-80.56640625,-73.2421875,-95.703125,0.0
1676927043.931783,-73.73046875,-67.3828125,-66.40625,-107.91015625,0.0
1676927043.9355452,-54.6875,-63.4765625,-59.5703125,-104.00390625,0.0
1676927043.9393077,-38.57421875,-71.77734375,-72.265625,-120.60546875,0.0
1676927043.94307,-50.29296875,-71.77734375,-72.75390625,-120.1171875,0.0
1676927043.9468322,-35.64453125,-66.89453125,-69.3359375,-99.609375,0.0
1676927043.9518385,-45.41015625,-70.3125,-76.66015625,-85.44921875,0.0
1676927043.9568448,-78.125,-80.078125,-85.9375,-83.49609375,0.0
1676927043.961851,-63.4765625,-79.1015625,-77.63671875,-88.37890625,0.0
1676927043.9668572,-60.546875,-71.77734375,-61.03515625,-83.0078125,0.0
1676927043.9718635,-62.5,-71.2890625,-64.453125,-86.42578125,0.0
1676927043.9768696,-69.82421875,-75.1953125,-74.21875,-95.703125,0.0
1676927043.981876,-49.8046875,-73.2421875,-72.265625,-80.56640625,0.0
1676927043.9868822,-38.0859375,-62.98828125,-68.359375,-65.91796875,0.0
1676927043.9918885,-70.80078125,-65.91796875,-68.359375,-92.7734375,0.0
1676927043.9968948,-67.87109375,-81.0546875,-73.2421875,-109.86328125,0.0
1676927044.001901,-30.2734375,-74.70703125,-60.546875,-68.84765625,0.0
1676927044.0069072,-33.69140625,-70.80078125,-58.10546875,-85.44921875,0.0
1676927044.0094457,-59.08203125,-70.80078125,-62.01171875,-82.51953125,0.0
1676927044.011984,-62.01171875,-70.3125,-62.01171875,-48.828125,0.0
1676927044.0145226,-25.390625,-69.82421875,-64.94140625,-27.34375,0.0
1676927044.017061,-8.7890625,-66.89453125,-69.3359375,-18.06640625,0.0
1676927044.0195994,-59.5703125,-70.80078125,-69.82421875,-83.49609375,0.0
1676927044.0221376,-56.15234375,-65.91796875,-69.82421875,-90.33203125,0.0
1676927044.024676,-34.1796875,-53.22265625,-76.66015625,-80.078125,0.0
1676927044.0272145,-43.45703125,-60.05859375,-83.0078125,-96.19140625,0.0
1676927044.029753,-58.10546875,-66.89453125,-87.40234375,-103.02734375,0.0
1676927044.0322914,-84.47265625,-68.359375,-92.28515625,-112.3046875,0.0
1676927044.0348299,-56.640625,-62.01171875,-83.49609375,-87.890625,0.0
1676927044.0373683,-43.45703125,-55.17578125,-75.68359375,-80.078125,0.0
1676927044.0435836,-63.96484375,-68.84765625,-92.7734375,-124.51171875,0.0
1676927044.0497987,-64.94140625,-63.96484375,-89.84375,-155.2734375,0.0
1676927044.056014,-58.10546875,-59.5703125,-83.49609375,-136.71875,0.0
1676927044.0622292,-52.734375,-62.5,-90.33203125,-108.3984375,0.0
1676927044.0684445,-56.15234375,-63.4765625,-83.984375,-108.88671875,0.0
1676927044.0746598,-55.17578125,-62.01171875,-74.70703125,-122.0703125,0.0
1676927044.080875,-60.05859375,-59.08203125,-62.01171875,-89.84375,0.0
1676927044.0870903,-70.80078125,-67.3828125,-59.08203125,-64.94140625,0.0
1676927044.0933053,-68.84765625,-79.58984375,-75.1953125,-108.88671875,0.0
1676927044.0995207,-72.75390625,-70.3125,-65.91796875,-128.90625,0.0
1676927044.1057358,-64.94140625,-57.6171875,-59.5703125,-103.515625,0.0
1676927044.111951,-57.12890625,-62.01171875,-63.4765625,-82.03125,0.0
1676927044.1131272,-83.0078125,-73.2421875,-63.4765625,-94.7265625,0.0
1676927044.1143036,-84.47265625,-67.87109375,-59.5703125,-126.46484375,0.0
1676927044.1154797,-39.55078125,-59.08203125,-59.08203125,-125.9765625,0.0
1676927044.1166558,-19.04296875,-63.96484375,-65.91796875,-104.00390625,0.0
1676927044.1178322,-52.24609375,-64.94140625,-65.91796875,-97.65625,0.0
1676927044.1190083,-80.56640625,-62.5,-62.98828125,-111.81640625,0.0
1676927044.1201844,-74.70703125,-66.89453125,-68.84765625,-125.9765625,0.0
1676927044.1213608,-57.6171875,-65.91796875,-75.1953125,-133.7890625,0.0
1676927044.122537,-48.33984375,-56.640625,-74.70703125,-129.39453125,0.0
1676927044.123713,-68.84765625,-53.7109375,-66.40625,-127.9296875,0.0
1676927044.1248894,-81.54296875,-62.5,-69.82421875,-143.5546875,0.0
1676927044.1260655,-53.22265625,-67.3828125,-76.66015625,-144.04296875,0.0
1676927044.1311395,-32.2265625,-62.98828125,-68.84765625,-117.67578125,0.0
1676927044.1362135,-25.390625,-62.01171875,-62.5,-107.421875,0.0
1676927044.1412873,-47.8515625,-70.3125,-52.734375,-86.42578125,0.0
1676927044.1463614,-77.63671875,-81.54296875,-66.89453125,-127.9296875,0.0
1676927044.1514354,-66.40625,-73.73046875,-74.21875,-135.25390625,0.0
1676927044.1565094,-40.0390625,-61.03515625,-52.24609375,-69.82421875,0.0
1676927044.1615834,-49.31640625,-63.96484375,-55.17578125,-78.61328125,0.0
1676927044.1666574,-64.453125,-69.82421875,-71.77734375,-111.328125,0.0
1676927044.1717315,-52.734375,-66.89453125,-59.08203125,-96.6796875,0.0
1676927044.1768053,-44.43359375,-63.4765625,-54.6875,-73.2421875,0.0
1676927044.1818793,-56.640625,-63.4765625,-65.4296875,-94.7265625,0.0
1676927044.1869533,-48.828125,-63.4765625,-71.77734375,-107.421875,0.0
1676927044.1906312,-36.1328125,-62.98828125,-65.91796875,-104.4921875,0.0
1676927044.1943092,-50.29296875,-71.2890625,-58.59375,-77.63671875,0.0
1676927044.197987,-70.3125,-76.66015625,-67.3828125,-85.44921875,0.0
1676927044.2016652,-51.7578125,-71.2890625,-69.3359375,-125.48828125,0.0
1676927044.205343,-45.41015625,-62.01171875,-61.5234375,-109.375,0.0
1676927044.209021,-41.50390625,-61.03515625,-57.12890625,-94.7265625,0.0
1676927044.212699,-42.48046875,-65.4296875,-62.01171875,-88.8671875,0.0
1676927044.2163768,-41.9921875,-65.91796875,-72.75390625,-105.46875,0.0
1676927044.2200549,-30.2734375,-60.546875,-70.3125,-90.8203125,0.0
1676927044.2237327,-22.4609375,-58.59375,-58.59375,-71.77734375,0.0
1676927044.2274108,-32.71484375,-62.01171875,-68.359375,-73.2421875,0.0
1676927044.2310886,-18.5546875,-55.17578125,-66.89453125,-82.03125,1.0
1676927044.234859,5.37109375,-48.33984375,-55.17578125,-97.65625,0.0
1676927044.2386293,-7.8125,-54.19921875,-54.19921875,-93.75,0.0
1676927044.2424,-50.78125,-63.96484375,-57.12890625,-81.54296875,0.0
1676927044.2461703,-69.82421875,-61.5234375,-59.5703125,-80.56640625,0.0
1676927044.2499406,-59.08203125,-57.12890625,-58.10546875,-80.078125,0.0
1676927044.2537112,-51.7578125,-62.5,-61.03515625,-90.8203125,0.0
1676927044.2574816,-46.38671875,-71.77734375,-66.40625,-87.890625,0.0
1676927044.261252,-59.5703125,-68.359375,-69.82421875,-91.30859375,0.0
1676927044.2650223,-46.38671875,-56.640625,-56.640625,-91.796875,0.0
1676927044.2687926,-37.59765625,-58.59375,-55.17578125,-92.28515625,0.0
1676927044.2725632,-62.5,-66.40625,-66.89453125,-104.4921875,0.0
1676927044.2763336,-41.015625,-68.84765625,-56.640625,-77.1484375,0.0
1676927044.2800913,-45.8984375,-69.82421875,-56.15234375,-74.21875,0.0
1676927044.2838492,-66.40625,-68.84765625,-60.05859375,-83.984375,0.0
1676927044.287607,-44.43359375,-62.5,-58.59375,-66.40625,0.0
1676927044.2913647,-66.89453125,-59.08203125,-53.7109375,-60.546875,0.0
1676927044.2951226,-87.40234375,-57.6171875,-49.31640625,-78.61328125,0.0
1676927044.2988803,-61.03515625,-57.12890625,-50.78125,-97.16796875,0.0
1676927044.302638,-46.875,-60.546875,-52.734375,-120.1171875,0.0
1676927044.306396,-54.6875,-55.6640625,-48.828125,-104.00390625,0.0
1676927044.3101537,-61.5234375,-46.875,-42.96875,-76.171875,0.0
1676927044.3139114,-62.5,-56.640625,-57.12890625,-106.93359375,0.0
1676927044.3176694,-42.96875,-59.5703125,-66.40625,-130.37109375,0.0
1676927044.321427,-24.90234375,-52.24609375,-55.6640625,-101.07421875,0.0
1676927044.3251987,-44.921875,-62.5,-54.19921875,-97.16796875,0.0
1676927044.32897,-54.6875,-64.453125,-57.6171875,-128.90625,0.0
1676927044.3327415,-35.15625,-58.59375,-60.05859375,-154.78515625,0.0
1676927044.336513,-35.64453125,-59.5703125,-61.5234375,-137.6953125,0.0
1676927044.3402846,-36.1328125,-58.10546875,-55.17578125,-123.046875,0.0
1676927044.3440561,-53.7109375,-56.640625,-55.6640625,-133.7890625,0.0
1676927044.3478274,-34.66796875,-55.17578125,-62.01171875,-137.20703125,0.0
1676927044.351599,-6.34765625,-51.26953125,-55.6640625,-117.1875,0.0
1676927044.3553705,-56.15234375,-55.17578125,-55.17578125,-123.53515625,0.0
1676927044.3591418,-79.58984375,-64.94140625,-64.453125,-159.66796875,0.0
1676927044.3629134,-64.453125,-67.3828125,-64.94140625,-173.828125,0.0
1676927044.366685,-38.0859375,-64.94140625,-64.453125,-151.85546875,0.0
1676927044.3703856,-35.64453125,-64.453125,-74.21875,-130.859375,0.0
1676927044.3740864,-57.12890625,-59.5703125,-67.87109375,-136.71875,0.0
1676927044.3777874,-45.41015625,-57.6171875,-60.05859375,-149.4140625,0.0
1676927044.381488,-31.25,-57.6171875,-67.3828125,-146.97265625,0.0
1676927044.3851888,-39.55078125,-62.01171875,-70.80078125,-128.41796875,0.0
1676927044.3888898,-59.08203125,-57.12890625,-70.80078125,-123.53515625,0.0
1676927044.3925905,-69.3359375,-53.22265625,-76.171875,-155.2734375,0.0
1676927044.3962913,-56.640625,-56.640625,-66.40625,-146.484375,0.0
1676927044.399992,-43.9453125,-61.03515625,-67.3828125,-137.20703125,0.0
1676927044.4036927,-38.57421875,-56.640625,-70.3125,-134.765625,0.0
1676927044.4073937,-40.52734375,-47.36328125,-54.6875,-135.25390625,0.0
1676927044.4110944,-19.53125,-42.48046875,-50.29296875,-133.30078125,0.0
1676927044.4149563,-12.6953125,-42.48046875,-53.22265625,-122.0703125,0.0
1676927044.4188182,2.9296875,-46.38671875,-62.01171875,-118.1640625,0.0
1676927044.4226801,13.671875,-44.921875,-56.15234375,-97.65625,0.0
1676927044.426542,-6.34765625,-48.33984375,-49.8046875,-113.76953125,0.0
1676927044.430404,19.04296875,-58.10546875,-55.6640625,-130.37109375,0.0
1676927044.4342659,15.625,-56.15234375,-49.8046875,-101.07421875,0.0
1676927044.4381278,-26.3671875,-50.29296875,-45.41015625,-94.23828125,0.0
1676927044.4419897,-36.62109375,-59.5703125,-59.08203125,-139.6484375,0.0
1676927044.4458516,-20.5078125,-72.265625,-72.75390625,-162.59765625,0.0
1676927044.4497135,-9.765625,-64.453125,-66.40625,-130.37109375,0.0
1676927044.4535754,-14.6484375,-59.5703125,-63.4765625,-119.62890625,0.0
1676927044.4574373,-43.45703125,-64.453125,-66.40625,-157.2265625,0.0
1676927044.4610758,-58.59375,-66.40625,-70.80078125,-164.0625,0.0
1676927044.4647145,-41.50390625,-65.4296875,-61.5234375,-113.76953125,0.0
1676927044.468353,-38.0859375,-68.359375,-50.78125,-84.47265625,0.0
1676927044.4719915,-24.4140625,-70.3125,-53.22265625,-98.6328125,0.0
1676927044.4756303,-9.27734375,-63.96484375,-52.734375,-129.8828125,0.0
1676927044.4792688,-35.15625,-60.546875,-54.19921875,-127.9296875,0.0
1676927044.4829073,-35.15625,-59.08203125,-50.78125,-77.1484375,0.0
1676927044.486546,-20.01953125,-61.03515625,-61.03515625,-101.07421875,0.0
1676927044.4901845,-50.78125,-67.87109375,-70.3125,-129.39453125,0.0
1676927044.493823,-49.31640625,-60.546875,-57.6171875,-95.21484375,0.0
1676927044.4974618,-31.73828125,-60.05859375,-54.6875,-90.33203125,0.0
1676927044.5011003,-39.55078125,-67.87109375,-60.05859375,-88.8671875,0.0
1676927044.5048642,-53.7109375,-67.3828125,-68.359375,-108.88671875,0.0
1676927044.508628,-37.59765625,-62.01171875,-65.91796875,-103.515625,0.0
1676927044.5123918,-16.11328125,-60.546875,-61.5234375,-78.125,0.0
1676927044.5161557,-3.41796875,-59.5703125,-62.5,-77.63671875,0.0
1676927044.5199194,-29.78515625,-56.640625,-51.7578125,-76.171875,0.0
1676927044.5236833,-41.9921875,-56.640625,-37.59765625,-64.94140625,0.0
1676927044.5274472,-25.390625,-71.77734375,-47.36328125,-66.89453125,0.0
1676927044.531211,-18.5546875,-80.56640625,-61.03515625,-64.94140625,0.0
1676927044.5349748,-27.83203125,-75.68359375,-55.6640625,-79.58984375,0.0
1676927044.5387387,-26.3671875,-67.87109375,-45.8984375,-84.9609375,0.0
1676927044.5425024,-18.5546875,-71.77734375,-56.640625,-79.58984375,0.0
1676927044.5462663,-11.71875,-76.171875,-70.3125,-97.16796875,0.0
1676927044.5512996,0.9765625,-69.82421875,-63.96484375,-99.609375,0.0
1676927044.556333,1.953125,-69.3359375,-62.98828125,-94.23828125,0.0
1676927044.5613663,-14.16015625,-69.3359375,-68.359375,-92.7734375,0.0
1676927044.5663996,3.41796875,-62.98828125,-68.84765625,-97.16796875,0.0
1676927044.5714328,22.4609375,-60.05859375,-60.546875,-67.87109375,0.0
1676927044.576466,-22.94921875,-59.08203125,-56.15234375,-83.49609375,0.0
1676927044.5814996,-36.1328125,-63.4765625,-62.98828125,-109.86328125,0.0
1676927044.5865328,-11.71875,-69.82421875,-65.91796875,-99.12109375,0.0
1676927044.591566,0.9765625,-67.3828125,-58.10546875,-86.42578125,0.0
1676927044.5965996,-20.5078125,-62.5,-49.31640625,-78.61328125,0.0
1676927044.6016328,-38.57421875,-68.84765625,-65.91796875,-101.5625,0.0
1676927044.606666,-7.8125,-68.84765625,-67.3828125,-111.328125,0.0
1676927044.6116645,1.953125,-63.4765625,-52.24609375,-74.21875,0.0
1676927044.616663,-5.859375,-63.4765625,-52.24609375,-61.5234375,0.0
1676927044.6216614,-32.2265625,-63.4765625,-53.7109375,-77.63671875,0.0
1676927044.6266599,-8.7890625,-55.6640625,-47.36328125,-54.19921875,0.0
1676927044.6316583,-28.3203125,-55.17578125,-43.45703125,-48.33984375,0.0
1676927044.6366568,-72.265625,-59.5703125,-46.38671875,-66.89453125,0.0
1676927044.6416552,-52.734375,-67.87109375,-54.6875,-98.14453125,0.0
1676927044.6466537,-50.78125,-68.359375,-62.01171875,-102.05078125,0.0
1676927044.651652,-36.1328125,-55.6640625,-48.828125,-54.19921875,0.0
1676927044.6566505,-47.36328125,-58.10546875,-47.8515625,-41.50390625,0.0
1676927044.661649,-47.36328125,-63.4765625,-59.5703125,-82.03125,0.0
1676927044.6666474,-34.66796875,-64.94140625,-51.7578125,-85.9375,0.0
1676927044.669133,-38.57421875,-70.80078125,-50.29296875,-63.4765625,0.0
1676927044.6716185,-35.15625,-75.1953125,-55.6640625,-80.56640625,0.0
1676927044.674104,-45.8984375,-72.265625,-57.6171875,-104.00390625,0.0
1676927044.6765895,-42.48046875,-59.08203125,-53.22265625,-103.02734375,0.0
1676927044.679075,-43.45703125,-59.08203125,-43.45703125,-89.35546875,0.0
1676927044.6815605,-46.875,-74.21875,-47.36328125,-77.63671875,0.0
1676927044.684046,-43.9453125,-72.75390625,-58.10546875,-82.51953125,0.0
1676927044.6865315,-57.12890625,-69.82421875,-60.05859375,-104.98046875,0.0
1676927044.689017,-52.734375,-67.3828125,-54.19921875,-90.8203125,0.0
1676927044.6915026,-43.9453125,-66.89453125,-56.640625,-72.75390625,0.0
1676927044.693988,-68.359375,-66.89453125,-58.59375,-86.9140625,0.0
1676927044.6964736,-63.96484375,-59.5703125,-47.8515625,-112.79296875,0.0
1676927044.700243,-39.0625,-64.94140625,-44.43359375,-104.98046875,0.0
1676927044.7040122,-75.68359375,-78.61328125,-59.08203125,-106.4453125,0.0
1676927044.7077813,-88.8671875,-72.265625,-56.15234375,-87.890625,0.0
1676927044.7115507,-82.51953125,-63.4765625,-48.33984375,-82.03125,0.0
1676927044.71532,-74.70703125,-65.4296875,-53.22265625,-115.72265625,0.0
1676927044.7190893,-53.7109375,-68.359375,-56.640625,-124.0234375,0.0
1676927044.7228584,-54.19921875,-66.40625,-56.640625,-114.2578125,0.0
1676927044.7266278,-82.51953125,-63.96484375,-49.31640625,-110.83984375,0.0
1676927044.7303972,-90.33203125,-68.359375,-51.7578125,-126.953125,0.0
1676927044.7341664,-94.7265625,-72.75390625,-64.453125,-139.16015625,0.0
1676927044.7379355,-76.171875,-64.94140625,-62.98828125,-118.1640625,0.0
1676927044.741705,-85.9375,-64.453125,-57.6171875,-98.6328125,0.0
1676927044.7454534,-103.02734375,-71.77734375,-55.6640625,-98.6328125,0.0
1676927044.749202,-73.2421875,-71.77734375,-62.01171875,-99.12109375,0.0
1676927044.7529504,-48.828125,-66.40625,-59.5703125,-75.68359375,0.0
1676927044.756699,-29.296875,-68.84765625,-61.03515625,-77.63671875,0.0
1676927044.7604475,-60.05859375,-64.453125,-61.5234375,-84.9609375,0.0
1676927044.764196,-93.26171875,-58.59375,-54.6875,-78.61328125,0.0
1676927044.7679446,-54.6875,-59.5703125,-53.22265625,-62.01171875,0.0
1676927044.771693,80.078125,-55.17578125,-52.24609375,-41.9921875,0.0
1676927044.7754416,143.06640625,-56.15234375,-62.01171875,-82.03125,0.0
1676927044.77919,65.4296875,-64.94140625,-62.5,-120.1171875,0.0
1676927044.7829387,55.6640625,-67.3828125,-59.08203125,-103.02734375,0.0
1676927044.7866871,50.78125,-69.3359375,-62.01171875,-76.66015625,0.0
1676927044.7904193,-36.62109375,-76.171875,-67.87109375,-92.7734375,0.0
1676927044.7941518,-41.50390625,-71.2890625,-68.359375,-108.3984375,0.0
1676927044.797884,-26.85546875,-65.91796875,-63.96484375,-93.26171875,0.0
1676927044.8016162,-53.7109375,-65.91796875,-67.87109375,-74.70703125,0.0
1676927044.8053484,-72.265625,-62.98828125,-69.82421875,-90.8203125,0.0
1676927044.8090806,-62.5,-62.01171875,-64.453125,-102.05078125,0.0
1676927044.812813,-66.89453125,-62.98828125,-60.05859375,-85.44921875,0.0
1676927044.8165452,-85.9375,-69.3359375,-67.3828125,-77.63671875,0.0
1676927044.8202775,-85.9375,-74.70703125,-77.1484375,-97.65625,0.0
1676927044.82401,-77.63671875,-64.453125,-62.5,-109.86328125,0.0
1676927044.827742,-48.828125,-59.5703125,-54.19921875,-98.14453125,0.0
1676927044.8314743,-36.1328125,-62.98828125,-59.5703125,-103.515625,0.0
1676927044.8352127,-36.62109375,-65.91796875,-61.03515625,-111.81640625,0.0
1676927044.8389513,-70.3125,-61.03515625,-58.10546875,-97.16796875,0.0
1676927044.8426898,-90.33203125,-61.03515625,-55.6640625,-91.796875,0.0
1676927044.8464282,-86.42578125,-64.453125,-55.6640625,-74.21875,0.0
1676927044.8501668,-75.1953125,-61.5234375,-58.59375,-59.08203125,0.0
1676927044.8539052,-76.66015625,-62.01171875,-59.08203125,-65.91796875,0.0
1676927044.8576436,-80.078125,-67.3828125,-55.6640625,-75.1953125,0.0
1676927044.8613822,-94.7265625,-71.77734375,-62.01171875,-107.421875,0.0
1676927044.8651206,-82.51953125,-73.73046875,-61.5234375,-80.56640625,0.0
1676927044.868859,-81.0546875,-67.3828125,-54.19921875,-55.6640625,0.0
1676927044.8725977,-95.703125,-62.98828125,-49.31640625,-74.21875,0.0
1676927044.876336,-76.66015625,-59.08203125,-50.78125,-85.9375,0.0
1676927044.8801782,-76.66015625,-57.12890625,-59.08203125,-56.15234375,0.0
1676927044.8840203,-92.7734375,-54.6875,-46.875,-24.4140625,0.0
1676927044.8878622,-85.9375,-49.31640625,-42.48046875,-49.8046875,0.0
1676927044.8917043,-90.33203125,-52.734375,-50.78125,-71.2890625,0.0
1676927044.8955464,-104.98046875,-55.17578125,-41.015625,-50.29296875,0.0
1676927044.8993883,-80.56640625,-47.8515625,-35.64453125,-30.76171875,0.0
1676927044.9032304,-72.265625,-52.24609375,-42.96875,-63.96484375,0.0
1676927044.9070725,-74.21875,-58.10546875,-45.8984375,-69.82421875,0.0
1676927044.9109147,-76.66015625,-50.29296875,-40.0390625,-53.7109375,0.0
1676927044.9147568,-76.66015625,-48.33984375,-40.52734375,-40.0390625,0.0
1676927044.9185987,-68.359375,-49.31640625,-46.38671875,-57.12890625,0.0
1676927044.9224408,-77.1484375,-48.33984375,-52.734375,-97.65625,0.0
1676927044.9273334,-57.6171875,-43.45703125,-47.8515625,-88.37890625,0.0
1676927044.932226,-61.5234375,-44.921875,-45.8984375,-82.51953125,0.0
1676927044.9371185,-79.58984375,-49.8046875,-49.8046875,-88.8671875,0.0
1676927044.942011,-62.98828125,-53.22265625,-50.78125,-102.5390625,0.0
1676927044.9469037,-55.6640625,-52.24609375,-50.29296875,-96.19140625,0.0
1676927044.9517965,-44.43359375,-50.29296875,-40.0390625,-61.5234375,0.0
1676927044.9566891,-47.36328125,-61.5234375,-48.33984375,-72.265625,0.0
1676927044.9615817,-61.5234375,-62.5,-60.546875,-92.7734375,0.0
1676927044.9664743,-59.08203125,-54.6875,-54.6875,-104.98046875,0.0
1676927044.971367,-50.29296875,-61.03515625,-45.41015625,-104.98046875,0.0
1676927044.9762595,-66.40625,-63.4765625,-41.015625,-86.9140625,0.0
1676927044.981152,-75.1953125,-58.59375,-42.48046875,-88.8671875,0.0
1676927044.984901,-77.1484375,-58.10546875,-40.0390625,-83.49609375,0.0
1676927044.9886498,-75.68359375,-65.4296875,-39.55078125,-71.2890625,0.0
1676927044.9923987,-82.03125,-69.3359375,-45.41015625,-61.5234375,0.0
1676927044.9961479,-96.19140625,-62.98828125,-49.31640625,-77.1484375,0.0
1676927044.9998968,-79.58984375,-54.19921875,-43.9453125,-103.02734375,0.0
1676927045.0036457,-73.73046875,-55.17578125,-46.875,-108.88671875,0.0
1676927045.0073946,-79.1015625,-64.94140625,-56.15234375,-90.8203125,0.0
1676927045.0111434,-77.1484375,-65.4296875,-52.734375,-68.359375,0.0
1676927045.0148926,-73.73046875,-47.8515625,-47.8515625,-79.1015625,0.0
1676927045.0186415,-48.828125,-50.29296875,-57.12890625,-86.42578125,0.0
1676927045.0223904,-42.48046875,-62.98828125,-72.265625,-98.14453125,0.0
1676927045.0261393,-64.453125,-51.26953125,-61.5234375,-88.37890625,0.0
1676927045.029889,-77.63671875,-53.22265625,-55.6640625,-85.9375,0.0
1676927045.033639,-66.89453125,-63.96484375,-62.5,-102.05078125,0.0
1676927045.037389,-48.33984375,-58.59375,-65.4296875,-90.33203125,0.0
1676927045.041139,-43.9453125,-53.22265625,-55.17578125,-62.5,0.0
1676927045.0448887,-62.98828125,-55.17578125,-46.38671875,-67.3828125,0.0
1676927045.0486388,-63.96484375,-58.59375,-49.8046875,-95.21484375,0.0
1676927045.0523887,-61.5234375,-58.59375,-49.31640625,-82.51953125,0.0
1676927045.0561385,-62.98828125,-53.7109375,-41.50390625,-68.84765625,0.0
1676927045.0598884,-64.453125,-55.6640625,-36.62109375,-73.73046875,0.0
1676927045.0636382,-72.75390625,-64.453125,-44.921875,-82.51953125,0.0
1676927045.0673883,-43.9453125,-64.453125,-51.26953125,-92.28515625,0.0
1676927045.0711381,-8.7890625,-54.19921875,-41.9921875,-75.68359375,1.0
1676927045.0749006,-18.5546875,-52.24609375,-35.64453125,-57.12890625,0.0
1676927045.0786633,-39.0625,-60.546875,-47.36328125,-77.63671875,0.0
1676927045.0824258,-50.29296875,-61.5234375,-51.26953125,-106.93359375,0.0
1676927045.0861883,-51.7578125,-57.12890625,-45.8984375,-96.19140625,0.0
1676927045.089951,-37.59765625,-58.10546875,-40.0390625,-54.6875,0.0
1676927045.0937135,-41.9921875,-61.03515625,-36.62109375,-79.58984375,0.0
1676927045.097476,-39.0625,-60.05859375,-38.0859375,-101.5625,0.0
1676927045.1012387,-35.15625,-60.546875,-38.0859375,-76.66015625,0.0
1676927045.1050012,-37.109375,-63.96484375,-49.8046875,-62.01171875,0.0
1676927045.1087637,-31.25,-62.5,-57.6171875,-64.453125,0.0
1676927045.1125264,-45.41015625,-60.546875,-50.78125,-85.9375,0.0
1676927045.116289,-27.34375,-53.7109375,-41.9921875,-88.8671875,0.0
1676927045.1201491,26.85546875,-48.828125,-42.48046875,-72.75390625,0.0
1676927045.1240096,-18.06640625,-52.734375,-53.22265625,-72.265625,0.0
1676927045.12787,-73.2421875,-49.31640625,-49.8046875,-98.6328125,0.0
1676927045.1317303,-29.296875,-47.8515625,-50.78125,-97.16796875,0.0
1676927045.1355906,-23.92578125,-55.6640625,-57.6171875,-83.984375,0.0
1676927045.139451,-37.109375,-53.7109375,-51.26953125,-93.26171875,0.0
1676927045.1433115,-29.78515625,-57.6171875,-46.875,-94.7265625,0.0
1676927045.1471717,-28.3203125,-60.546875,-42.96875,-83.984375,0.0
1676927045.151032,-36.1328125,-65.91796875,-52.734375,-98.6328125,0.0
1676927045.1548924,-32.71484375,-63.96484375,-55.6640625,-96.6796875,0.0
1676927045.158753,-41.015625,-57.12890625,-46.38671875,-87.40234375,0.0
1676927045.1626132,-23.4375,-58.10546875,-47.8515625,-97.16796875,0.0
1676927045.1662643,-12.20703125,-63.4765625,-54.19921875,-89.35546875,0.0
1676927045.1699154,-6.34765625,-57.12890625,-52.734375,-64.453125,0.0
1676927045.1735666,-9.765625,-46.38671875,-42.96875,-47.36328125,0.0
1676927045.1772177,-34.1796875,-57.12890625,-44.43359375,-90.8203125,0.0
1676927045.1808689,-35.15625,-60.05859375,-51.7578125,-98.14453125,0.0
1676927045.1845202,-30.2734375,-48.33984375,-46.875,-72.265625,0.0
1676927045.1881714,-12.20703125,-41.015625,-36.62109375,-51.26953125,0.0
1676927045.1918225,-15.625,-42.48046875,-46.38671875,-60.546875,0.0
1676927045.1954737,-41.015625,-56.640625,-66.40625,-104.00390625,0.0
1676927045.1991248,-10.7421875,-53.22265625,-55.17578125,-72.265625,0.0
1676927045.202776,-0.9765625,-41.015625,-48.33984375,-69.82421875,0.0
1676927045.206427,-40.0390625,-50.78125,-53.7109375,-100.09765625,0.0
1676927045.2101514,-39.0625,-56.640625,-56.640625,-104.98046875,0.0
1676927045.2138755,-32.2265625,-59.08203125,-57.6171875,-91.30859375,0.0
1676927045.2175999,-23.4375,-62.98828125,-49.31640625,-49.8046875,0.0
1676927045.221324,-32.2265625,-62.01171875,-50.78125,-70.80078125,0.0
1676927045.2250483,-26.3671875,-59.08203125,-53.22265625,-87.40234375,0.0
1676927045.2287726,-20.5078125,-59.08203125,-51.26953125,-71.2890625,0.0
1676927045.2324967,-36.1328125,-58.59375,-44.43359375,-54.19921875,0.0
1676927045.236221,-59.08203125,-69.3359375,-53.7109375,-67.3828125,0.0
1676927045.2399452,-52.734375,-71.77734375,-60.546875,-80.56640625,0.0
1676927045.2436695,-34.1796875,-59.08203125,-45.8984375,-55.6640625,0.0
1676927045.2473936,-40.0390625,-59.5703125,-44.921875,-41.50390625,0.0
1676927045.251118,-52.24609375,-63.96484375,-49.31640625,-61.5234375,0.0
1676927045.2548888,-47.8515625,-63.4765625,-49.8046875,-87.40234375,0.0
1676927045.2586594,-41.9921875,-60.05859375,-44.921875,-83.49609375,0.0
1676927045.2624302,-39.0625,-60.05859375,-44.43359375,-74.70703125,0.0
1676927045.266201,-25.390625,-60.546875,-52.734375,-66.89453125,0.0
1676927045.2699718,-58.59375,-60.05859375,-56.15234375,-62.98828125,0.0
1676927045.2737427,-84.47265625,-56.15234375,-43.45703125,-62.01171875,0.0
1676927045.2775133,-62.5,-57.6171875,-41.50390625,-54.6875,0.0
1676927045.281284,-66.40625,-69.3359375,-53.22265625,-56.640625,0.0
1676927045.285055,-89.84375,-70.3125,-46.38671875,-80.56640625,0.0
1676927045.2888255,-107.91015625,-68.84765625,-40.52734375,-90.8203125,0.0
1676927045.2925963,-89.84375,-68.84765625,-45.41015625,-89.35546875,0.0
1676927045.2963672,-94.23828125,-69.3359375,-53.22265625,-92.28515625,0.0
1676927045.3013592,-98.6328125,-60.05859375,-55.17578125,-113.76953125,0.0
1676927045.3063514,-95.21484375,-61.5234375,-50.29296875,-128.90625,0.0
1676927045.3113437,-115.234375,-72.265625,-46.38671875,-123.53515625,0.0
1676927045.3163357,-96.19140625,-66.40625,-50.29296875,-122.0703125,0.0
1676927045.3213277,-74.21875,-60.05859375,-48.33984375,-97.65625,0.0
1676927045.32632,-70.80078125,-58.10546875,-46.38671875,-94.23828125,0.0
1676927045.3313122,-85.9375,-61.5234375,-52.734375,-116.69921875,0.0
1676927045.3363042,-81.54296875,-61.03515625,-51.7578125,-91.796875,0.0
1676927045.3412962,-62.01171875,-55.17578125,-42.96875,-84.9609375,0.0
1676927045.3462884,-75.1953125,-58.10546875,-45.41015625,-111.328125,0.0
1676927045.3512807,-72.265625,-56.640625,-55.6640625,-127.9296875,0.0
1676927045.3562727,-57.6171875,-54.19921875,-54.6875,-125.48828125,0.0
1676927045.3600075,-58.59375,-52.734375,-44.921875,-99.12109375,0.0
1676927045.3637424,-63.96484375,-49.8046875,-48.828125,-95.21484375,0.0
1676927045.3674774,-61.03515625,-57.6171875,-62.5,-124.51171875,0.0
1676927045.3712122,-31.25,-50.78125,-54.6875,-110.3515625,0.0
1676927045.374947,-40.0390625,-46.875,-50.29296875,-109.375,0.0
1676927045.378682,-63.4765625,-49.8046875,-48.828125,-128.90625,0.0
1676927045.3824167,-78.125,-51.7578125,-54.6875,-136.71875,0.0
1676927045.3861516,-62.01171875,-54.6875,-62.01171875,-139.6484375,0.0
1676927045.3898864,-29.296875,-47.36328125,-49.31640625,-104.98046875,0.0
1676927045.3936214,-54.6875,-45.8984375,-46.875,-84.47265625,0.0
1676927045.3973563,-82.51953125,-53.7109375,-63.4765625,-123.046875,0.0
1676927045.401091,-60.05859375,-48.828125,-59.5703125,-127.9296875,0.0
1676927045.4049087,-32.71484375,-46.38671875,-55.17578125,-115.72265625,0.0
1676927045.4087262,-54.6875,-55.17578125,-60.546875,-115.72265625,0.0
1676927045.412544,-71.2890625,-51.26953125,-60.546875,-83.0078125,0.0
1676927045.4163616,-38.57421875,-41.015625,-55.6640625,-88.8671875,0.0
1676927045.4201791,-31.25,-44.921875,-56.15234375,-112.3046875,0.0
1676927045.423997,-46.875,-52.24609375,-54.6875,-79.58984375,0.0
1676927045.4278145,-56.15234375,-53.22265625,-55.17578125,-81.54296875,0.0
1676927045.431632,-53.22265625,-51.26953125,-58.10546875,-116.69921875,0.0
1676927045.4354496,-46.38671875,-53.7109375,-51.26953125,-106.93359375,0.0
1676927045.4392672,-54.19921875,-62.01171875,-58.10546875,-90.8203125,0.0
1676927045.443085,-50.29296875,-59.08203125,-62.01171875,-108.3984375,0.0
1676927045.4469025,-45.8984375,-49.8046875,-50.78125,-105.46875,0.0
1676927045.4506347,-34.1796875,-57.12890625,-47.8515625,-92.7734375,0.0
1676927045.4543667,-24.4140625,-64.94140625,-54.6875,-91.30859375,0.0
1676927045.458099,-26.3671875,-56.640625,-47.36328125,-85.9375,0.0
1676927045.461831,-46.875,-54.19921875,-41.015625,-100.09765625,0.0
1676927045.465563,-57.12890625,-59.08203125,-42.48046875,-109.86328125,0.0
1676927045.4692953,-42.96875,-62.98828125,-45.41015625,-92.28515625,0.0
1676927045.4730275,-19.53125,-62.5,-47.8515625,-69.82421875,0.0
1676927045.4767594,-26.85546875,-55.17578125,-38.57421875,-72.265625,0.0
1676927045.4804916,-63.96484375,-49.31640625,-39.55078125,-68.84765625,0.0
1676927045.4842238,-55.6640625,-59.5703125,-52.24609375,-79.1015625,0.0
1676927045.4879558,-30.2734375,-59.08203125,-44.921875,-51.7578125,0.0
1676927045.491688,-33.69140625,-55.17578125,-45.41015625,-41.015625,0.0
1676927045.4954393,-29.296875,-57.12890625,-49.8046875,-73.73046875,0.0
1676927045.4991908,-14.6484375,-55.6640625,-44.921875,-70.3125,0.0
1676927045.502942,-10.25390625,-60.05859375,-41.015625,-41.50390625,0.0
1676927045.5066936,-23.4375,-62.01171875,-50.29296875,-49.8046875,0.0
1676927045.5104449,-26.85546875,-53.7109375,-56.15234375,-62.98828125,0.0
1676927045.5141964,-30.2734375,-54.6875,-46.875,-61.03515625,0.0
1676927045.5179477,-37.59765625,-61.5234375,-47.8515625,-59.08203125,0.0
1676927045.521699,-14.16015625,-56.15234375,-47.8515625,-33.203125,0.0
1676927045.5254505,-29.296875,-61.03515625,-45.8984375,-47.8515625,0.0
1676927045.5292017,-73.73046875,-64.453125,-50.78125,-85.44921875,0.0
1676927045.5329533,-53.22265625,-63.96484375,-46.38671875,-73.2421875,0.0
1676927045.5367045,-47.8515625,-65.4296875,-48.33984375,-40.0390625,0.0
1676927045.5417047,-73.73046875,-63.96484375,-67.87109375,-63.96484375,0.0
1676927045.5467048,-73.73046875,-57.6171875,-66.89453125,-74.70703125,0.0
1676927045.5517046,-42.96875,-52.734375,-58.59375,-68.84765625,0.0
1676927045.5567048,-16.6015625,-56.640625,-58.10546875,-65.91796875,0.0
1676927045.5617049,-34.66796875,-62.5,-56.640625,-73.73046875,0.0
1676927045.5667048,-46.38671875,-63.96484375,-55.6640625,-82.03125,0.0
1676927045.5717049,-35.64453125,-58.10546875,-53.22265625,-59.5703125,0.0
1676927045.576705,-37.109375,-59.5703125,-55.17578125,-33.203125,0.0
1676927045.581705,-41.50390625,-69.3359375,-66.89453125,-48.33984375,0.0
1676927045.5867052,-41.50390625,-65.91796875,-62.98828125,-71.77734375,0.0
1676927045.591705,-28.80859375,-66.89453125,-57.12890625,-81.0546875,0.0
1676927045.5967052,-29.78515625,-68.359375,-60.546875,-64.94140625,0.0
1676927045.6005492,-51.7578125,-63.96484375,-56.640625,-58.59375,0.0
1676927045.6043932,-56.15234375,-57.12890625,-51.7578125,-62.98828125,0.0
1676927045.6082373,-56.15234375,-62.01171875,-56.640625,-66.89453125,0.0
1676927045.6120815,-48.828125,-63.96484375,-64.94140625,-75.1953125,0.0
1676927045.6159256,-53.22265625,-58.10546875,-64.453125,-34.1796875,0.0
1676927045.6197696,-80.56640625,-58.59375,-60.546875,-35.64453125,0.0
1676927045.6236136,-98.6328125,-59.08203125,-60.05859375,-85.9375,0.0
1676927045.6274576,-48.33984375,-62.5,-63.96484375,-87.890625,0.0
1676927045.6313019,-35.15625,-62.98828125,-61.03515625,-69.3359375,0.0
1676927045.635146,-82.51953125,-52.734375,-53.7109375,-49.8046875,0.0
1676927045.63899,-73.2421875,-46.875,-46.875,-61.03515625,0.0
1676927045.642834,-60.05859375,-56.15234375,-54.6875,-104.98046875,0.0
1676927045.645233,-64.453125,-58.59375,-61.5234375,-93.75,0.0
1676927045.647632,-68.359375,-62.01171875,-54.6875,-51.7578125,0.0
1676927045.6500309,-49.8046875,-58.10546875,-50.29296875,-60.546875,0.0
1676927045.6524298,-75.1953125,-53.22265625,-52.734375,-90.8203125,0.0
1676927045.6548288,-77.1484375,-55.17578125,-53.22265625,-69.3359375,0.0
1676927045.6572278,-49.31640625,-47.36328125,-46.875,-40.0390625,0.0
1676927045.6596267,-62.5,-59.08203125,-53.7109375,-67.3828125,0.0
1676927045.6620257,-47.36328125,-69.82421875,-56.640625,-95.703125,0.0
1676927045.6644247,-43.45703125,-63.96484375,-54.19921875,-87.890625,0.0
1676927045.6668236,-62.01171875,-51.7578125,-42.48046875,-50.29296875,0.0
1676927045.6692226,-77.63671875,-62.5,-41.015625,-38.0859375,0.0
1676927045.6716216,-68.359375,-69.82421875,-53.7109375,-62.5,0.0
1676927045.6766343,-23.4375,-52.24609375,-44.921875,-66.40625,0.0
1676927045.6816473,-0.9765625,-52.24609375,-43.9453125,-69.82421875,0.0
1676927045.68666,-7.8125,-50.78125,-39.55078125,-64.453125,0.0
1676927045.6916728,-25.390625,-50.29296875,-35.64453125,-76.66015625,0.0
1676927045.6966858,-25.87890625,-54.6875,-36.1328125,-81.0546875,0.0
1676927045.7016985,-20.99609375,-53.7109375,-38.57421875,-58.10546875,0.0
1676927045.7067113,-19.53125,-59.08203125,-51.26953125,-51.7578125,0.0
1676927045.7117243,-7.8125,-58.10546875,-53.7109375,-68.359375,0.0
1676927045.716737,-37.109375,-54.19921875,-41.015625,-64.453125,0.0
1676927045.7217498,-47.36328125,-51.26953125,-32.2265625,-48.828125,0.0
1676927045.7267628,-42.48046875,-55.6640625,-45.41015625,-54.19921875,0.0
1676927045.7317755,-40.0390625,-55.17578125,-50.29296875,-64.453125,0.0
1676927045.7380242,-20.01953125,-50.78125,-39.0625,-67.3828125,0.0
1676927045.7442727,-24.4140625,-51.7578125,-31.73828125,-61.03515625,0.0
1676927045.7505214,-22.94921875,-57.6171875,-41.50390625,-50.78125,0.0
1676927045.75677,-37.59765625,-61.03515625,-41.9921875,-53.7109375,0.0
1676927045.7630186,-44.43359375,-62.5,-35.15625,-60.546875,0.0
1676927045.769267,-28.80859375,-62.98828125,-34.66796875,-57.6171875,0.0
1676927045.7755158,-26.85546875,-69.3359375,-40.0390625,-57.12890625,0.0
1676927045.7817645,-42.48046875,-72.265625,-39.0625,-69.82421875,0.0
1676927045.788013,-35.64453125,-60.546875,-22.94921875,-63.96484375,0.0
1676927045.7942617,-30.76171875,-60.546875,-28.80859375,-58.10546875,0.0
1676927045.8005102,-37.59765625,-66.40625,-38.57421875,-56.640625,0.0
1676927045.8067589,-45.41015625,-62.01171875,-31.25,-45.41015625,0.0
1676927045.8080082,-63.4765625,-61.03515625,-35.64453125,-64.453125,0.0
1676927045.8092573,-44.921875,-60.546875,-42.48046875,-78.61328125,0.0
1676927045.8105066,-15.625,-59.5703125,-40.0390625,-54.19921875,0.0
1676927045.811756,-38.57421875,-62.5,-34.66796875,-30.2734375,0.0
1676927045.813005,-69.3359375,-66.40625,-33.69140625,-57.6171875,0.0
1676927045.8142543,-71.2890625,-62.5,-37.59765625,-73.2421875,0.0
1676927045.8155036,-51.26953125,-61.03515625,-50.78125,-75.1953125,0.0
1676927045.8167527,-34.1796875,-65.4296875,-55.6640625,-80.078125,0.0
1676927045.818002,-26.3671875,-66.40625,-53.22265625,-75.1953125,0.0
1676927045.8192513,-31.25,-65.91796875,-57.12890625,-92.7734375,0.0
1676927045.8205004,-22.4609375,-63.96484375,-59.5703125,-88.37890625,0.0
1676927045.8217497,-0.48828125,-58.10546875,-50.29296875,-62.01171875,0.0
1676927045.8255005,-3.41796875,-59.5703125,-48.828125,-51.7578125,0.0
1676927045.8292513,-9.27734375,-63.4765625,-61.03515625,-58.59375,0.0
1676927045.833002,-2.9296875,-57.6171875,-58.59375,-57.6171875,0.0
1676927045.836753,-6.34765625,-54.19921875,-48.33984375,-35.64453125,0.0
1676927045.8405037,-23.92578125,-58.59375,-43.9453125,6.8359375,0.0
1676927045.8442545,-42.96875,-66.89453125,-57.6171875,-45.8984375,0.0
1676927045.8480055,-28.3203125,-68.359375,-67.3828125,-90.8203125,0.0
1676927045.8517563,-18.06640625,-58.59375,-59.08203125,-51.7578125,0.0
1676927045.8555071,-24.90234375,-55.6640625,-57.6171875,-33.203125,0.0
1676927045.859258,-42.96875,-61.03515625,-70.80078125,-59.5703125,0.0
1676927045.8630087,-33.69140625,-57.6171875,-64.453125,-72.265625,0.0
1676927045.8667595,-14.6484375,-63.4765625,-64.453125,-61.03515625,0.0
1676927045.8704557,1.953125,-61.5234375,-67.87109375,-44.43359375,0.0
1676927045.874152,-20.99609375,-56.640625,-62.98828125,-63.4765625,0.0
1676927045.8778481,-48.828125,-54.19921875,-64.453125,-92.28515625,0.0
1676927045.881544,-36.1328125,-50.29296875,-72.265625,-94.7265625,0.0
1676927045.8852403,-43.9453125,-53.7109375,-70.80078125,-76.171875,0.0
1676927045.8889365,-54.6875,-48.828125,-60.546875,-56.640625,0.0
1676927045.8926327,-40.0390625,-42.48046875,-60.05859375,-69.82421875,0.0
1676927045.896329,-34.66796875,-40.52734375,-57.6171875,-74.70703125,0.0
1676927045.900025,-52.24609375,-41.9921875,-63.96484375,-83.49609375,0.0
1676927045.903721,-63.4765625,-46.875,-64.94140625,-94.7265625,0.0
1676927045.9074173,-66.40625,-50.29296875,-53.7109375,-83.49609375,0.0
1676927045.9111135,-56.640625,-58.59375,-58.10546875,-86.9140625,0.0
1676927045.9148636,-58.10546875,-63.96484375,-60.546875,-94.7265625,0.0
1676927045.9186137,-67.87109375,-63.4765625,-57.6171875,-92.28515625,0.0
1676927045.9223638,-69.3359375,-62.01171875,-57.12890625,-97.65625,0.0
1676927045.926114,-52.734375,-59.5703125,-56.15234375,-107.421875,0.0
1676927045.9298642,-45.8984375,-57.6171875,-52.734375,-93.26171875,0.0
1676927045.9336143,-77.1484375,-58.59375,-49.31640625,-76.171875,0.0
1676927045.9373643,-78.125,-54.6875,-41.9921875,-65.4296875,0.0
1676927045.9411144,-65.91796875,-51.26953125,-42.96875,-93.75,0.0
1676927045.9448647,-45.41015625,-63.4765625,-55.17578125,-129.39453125,0.0
1676927045.9486148,-48.33984375,-64.453125,-46.875,-92.28515625,0.0
1676927045.952365,-80.078125,-64.94140625,-51.7578125,-60.546875,0.0
1676927045.956115,-76.171875,-66.89453125,-57.6171875,-80.56640625,1.0
1676927045.9598904,-79.1015625,-62.5,-50.29296875,-107.91015625,0.0
1676927045.9636657,-74.21875,-55.17578125,-44.43359375,-102.5390625,0.0
1676927045.967441,-62.01171875,-59.08203125,-46.875,-88.37890625,0.0
1676927045.9712164,-83.0078125,-64.453125,-55.6640625,-93.26171875,0.0
1676927045.9749918,-74.70703125,-58.59375,-50.29296875,-98.6328125,0.0
1676927045.9787672,-38.0859375,-55.6640625,-45.41015625,-93.26171875,0.0
1676927045.9825425,-17.578125,-46.875,-45.41015625,-74.70703125,0.0
1676927045.9863179,-43.9453125,-47.8515625,-59.5703125,-95.21484375,0.0
1676927045.9900932,-59.5703125,-54.6875,-64.94140625,-118.65234375,0.0
1676927045.9938686,-34.66796875,-52.734375,-57.12890625,-117.67578125,0.0
1676927045.997644,-55.17578125,-55.6640625,-60.05859375,-100.09765625,0.0
1676927046.0014193,-80.078125,-61.5234375,-68.359375,-99.609375,0.0
1676927046.0051827,-81.0546875,-60.546875,-66.40625,-126.953125,0.0
1676927046.0089464,-58.10546875,-55.6640625,-62.5,-120.1171875,0.0
1676927046.01271,-36.1328125,-57.6171875,-67.3828125,-99.609375,0.0
1676927046.0164735,-54.6875,-64.453125,-66.40625,-101.07421875,0.0
1676927046.020237,-71.2890625,-56.640625,-63.4765625,-92.28515625,0.0
1676927046.0240006,-62.98828125,-45.41015625,-51.26953125,-67.3828125,0.0
1676927046.0277643,-37.59765625,-51.26953125,-47.8515625,-71.2890625,0.0
1676927046.0315278,-30.76171875,-56.640625,-63.4765625,-69.82421875,0.0
1676927046.0352912,-26.3671875,-43.45703125,-56.640625,-60.05859375,0.0
1676927046.0390549,-15.625,-44.921875,-46.38671875,-59.08203125,0.0
1676927046.0428185,-24.4140625,-59.08203125,-50.78125,-64.453125,0.0
1676927046.046582,-22.94921875,-56.15234375,-49.31640625,-49.31640625,0.0
1676927046.0515568,-31.73828125,-46.38671875,-42.96875,-35.64453125,0.0
1676927046.0565317,-48.828125,-48.828125,-38.0859375,-46.875,0.0
1676927046.0615063,-33.69140625,-57.12890625,-38.57421875,-64.453125,0.0
1676927046.066481,-29.78515625,-61.5234375,-44.921875,-73.73046875,0.0
1676927046.071456,-44.921875,-54.19921875,-45.41015625,-66.40625,0.0
1676927046.0764308,-67.3828125,-47.8515625,-42.96875,-67.87109375,0.0
1676927046.0814056,-60.05859375,-53.22265625,-45.8984375,-84.9609375,0.0
1676927046.0863805,-27.34375,-52.24609375,-44.921875,-98.14453125,0.0
1676927046.0913553,-28.3203125,-46.875,-42.96875,-75.1953125,0.0
1676927046.09633,-49.31640625,-47.36328125,-38.57421875,-63.4765625,0.0
1676927046.1013048,-59.08203125,-54.6875,-41.50390625,-79.1015625,0.0
1676927046.1062796,-57.6171875,-57.6171875,-47.36328125,-75.68359375,0.0
1676927046.1100156,-27.34375,-49.8046875,-40.52734375,-33.69140625,0.0
1676927046.113752,-13.671875,-43.45703125,-39.0625,-20.5078125,0.0
1676927046.117488,-40.52734375,-48.33984375,-39.55078125,-42.96875,0.0
1676927046.121224,-25.390625,-50.29296875,-35.15625,-26.85546875,0.0
1676927046.12496,-21.97265625,-47.8515625,-38.57421875,-29.78515625,0.0
1676927046.128696,-51.7578125,-56.640625,-39.0625,-32.71484375,0.0
1676927046.1324322,-52.24609375,-62.5,-40.0390625,-48.828125,0.0
1676927046.1361682,-31.73828125,-57.12890625,-38.0859375,-71.77734375,0.0
1676927046.1399043,2.44140625,-43.9453125,-33.203125,-41.9921875,0.0
1676927046.1436405,-2.44140625,-49.31640625,-38.0859375,-38.0859375,0.0
1676927046.1473765,-43.9453125,-60.546875,-46.38671875,-93.26171875,0.0
1676927046.1511126,-30.76171875,-47.8515625,-41.9921875,-104.98046875,0.0
1676927046.154864,12.20703125,-46.875,-42.96875,-69.3359375,0.0
1676927046.1586154,-14.6484375,-49.31640625,-43.45703125,-49.8046875,0.0
1676927046.1623669,-46.875,-49.31640625,-43.45703125,-72.75390625,0.0
1676927046.1661184,-46.875,-53.7109375,-47.36328125,-78.61328125,0.0
1676927046.1698697,-39.0625,-51.7578125,-51.7578125,-68.359375,0.0
1676927046.1736212,-25.87890625,-49.31640625,-50.78125,-59.08203125,0.0
1676927046.1773727,-39.55078125,-46.875,-47.8515625,-57.12890625,0.0
1676927046.181124,-48.828125,-42.96875,-47.8515625,-70.80078125,0.0
1676927046.1848755,-27.83203125,-50.78125,-41.9921875,-61.03515625,0.0
1676927046.188627,-21.484375,-59.08203125,-41.9921875,-35.15625,0.0
1676927046.1923783,-24.4140625,-47.8515625,-42.96875,-47.36328125,0.0
1676927046.1961298,-17.08984375,-46.875,-35.15625,-75.68359375,0.0
1676927046.1998773,-20.5078125,-51.7578125,-39.55078125,-69.82421875,0.0
1676927046.203625,-33.203125,-54.6875,-52.734375,-60.546875,0.0
1676927046.2073727,-17.08984375,-58.10546875,-46.38671875,-44.43359375,0.0
1676927046.2111201,-40.52734375,-55.6640625,-35.64453125,-42.48046875,0.0
1676927046.2148676,-35.15625,-55.17578125,-44.43359375,-59.5703125,0.0
1676927046.2186153,-0.48828125,-52.24609375,-47.8515625,-59.08203125,0.0
1676927046.222363,0.48828125,-52.734375,-46.875,-57.6171875,0.0
1676927046.2261105,7.8125,-49.8046875,-44.43359375,-35.64453125,0.0
1676927046.229858,-40.0390625,-55.6640625,-42.96875,-42.48046875,0.0
1676927046.2336056,-51.7578125,-64.94140625,-49.31640625,-83.0078125,0.0
1676927046.2373533,-43.9453125,-57.6171875,-50.29296875,-54.19921875,0.0
1676927046.2411008,-38.57421875,-51.26953125,-42.48046875,-28.3203125,0.0
1676927046.2448504,-18.5546875,-49.31640625,-48.33984375,-47.8515625,0.0
1676927046.2486,-26.85546875,-50.78125,-52.24609375,-62.01171875,0.0
1676927046.2523496,-29.296875,-55.6640625,-41.50390625,-49.8046875,0.0
1676927046.2560992,-20.01953125,-58.10546875,-44.921875,-41.015625,0.0
1676927046.2598488,-34.66796875,-58.10546875,-43.9453125,-57.12890625,0.0
1676927046.2635984,-35.64453125,-48.828125,-42.96875,-67.3828125,0.0
1676927046.267348,-23.92578125,-46.38671875,-47.36328125,-62.5,0.0
1676927046.2710977,-17.08984375,-45.41015625,-45.41015625,-47.36328125,0.0
1676927046.2748473,-20.5078125,-47.8515625,-52.734375,-56.640625,0.0
1676927046.2785969,-41.015625,-49.8046875,-53.7109375,-89.35546875,0.0
1676927046.2823465,-44.43359375,-43.45703125,-43.45703125,-82.03125,0.0
1676927046.286096,-48.33984375,-44.921875,-35.64453125,-47.8515625,0.0
1676927046.2899985,-60.546875,-53.7109375,-40.52734375,-52.24609375,0.0
1676927046.2939012,-70.3125,-57.6171875,-48.33984375,-69.3359375,0.0
1676927046.2978039,-70.80078125,-57.6171875,-46.875,-65.4296875,0.0
1676927046.3017063,-52.24609375,-67.3828125,-50.78125,-46.38671875,0.0
1676927046.3056087,-34.66796875,-68.84765625,-55.17578125,-36.1328125,0.0
1676927046.3095114,-54.6875,-60.546875,-50.78125,-62.01171875,0.0
1676927046.313414,-64.94140625,-57.6171875,-44.43359375,-71.2890625,0.0
1676927046.3173165,-46.38671875,-58.10546875,-47.8515625,-43.45703125,0.0
1676927046.321219,-59.08203125,-63.4765625,-56.15234375,-39.0625,0.0
1676927046.3251216,-53.22265625,-62.98828125,-48.33984375,-70.3125,0.0
1676927046.3290243,-35.64453125,-63.4765625,-46.875,-59.08203125,0.0
1676927046.3329268,-43.45703125,-62.01171875,-43.45703125,-28.3203125,0.0
1676927046.3365755,-20.5078125,-55.17578125,-45.41015625,-64.94140625,0.0
1676927046.340224,-26.85546875,-47.36328125,-46.38671875,-70.80078125,0.0
1676927046.3438728,-57.12890625,-48.828125,-33.203125,-63.96484375,0.0
1676927046.3475215,-55.6640625,-52.734375,-38.57421875,-65.4296875,0.0
1676927046.35117,-52.24609375,-47.36328125,-44.921875,-61.5234375,0.0
1676927046.3548188,-35.64453125,-44.921875,-41.015625,-49.31640625,0.0
1676927046.3584676,-53.22265625,-44.921875,-30.76171875,-45.8984375,0.0
1676927046.362116,-79.58984375,-51.26953125,-38.57421875,-85.9375,0.0
1676927046.3657649,-60.546875,-55.17578125,-52.24609375,-103.02734375,0.0
1676927046.3694136,-51.7578125,-44.921875,-42.48046875,-60.05859375,0.0
1676927046.3730621,-46.38671875,-44.921875,-36.62109375,-69.3359375,0.0
1676927046.376711,-44.43359375,-50.29296875,-34.1796875,-80.56640625,0.0
1676927046.380457,-59.5703125,-53.7109375,-33.69140625,-58.59375,0.0
1676927046.3842032,-43.9453125,-50.29296875,-32.71484375,-57.12890625,0.0
1676927046.3879492,-42.48046875,-46.38671875,-34.1796875,-45.8984375,0.0
1676927046.3916953,-55.17578125,-52.734375,-38.0859375,-67.87109375,0.0
1676927046.3954415,-37.59765625,-56.15234375,-40.0390625,-79.58984375,0.0
1676927046.3991876,-14.16015625,-46.38671875,-42.48046875,-40.0390625,0.0
1676927046.4029336,-39.0625,-45.41015625,-45.41015625,-41.9921875,0.0
1676927046.4066799,-62.01171875,-60.05859375,-54.19921875,-75.68359375,0.0
1676927046.410426,-53.22265625,-61.03515625,-56.640625,-77.1484375,0.0
1676927046.414172,-40.52734375,-48.828125,-41.9921875,-58.59375,0.0
1676927046.4179182,-50.78125,-56.15234375,-48.33984375,-62.01171875,0.0
1676927046.4216642,-63.4765625,-70.3125,-69.3359375,-99.609375,0.0
1676927046.4266872,-60.546875,-63.96484375,-66.40625,-95.21484375,0.0
1676927046.4317105,-65.4296875,-57.6171875,-62.5,-52.24609375,0.0
1676927046.4367335,-53.22265625,-54.6875,-59.08203125,-58.59375,0.0
1676927046.4417565,-62.98828125,-53.7109375,-58.59375,-90.33203125,0.0
1676927046.4467797,-68.84765625,-51.26953125,-59.08203125,-80.56640625,0.0
1676927046.4518027,-56.640625,-44.43359375,-53.22265625,-48.33984375,0.0
1676927046.4568257,-64.94140625,-51.26953125,-51.7578125,-43.45703125,0.0
1676927046.461849,-65.91796875,-56.15234375,-56.640625,-69.82421875,0.0
1676927046.466872,-68.84765625,-49.31640625,-52.734375,-86.42578125,0.0
1676927046.471895,-30.2734375,-42.48046875,-44.921875,-66.40625,0.0
1676927046.4769182,-34.1796875,-54.19921875,-56.15234375,-60.05859375,0.0
1676927046.4819412,-83.49609375,-61.5234375,-59.08203125,-71.77734375,0.0
1676927046.4856715,-68.359375,-50.29296875,-48.33984375,-65.91796875,0.0
1676927046.489402,-60.05859375,-51.7578125,-47.36328125,-80.078125,0.0
1676927046.4931324,-75.68359375,-63.4765625,-52.734375,-86.42578125,0.0
1676927046.4968626,-69.3359375,-63.4765625,-55.17578125,-64.453125,0.0
1676927046.5005932,-68.84765625,-59.5703125,-48.828125,-69.3359375,0.0
1676927046.5043235,-77.1484375,-64.453125,-44.921875,-82.03125,0.0
1676927046.5080538,-59.5703125,-69.82421875,-50.29296875,-52.734375,0.0
1676927046.5117843,-53.22265625,-67.87109375,-51.26953125,-36.1328125,0.0
1676927046.5155146,-62.5,-60.546875,-41.015625,-60.05859375,0.0
1676927046.519245,-58.59375,-54.19921875,-42.48046875,-86.9140625,0.0
1676927046.5229754,-54.6875,-54.6875,-54.6875,-96.19140625,0.0
1676927046.5267057,-52.24609375,-51.7578125,-43.9453125,-72.265625,0.0
1676927046.5304058,-69.3359375,-47.8515625,-42.96875,-77.63671875,0.0
1676927046.5341055,-76.66015625,-44.921875,-49.31640625,-104.00390625,0.0
1676927046.5378056,-43.9453125,-51.7578125,-44.921875,-88.8671875,0.0
1676927046.5415053,-23.4375,-52.24609375,-41.015625,-85.44921875,0.0
1676927046.5452054,-54.19921875,-54.19921875,-36.1328125,-99.12109375,0.0
1676927046.5489054,-70.80078125,-56.15234375,-29.78515625,-91.30859375,0.0
1676927046.5526052,-42.96875,-51.26953125,-29.296875,-86.42578125,0.0
1676927046.5563052,-15.625,-46.38671875,-28.80859375,-76.66015625,0.0
1676927046.560005,-39.55078125,-45.8984375,-23.4375,-73.73046875,0.0
1676927046.563705,-79.58984375,-57.6171875,-36.62109375,-106.4453125,0.0
1676927046.5674047,-63.4765625,-55.6640625,-41.50390625,-121.09375,0.0
1676927046.5711048,-45.8984375,-50.78125,-33.203125,-100.5859375,0.0
1676927046.5748672,-53.22265625,-52.24609375,-36.62109375,-92.28515625,0.0
1676927046.5786297,-73.2421875,-54.19921875,-41.9921875,-113.28125,0.0
1676927046.5823922,-79.1015625,-57.6171875,-39.0625,-104.4921875,0.0
1676927046.586155,-54.6875,-48.828125,-35.15625,-79.58984375,0.0
1676927046.5899174,-44.43359375,-49.8046875,-40.0390625,-75.1953125,0.0
1676927046.59368,-68.359375,-55.6640625,-42.48046875,-102.5390625,0.0
1676927046.5974424,-78.61328125,-60.546875,-43.9453125,-112.3046875,0.0
1676927046.6012049,-55.17578125,-60.05859375,-39.0625,-104.98046875,0.0
1676927046.6049676,-47.36328125,-54.6875,-33.203125,-95.703125,0.0
1676927046.60873,-45.8984375,-54.19921875,-45.8984375,-99.609375,0.0
1676927046.6124926,-47.8515625,-52.24609375,-41.015625,-97.65625,0.0
1676927046.616255,-58.10546875,-49.8046875,-35.64453125,-78.125,0.0
1676927046.6200082,-54.6875,-46.38671875,-40.52734375,-83.984375,0.0
1676927046.6237617,-39.0625,-45.41015625,-36.62109375,-85.44921875,0.0
1676927046.6275148,-41.9921875,-43.9453125,-29.296875,-75.1953125,0.0
1676927046.631268,-71.2890625,-44.921875,-33.203125,-86.9140625,0.0
1676927046.6350212,-50.29296875,-48.828125,-37.109375,-78.125,0.0
1676927046.6387744,-35.15625,-46.875,-28.3203125,-42.96875,0.0
1676927046.6425278,-50.78125,-43.9453125,-30.2734375,-55.6640625,0.0
1676927046.646281,-46.38671875,-37.59765625,-23.4375,-56.640625,0.0
1676927046.6500342,-47.8515625,-39.55078125,-30.2734375,-34.66796875,0.0
1676927046.6537876,-58.10546875,-49.8046875,-43.9453125,-48.33984375,0.0
1676927046.6575408,-40.52734375,-41.50390625,-32.2265625,-55.17578125,0.0
1676927046.661294,-40.0390625,-32.2265625,-32.71484375,-57.12890625,0.0
1676927046.6650417,-54.19921875,-34.66796875,-36.1328125,-59.5703125,0.0
1676927046.6687894,-38.0859375,-45.41015625,-33.69140625,-44.921875,0.0
1676927046.6725368,-56.15234375,-45.41015625,-30.2734375,-34.66796875,0.0
1676927046.6762846,-71.77734375,-44.921875,-32.2265625,-53.22265625,0.0
1676927046.6800323,-49.31640625,-51.26953125,-35.15625,-62.01171875,0.0
1676927046.68378,-31.25,-49.8046875,-34.1796875,-55.17578125,0.0
1676927046.6875277,-53.22265625,-40.0390625,-25.390625,-52.734375,0.0
1676927046.6912754,-93.26171875,-40.0390625,-20.5078125,-58.10546875,0.0
1676927046.695023,-83.984375,-43.9453125,-34.1796875,-80.078125,0.0
1676927046.6987705,-46.38671875,-36.1328125,-34.66796875,-62.98828125,0.0
1676927046.7025182,-45.41015625,-41.9921875,-35.15625,-46.38671875,0.0
1676927046.706266,-82.51953125,-49.31640625,-36.62109375,-74.70703125,1.0
1676927046.7100286,-83.984375,-49.8046875,-31.25,-67.3828125,0.0
1676927046.7137916,-48.828125,-48.33984375,-27.83203125,-41.9921875,0.0
1676927046.7175543,-47.8515625,-53.7109375,-26.85546875,-23.92578125,0.0
1676927046.721317,-47.36328125,-55.6640625,-27.83203125,-17.578125,0.0
1676927046.72508,-48.828125,-47.8515625,-28.80859375,-51.7578125,0.0
1676927046.7288427,-40.52734375,-41.015625,-22.94921875,-45.41015625,0.0
1676927046.7326055,-29.296875,-41.015625,-17.08984375,-17.578125,0.0
1676927046.7363684,-65.4296875,-51.7578125,-23.4375,-43.9453125,0.0
1676927046.7401311,-74.70703125,-55.17578125,-31.25,-67.3828125,0.0
1676927046.7438939,-42.96875,-48.33984375,-24.4140625,-60.546875,0.0
1676927046.7476568,-32.71484375,-51.7578125,-22.4609375,-54.19921875,0.0
1676927046.7514195,-42.48046875,-53.7109375,-27.34375,-48.828125,0.0
1676927046.7552874,-50.78125,-49.8046875,-31.73828125,-63.4765625,0.0
1676927046.7591553,-32.2265625,-50.78125,-32.2265625,-79.58984375,0.0
1676927046.7630231,-24.90234375,-52.734375,-27.83203125,-58.10546875,0.0
1676927046.766891,-33.69140625,-55.6640625,-30.2734375,-60.05859375,0.0
1676927046.7707589,-30.76171875,-49.8046875,-24.4140625,-77.1484375,0.0
1676927046.7746267,-23.92578125,-41.50390625,-17.578125,-65.91796875,0.0
1676927046.7784948,-13.671875,-43.9453125,-23.92578125,-55.17578125,0.0
1676927046.7823627,-22.94921875,-49.31640625,-31.73828125,-61.03515625,0.0
1676927046.7862306,-23.92578125,-36.1328125,-22.94921875,-43.9453125,0.0
1676927046.7900984,15.625,-29.78515625,-18.5546875,-38.0859375,0.0
1676927046.7939663,23.92578125,-36.1328125,-25.87890625,-28.3203125,0.0
1676927046.7978342,-9.27734375,-41.9921875,-31.25,-18.5546875,0.0
1676927046.802704,-21.484375,-40.0390625,-26.3671875,-24.90234375,0.0
1676927046.807574,-29.296875,-43.45703125,-22.94921875,-46.875,0.0
1676927046.812444,-19.04296875,-43.45703125,-22.4609375,-41.50390625,0.0
1676927046.817314,-14.16015625,-37.109375,-21.97265625,-43.45703125,0.0
1676927046.8221838,-6.34765625,-37.109375,-23.4375,-55.6640625,0.0
1676927046.827054,-12.20703125,-30.76171875,-15.13671875,-30.76171875,0.0
1676927046.831924,-34.66796875,-39.55078125,-25.87890625,-54.6875,0.0
1676927046.836794,-33.69140625,-47.36328125,-40.0390625,-83.49609375,0.0
1676927046.8416638,-7.32421875,-33.69140625,-26.3671875,-45.8984375,0.0
1676927046.8465338,-17.578125,-26.3671875,-20.01953125,-46.875,0.0
1676927046.8514037,-56.640625,-37.109375,-25.87890625,-75.1953125,0.0
1676927046.8562737,-52.24609375,-40.0390625,-24.90234375,-67.87109375,0.0
1676927046.861313,-23.4375,-27.83203125,-24.90234375,-30.76171875,0.0
1676927046.8663526,-8.30078125,-31.25,-21.97265625,-37.59765625,0.0
1676927046.8713923,-7.32421875,-36.1328125,-23.92578125,-62.98828125,0.0
1676927046.8764317,-7.32421875,-36.62109375,-19.53125,-38.0859375,0.0
1676927046.8814712,5.37109375,-36.62109375,-7.32421875,-14.16015625,0.0
1676927046.8865106,3.90625,-33.203125,-11.71875,-18.06640625,0.0
1676927046.89155,-4.8828125,-32.71484375,-19.04296875,-31.25,0.0
1676927046.8965895,-4.39453125,-38.0859375,-25.390625,-33.203125,0.0
1676927046.901629,15.13671875,-32.71484375,-20.5078125,-20.99609375,0.0
1676927046.9066687,13.671875,-38.57421875,-13.671875,-3.41796875,0.0
1676927046.911708,-10.7421875,-53.7109375,-23.4375,-10.7421875,0.0
1676927046.9167476,10.25390625,-45.41015625,-19.04296875,-24.90234375,0.0
1676927046.9191945,16.6015625,-41.015625,-15.625,-31.73828125,0.0
1676927046.9216416,1.46484375,-41.9921875,-24.90234375,-24.90234375,0.0
1676927046.9240885,-0.48828125,-37.109375,-23.92578125,-35.64453125,0.0
1676927046.9265356,-7.8125,-33.69140625,-16.6015625,-43.9453125,0.0
1676927046.9289825,-23.92578125,-35.64453125,-19.53125,-36.1328125,0.0
1676927046.9314294,0.48828125,-37.59765625,-24.90234375,-26.85546875,0.0
1676927046.9338765,-5.37109375,-40.52734375,-28.80859375,-39.55078125,0.0
1676927046.9363234,-26.85546875,-43.45703125,-25.390625,-52.734375,0.0
1676927046.9387705,-22.94921875,-45.41015625,-25.390625,-60.05859375,0.0
1676927046.9412174,-27.83203125,-50.78125,-35.15625,-60.546875,0.0
1676927046.9436646,-43.45703125,-56.15234375,-33.69140625,-43.9453125,0.0
1676927046.9461114,-67.87109375,-57.6171875,-26.85546875,-53.7109375,0.0
1676927046.9511108,-51.7578125,-51.26953125,-15.13671875,-44.43359375,0.0
1676927046.95611,-40.0390625,-55.6640625,-22.94921875,-57.6171875,0.0
1676927046.9611092,-44.43359375,-65.91796875,-38.57421875,-62.01171875,0.0
1676927046.9661086,-41.9921875,-62.01171875,-32.71484375,-45.8984375,0.0
1676927046.971108,-43.9453125,-55.17578125,-28.80859375,-62.98828125,0.0
1676927046.9761071,-34.66796875,-51.26953125,-29.296875,-47.36328125,0.0
1676927046.9811063,-21.484375,-60.05859375,-37.109375,-31.73828125,0.0
1676927046.9861057,-14.16015625,-54.6875,-32.2265625,-29.296875,0.0
1676927046.991105,-27.34375,-51.7578125,-31.73828125,-44.43359375,0.0
1676927046.9961042,-25.87890625,-56.15234375,-46.875,-62.98828125,0.0
1676927047.0011034,7.8125,-41.9921875,-41.9921875,-27.83203125,0.0
1676927047.0061028,-7.32421875,-42.48046875,-33.203125,-19.53125,0.0
1676927047.0087214,-31.73828125,-44.43359375,-39.0625,-62.5,0.0
1676927047.01134,-33.69140625,-44.43359375,-46.875,-71.2890625,0.0
1676927047.0139585,-29.296875,-46.875,-43.45703125,-58.10546875,0.0
1676927047.0165772,-21.97265625,-41.50390625,-37.109375,-37.109375,0.0
1676927047.0191958,-31.73828125,-46.875,-40.52734375,-39.0625,0.0
1676927047.0218143,-37.109375,-48.33984375,-43.9453125,-62.98828125,0.0
1676927047.024433,-31.73828125,-49.31640625,-46.38671875,-69.82421875,0.0
1676927047.0270514,-64.94140625,-61.03515625,-50.29296875,-59.5703125,0.0
1676927047.0296702,-81.0546875,-66.89453125,-52.734375,-62.01171875,0.0
1676927047.0322888,-68.359375,-69.3359375,-48.828125,-83.0078125,0.0
1676927047.0349073,-60.05859375,-66.89453125,-37.59765625,-70.3125,0.0
1676927047.037526,-58.59375,-72.75390625,-36.62109375,-28.3203125,0.0
1676927047.0411828,-77.63671875,-80.56640625,-50.29296875,-63.96484375,0.0
1676927047.0448399,-71.77734375,-70.3125,-51.26953125,-91.30859375,0.0
1676927047.0484967,-38.0859375,-61.5234375,-43.9453125,-66.89453125,0.0
1676927047.0521536,-34.1796875,-62.5,-40.52734375,-51.26953125,0.0
1676927047.0558107,-43.45703125,-61.5234375,-34.1796875,-47.8515625,0.0
1676927047.0594676,-23.4375,-56.15234375,-30.2734375,-54.6875,0.0
1676927047.0631244,-14.16015625,-53.7109375,-24.90234375,-44.43359375,0.0
1676927047.0667815,-43.45703125,-54.6875,-22.94921875,-24.4140625,0.0
1676927047.0704384,-58.59375,-62.98828125,-38.57421875,-54.6875,0.0
1676927047.0740952,-62.01171875,-55.6640625,-35.64453125,-60.05859375,0.0
1676927047.0777524,-44.921875,-43.45703125,-28.3203125,-64.453125,0.0
1676927047.0814092,-27.34375,-42.48046875,-28.80859375,-70.3125,0.0
1676927047.0851939,-19.04296875,-44.921875,-32.71484375,-37.109375,0.0
1676927047.0889788,-35.15625,-38.0859375,-33.203125,-21.97265625,0.0
1676927047.0927634,-39.55078125,-35.15625,-29.78515625,-35.64453125,0.0
1676927047.096548,-15.13671875,-39.55078125,-29.78515625,-45.41015625,0.0
1676927047.100333,-23.4375,-38.0859375,-26.3671875,-20.99609375,0.0
1676927047.1041176,-41.50390625,-41.50390625,-24.4140625,-33.203125,0.0
1676927047.1079023,-49.8046875,-44.921875,-21.484375,-56.640625,0.0
1676927047.1116872,-71.2890625,-53.22265625,-28.80859375,-67.3828125,0.0
1676927047.1154718,-68.84765625,-55.17578125,-39.55078125,-77.63671875,0.0
1676927047.1192565,-45.8984375,-46.875,-32.2265625,-62.01171875,0.0
1676927047.1230414,-42.48046875,-44.921875,-31.25,-54.6875,0.0
1676927047.126826,-28.3203125,-44.43359375,-32.71484375,-45.8984375,0.0
1676927047.1305668,-40.0390625,-42.96875,-27.34375,-48.828125,0.0
1676927047.1343076,-53.22265625,-38.0859375,-21.484375,-38.57421875,0.0
1676927047.1380484,-52.24609375,-40.0390625,-20.01953125,-58.10546875,0.0
1676927047.1417892,-51.26953125,-43.9453125,-21.97265625,-76.171875,0.0
1676927047.14553,-26.85546875,-40.0390625,-19.04296875,-40.0390625,0.0
1676927047.1492705,-5.37109375,-32.71484375,-13.18359375,-3.90625,0.0
1676927047.1530113,-17.08984375,-31.73828125,-18.5546875,-18.5546875,0.0
1676927047.156752,-43.9453125,-33.69140625,-21.97265625,-38.57421875,0.0
1676927047.160493,-34.66796875,-35.64453125,-13.18359375,-37.59765625,0.0
1676927047.1642337,-26.3671875,-37.59765625,-6.34765625,-31.73828125,0.0
1676927047.1679745,-39.0625,-33.69140625,-9.27734375,-47.36328125,0.0
1676927047.1717153,-20.5078125,-32.2265625,-19.04296875,-87.40234375,0.0
1676927047.1767044,-7.32421875,-27.34375,-16.6015625,-79.58984375,0.0
1676927047.1816938,-39.0625,-28.3203125,-7.32421875,-60.546875,0.0
1676927047.1866832,-42.96875,-33.203125,-9.27734375,-70.80078125,0.0
1676927047.1916723,-51.7578125,-33.69140625,-17.578125,-99.12109375,0.0
1676927047.1966615,-46.875,-31.73828125,-15.13671875,-87.890625,0.0
1676927047.2016509,-21.484375,-37.109375,-16.11328125,-65.4296875,0.0
1676927047.2066402,-22.94921875,-42.96875,-19.04296875,-79.1015625,0.0
1676927047.2116294,-31.73828125,-43.45703125,-20.01953125,-86.9140625,0.0
1676927047.2166185,-18.06640625,-43.45703125,-13.18359375,-82.03125,0.0
1676927047.221608,-9.765625,-49.8046875,-16.6015625,-83.0078125,0.0
1676927047.2265973,-33.69140625,-57.6171875,-25.87890625,-77.63671875,0.0
1676927047.2315865,-38.0859375,-55.17578125,-13.671875,-69.3359375,0.0
1676927047.235347,-38.57421875,-46.38671875,-9.765625,-71.2890625,0.0
1676927047.2391074,-55.17578125,-42.48046875,-16.11328125,-86.9140625,0.0
1676927047.242868,-53.22265625,-47.8515625,-16.11328125,-84.47265625,0.0
1676927047.2466283,-52.734375,-52.734375,-10.7421875,-82.51953125,0.0
1676927047.2503889,-41.9921875,-37.59765625,-1.953125,-95.703125,0.0
1676927047.2541494,-28.3203125,-34.66796875,-9.27734375,-82.03125,0.0
1676927047.2579098,-28.3203125,-47.36328125,-24.4140625,-81.54296875,0.0
1676927047.2616704,-37.109375,-42.96875,-22.4609375,-76.171875,0.0
1676927047.2654307,-41.015625,-38.57421875,-13.18359375,-81.0546875,0.0
1676927047.2691913,-40.52734375,-40.52734375,-17.08984375,-92.28515625,0.0
1676927047.2729516,-15.625,-42.96875,-26.3671875,-83.0078125,0.0
1676927047.2767122,-14.16015625,-45.8984375,-21.97265625,-69.82421875,0.0
1676927047.2804625,-38.0859375,-42.96875,-17.578125,-77.1484375,0.0
1676927047.2842128,-51.26953125,-41.9921875,-28.3203125,-100.09765625,0.0
1676927047.287963,-32.71484375,-48.33984375,-44.921875,-120.60546875,0.0
1676927047.2917132,-10.7421875,-51.26953125,-38.0859375,-96.19140625,0.0
1676927047.2954636,-39.0625,-46.875,-29.78515625,-77.63671875,0.0
1676927047.299214,-64.453125,-49.8046875,-28.3203125,-85.9375,0.0
1676927047.3029642,-45.8984375,-55.17578125,-32.71484375,-87.40234375,0.0
1676927047.3067145,-35.64453125,-47.8515625,-30.2734375,-70.80078125,0.0
1676927047.3104649,-48.828125,-51.7578125,-25.87890625,-40.52734375,0.0
1676927047.314215,-57.6171875,-67.87109375,-26.3671875,-61.5234375,0.0
1676927047.3179653,-56.15234375,-60.546875,-20.99609375,-84.47265625,0.0
1676927047.3217156,-62.5,-50.29296875,-20.99609375,-55.6640625,0.0
1676927047.3279848,-44.921875,-48.828125,-24.4140625,-51.26953125,0.0
1676927047.334254,-39.55078125,-46.38671875,-31.25,-40.52734375,0.0
1676927047.3405232,-62.5,-47.8515625,-29.296875,-29.78515625,0.0
1676927047.3467925,-75.68359375,-45.41015625,-22.94921875,-60.546875,0.0
1676927047.3530617,-67.3828125,-46.875,-27.83203125,-56.15234375,0.0
1676927047.3593311,-86.42578125,-57.12890625,-29.78515625,-59.08203125,0.0
1676927047.3656003,-98.14453125,-56.640625,-26.85546875,-86.42578125,0.0
1676927047.3718696,-75.68359375,-55.17578125,-24.90234375,-85.9375,0.0
1676927047.3781388,-86.9140625,-61.5234375,-35.64453125,-48.33984375,0.0
1676927047.384408,-87.40234375,-63.4765625,-45.8984375,-62.5,0.0
1676927047.3906772,-63.96484375,-53.22265625,-39.55078125,-93.75,0.0
1676927047.3969464,-55.17578125,-52.734375,-45.41015625,-87.40234375,0.0
1676927047.398167,-29.78515625,-50.29296875,-46.875,-75.68359375,0.0
1676927047.3993874,-30.2734375,-41.9921875,-33.69140625,-73.2421875,0.0
1676927047.4006076,-58.10546875,-42.48046875,-31.25,-75.68359375,0.0
1676927047.401828,-47.8515625,-43.45703125,-33.203125,-74.21875,0.0
1676927047.4030485,-28.3203125,-42.48046875,-29.296875,-53.7109375,0.0
1676927047.404269,-28.80859375,-40.0390625,-24.90234375,-41.50390625,0.0
1676927047.4054894,-64.453125,-45.41015625,-25.390625,-53.7109375,0.0
1676927047.40671,-65.4296875,-50.78125,-29.296875,-77.1484375,0.0
1676927047.4079304,-29.296875,-53.7109375,-37.109375,-86.42578125,0.0
1676927047.4091506,-38.0859375,-55.17578125,-39.0625,-71.2890625,0.0
1676927047.410371,-66.40625,-51.26953125,-34.1796875,-69.3359375,0.0
1676927047.4115915,-64.453125,-48.33984375,-28.80859375,-64.453125,0.0
1676927047.4153478,-33.69140625,-53.22265625,-32.71484375,-54.19921875,0.0
1676927047.4191039,-22.94921875,-59.5703125,-40.0390625,-55.6640625,0.0
1676927047.4228601,-39.0625,-58.10546875,-35.64453125,-61.03515625,0.0
1676927047.4266162,-34.1796875,-54.19921875,-24.90234375,-40.52734375,0.0
1676927047.4303725,-15.13671875,-63.4765625,-37.59765625,-37.59765625,0.0
1676927047.4341288,-38.0859375,-63.96484375,-40.52734375,-47.36328125,0.0
1676927047.4378848,-47.8515625,-59.08203125,-30.2734375,-34.66796875,0.0
1676927047.441641,-67.3828125,-61.5234375,-41.015625,-51.26953125,0.0
1676927047.4453971,-47.8515625,-60.546875,-49.8046875,-63.96484375,0.0
1676927047.4491534,-16.11328125,-58.10546875,-40.52734375,-42.48046875,0.0
1676927047.4529095,-19.53125,-58.59375,-30.2734375,-21.97265625,0.0
1676927047.4566658,-31.73828125,-56.15234375,-32.71484375,-38.0859375,0.0
1676927047.4604805,-38.0859375,-58.10546875,-46.38671875,-70.3125,0.0
1676927047.4642951,-19.53125,-59.5703125,-45.8984375,-64.94140625,0.0
1676927047.4681096,-10.7421875,-56.15234375,-41.50390625,-45.41015625,0.0
1676927047.4719243,-37.59765625,-56.15234375,-50.78125,-65.4296875,0.0
1676927047.475739,-30.76171875,-49.8046875,-45.41015625,-90.33203125,0.0
1676927047.4795537,-26.85546875,-51.26953125,-42.96875,-93.75,0.0
1676927047.4833684,-47.8515625,-57.12890625,-46.38671875,-74.21875,0.0
1676927047.487183,-41.015625,-60.05859375,-52.734375,-78.125,0.0
1676927047.4909978,-42.96875,-54.19921875,-53.7109375,-110.83984375,0.0
1676927047.4948123,-41.015625,-41.9921875,-45.41015625,-103.02734375,0.0
1676927047.498627,-18.06640625,-44.43359375,-46.38671875,-78.61328125,0.0
1676927047.5024416,-7.8125,-51.7578125,-48.33984375,-62.98828125,0.0
1676927047.506091,-29.78515625,-49.8046875,-42.96875,-73.2421875,0.0
1676927047.5097404,-32.71484375,-46.875,-33.69140625,-66.40625,0.0
1676927047.5133896,-12.20703125,-45.8984375,-28.80859375,-54.19921875,0.0
1676927047.517039,6.8359375,-39.0625,-34.66796875,-53.22265625,0.0
1676927047.5206885,1.46484375,-41.015625,-31.25,-46.875,0.0
1676927047.5243378,-20.99609375,-45.41015625,-21.484375,-44.43359375,0.0
1676927047.527987,-26.85546875,-45.41015625,-22.4609375,-34.66796875,0.0
1676927047.5316365,-6.34765625,-47.8515625,-32.2265625,-32.71484375,0.0
1676927047.535286,0.0,-41.50390625,-37.109375,-34.1796875,0.0
1676927047.5389352,-14.6484375,-41.015625,-34.66796875,-33.203125,0.0
1676927047.5425844,5.37109375,-46.875,-33.69140625,-52.734375,0.0
1676927047.546234,-4.39453125,-54.19921875,-35.15625,-69.3359375,0.0
1676927047.5512376,-26.85546875,-51.26953125,-34.1796875,-59.08203125,0.0
1676927047.5562415,-28.3203125,-52.734375,-36.1328125,-60.05859375,0.0
1676927047.5612454,-32.71484375,-53.7109375,-31.73828125,-72.75390625,0.0
1676927047.5662491,-5.37109375,-47.36328125,-31.73828125,-62.5,0.0
1676927047.5712528,-8.7890625,-50.29296875,-35.64453125,-54.19921875,0.0
1676927047.5762568,-39.0625,-62.01171875,-34.66796875,-65.4296875,0.0
1676927047.5812607,-40.0390625,-62.01171875,-40.0390625,-64.453125,0.0
1676927047.5862644,-18.06640625,-54.6875,-45.8984375,-55.17578125,0.0
1676927047.591268,0.48828125,-51.26953125,-38.57421875,-39.55078125,0.0
1676927047.596272,-14.6484375,-42.48046875,-18.5546875,-28.3203125,0.0
1676927047.601276,-20.99609375,-39.55078125,-27.83203125,-56.15234375,0.0
1676927047.6062796,10.25390625,-41.015625,-36.1328125,-59.08203125,0.0
1676927047.6100254,17.08984375,-40.0390625,-26.85546875,-32.2265625,0.0
1676927047.6137714,-15.13671875,-45.8984375,-30.2734375,-28.80859375,0.0
1676927047.6175172,-28.80859375,-52.24609375,-35.64453125,-56.15234375,0.0
1676927047.621263,-26.85546875,-57.6171875,-40.0390625,-49.31640625,0.0
1676927047.625009,3.41796875,-51.26953125,-38.57421875,-19.04296875,0.0
1676927047.6287549,-2.44140625,-46.38671875,-34.1796875,-33.203125,0.0
1676927047.6325006,-39.55078125,-52.24609375,-43.45703125,-51.26953125,0.0
1676927047.6362467,-27.34375,-56.15234375,-45.41015625,-60.05859375,0.0
1676927047.6399925,-10.25390625,-50.78125,-26.3671875,-25.87890625,0.0
1676927047.6437383,-34.1796875,-57.12890625,-28.80859375,7.8125,0.0
1676927047.6474843,-46.38671875,-69.3359375,-43.9453125,-25.390625,0.0
1676927047.65123,-20.99609375,-62.01171875,-41.9921875,-53.22265625,2.0
1676927047.6550202,0.48828125,-57.6171875,-40.0390625,-45.8984375,0.0
1676927047.6588104,-26.85546875,-60.05859375,-38.57421875,-35.64453125,0.0
1676927047.6626005,-63.4765625,-63.4765625,-40.0390625,-52.734375,0.0
1676927047.6663907,-40.0390625,-54.6875,-41.50390625,-65.4296875,0.0
1676927047.6701808,-13.18359375,-46.38671875,-41.015625,-47.36328125,0.0
1676927047.6739712,-12.6953125,-49.31640625,-39.0625,-35.15625,0.0
1676927047.6777613,-20.5078125,-54.19921875,-46.38671875,-51.26953125,0.0
1676927047.6815515,-36.1328125,-50.78125,-48.33984375,-60.546875,0.0
1676927047.6853416,-52.734375,-43.45703125,-39.55078125,-45.8984375,0.0
1676927047.6891317,-47.36328125,-45.8984375,-42.48046875,-52.24609375,0.0
1676927047.6929219,-37.109375,-46.875,-50.29296875,-54.19921875,0.0
1676927047.696712,-57.6171875,-39.0625,-45.8984375,-59.5703125,0.0
1676927047.7004626,-47.8515625,-37.109375,-41.015625,-74.21875,0.0
1676927047.7042134,-20.99609375,-45.41015625,-49.31640625,-65.91796875,0.0
1676927047.707964,-22.4609375,-44.921875,-53.22265625,-47.36328125,0.0
1676927047.7117147,-43.9453125,-40.0390625,-51.7578125,-54.19921875,0.0
1676927047.7154653,-55.17578125,-40.52734375,-51.26953125,-66.40625,0.0
1676927047.7192159,-31.25,-41.015625,-48.33984375,-45.41015625,0.0
1676927047.7229667,-17.08984375,-41.9921875,-44.43359375,-37.109375,0.0
1676927047.7267172,-32.71484375,-41.015625,-38.0859375,-33.69140625,0.0
1676927047.730468,-55.17578125,-44.43359375,-44.43359375,-38.57421875,0.0
1676927047.7342186,-43.45703125,-52.24609375,-63.96484375,-83.49609375,0.0
1676927047.7379694,-22.4609375,-46.875,-55.6640625,-63.4765625,0.0
1676927047.74172,-25.390625,-44.921875,-48.828125,-37.109375,0.0
1676927047.7454355,-38.57421875,-48.828125,-59.5703125,-61.5234375,0.0
1676927047.749151,-28.3203125,-46.38671875,-57.6171875,-77.1484375,0.0
1676927047.7528665,-21.97265625,-41.9921875,-50.78125,-65.91796875,0.0
1676927047.756582,-51.26953125,-42.48046875,-46.875,-29.296875,0.0
1676927047.7602975,-73.73046875,-49.31640625,-49.31640625,-41.9921875,0.0
1676927047.7640128,-55.6640625,-42.48046875,-44.43359375,-62.01171875,0.0
1676927047.7677283,-35.15625,-39.0625,-39.0625,-35.15625,0.0
1676927047.7714438,-37.109375,-38.57421875,-34.1796875,-24.90234375,0.0
1676927047.7751594,-49.31640625,-46.38671875,-41.9921875,-51.7578125,0.0
1676927047.7788749,-33.69140625,-50.78125,-46.875,-62.98828125,0.0
1676927047.7825904,-28.3203125,-46.875,-27.83203125,-32.71484375,0.0
1676927047.786306,-39.55078125,-49.8046875,-28.3203125,-24.4140625,0.0
1676927047.7900424,-41.9921875,-52.24609375,-44.921875,-61.03515625,0.0
1676927047.793779,-35.15625,-49.31640625,-49.8046875,-86.42578125,0.0
1676927047.7975154,-30.76171875,-45.41015625,-41.015625,-68.84765625,0.0
1676927047.801252,-28.80859375,-45.41015625,-36.62109375,-47.8515625,0.0
1676927047.8049884,-11.71875,-45.8984375,-36.62109375,-46.875,0.0
1676927047.8087249,-6.8359375,-44.43359375,-36.62109375,-48.828125,0.0
1676927047.8124616,-20.01953125,-40.52734375,-32.2265625,-47.8515625,0.0
1676927047.816198,-14.6484375,-43.45703125,-27.83203125,-22.94921875,0.0
1676927047.8199346,-4.39453125,-50.29296875,-39.55078125,-30.2734375,0.0
1676927047.823671,-20.01953125,-43.45703125,-35.64453125,-73.73046875,0.0
1676927047.8274076,-30.76171875,-34.1796875,-26.85546875,-72.75390625,0.0
1676927047.831144,-19.53125,-33.69140625,-33.69140625,-61.5234375,0.0
1676927047.8348927,-5.859375,-35.15625,-42.48046875,-53.22265625,0.0
1676927047.8386412,-0.9765625,-37.109375,-37.109375,-49.31640625,0.0
1676927047.8423898,-11.71875,-35.64453125,-25.87890625,-48.33984375,0.0
1676927047.8461382,-25.87890625,-33.203125,-24.4140625,-47.36328125,0.0
1676927047.849887,-17.08984375,-34.66796875,-23.4375,-41.50390625,0.0
1676927047.8536353,0.0,-32.2265625,-20.5078125,-23.92578125,0.0
1676927047.857384,-2.9296875,-30.2734375,-15.13671875,-33.203125,0.0
1676927047.8611326,-17.08984375,-33.203125,-17.578125,-39.55078125,0.0
1676927047.864881,-21.484375,-35.64453125,-19.04296875,-46.38671875,0.0
1676927047.8686297,-16.6015625,-37.59765625,-11.71875,-31.73828125,0.0
1676927047.872378,-21.484375,-38.57421875,-11.23046875,-29.78515625,0.0
1676927047.8761268,-13.18359375,-35.64453125,-15.625,-48.33984375,0.0
1676927047.881129,2.44140625,-30.2734375,-15.13671875,-45.8984375,0.0
1676927047.886131,-25.87890625,-35.64453125,-4.8828125,-37.59765625,0.0
1676927047.8911333,-49.8046875,-33.69140625,-1.46484375,-53.7109375,0.0
1676927047.8961353,-52.734375,-31.25,-10.7421875,-83.0078125,0.0
1676927047.9011376,-39.55078125,-35.64453125,-12.6953125,-74.70703125,0.0
1676927047.9061399,-20.5078125,-19.53125,-0.9765625,-33.203125,0.0
1676927047.9111419,-28.3203125,-21.97265625,-11.23046875,-45.8984375,0.0
1676927047.9161441,-44.43359375,-31.25,-23.4375,-92.7734375,0.0
1676927047.9211462,-23.4375,-26.85546875,-12.6953125,-70.80078125,0.0
1676927047.9261484,-7.8125,-33.69140625,-9.765625,-29.78515625,0.0
1676927047.9311504,-21.484375,-36.62109375,-19.53125,-62.5,0.0
1676927047.9361527,-5.859375,-36.1328125,-31.25,-81.0546875,0.0
1676927047.939968,-1.953125,-36.1328125,-25.390625,-65.91796875,0.0
1676927047.9437835,-41.015625,-40.52734375,-19.04296875,-56.15234375,0.0
1676927047.947599,-49.31640625,-44.921875,-24.4140625,-57.12890625,0.0
1676927047.9514143,-28.3203125,-44.921875,-25.390625,-74.70703125,0.0
1676927047.9552298,-18.5546875,-47.36328125,-21.484375,-77.1484375,0.0
1676927047.959045,-28.3203125,-41.9921875,-22.4609375,-79.1015625,0.0
1676927047.9628603,-31.25,-44.43359375,-25.87890625,-78.61328125,0.0
1676927047.9666758,-41.015625,-52.734375,-29.78515625,-84.47265625,0.0
1676927047.9704912,-36.62109375,-47.8515625,-23.92578125,-89.35546875,0.0
1676927047.9743066,-37.59765625,-47.36328125,-16.6015625,-79.58984375,0.0
1676927047.978122,-39.55078125,-54.6875,-29.296875,-71.77734375,0.0
1676927047.9819374,-31.25,-44.43359375,-32.2265625,-82.03125,0.0
1676927047.9856658,-40.52734375,-32.71484375,-19.53125,-89.35546875,0.0
1676927047.9893942,-34.66796875,-28.80859375,-15.625,-92.28515625,0.0
1676927047.9931228,-42.96875,-34.1796875,-18.06640625,-83.0078125,0.0
1676927047.9968512,-38.0859375,-41.9921875,-25.390625,-66.40625,0.0
1676927048.0005796,-41.9921875,-34.1796875,-27.34375,-56.15234375,0.0
1676927048.0043082,-63.4765625,-34.1796875,-16.11328125,-66.89453125,0.0
1676927048.0080366,-41.50390625,-41.015625,-17.578125,-80.078125,0.0
1676927048.011765,-27.83203125,-40.0390625,-23.92578125,-54.6875,0.0
1676927048.0154934,-30.2734375,-31.25,-12.20703125,-48.828125,0.0
1676927048.0192218,-21.97265625,-33.69140625,-10.25390625,-58.10546875,0.0
1676927048.0229504,-6.34765625,-47.8515625,-25.87890625,-41.015625,0.0
1676927048.0266788,-2.9296875,-39.55078125,-16.6015625,-18.5546875,0.0
1676927048.0316792,-30.76171875,-36.1328125,-2.9296875,-16.11328125,0.0
1676927048.0366795,-38.57421875,-40.0390625,-1.953125,-35.15625,0.0
1676927048.0416799,-16.6015625,-41.015625,-5.859375,-34.1796875,0.0
1676927048.0466802,-16.11328125,-40.0390625,-5.37109375,-9.27734375,0.0
1676927048.0516806,-21.97265625,-40.52734375,-3.90625,-16.11328125,0.0
1676927048.0566812,-24.90234375,-46.38671875,1.46484375,-20.99609375,0.0
1676927048.0616815,-34.66796875,-46.875,1.953125,-8.7890625,0.0
1676927048.0666819,-37.109375,-48.828125,-1.953125,-13.671875,0.0
1676927048.0716822,-23.92578125,-48.33984375,5.859375,-15.625,0.0
1676927048.0766826,-45.8984375,-50.78125,0.48828125,-33.69140625,0.0
1676927048.081683,-47.8515625,-51.26953125,-9.27734375,-51.26953125,0.0
1676927048.0866833,-28.3203125,-38.57421875,-2.9296875,-27.83203125,0.0
1676927048.0891862,-20.99609375,-35.64453125,-0.9765625,-16.6015625,0.0
1676927048.091689,-23.92578125,-37.109375,-3.90625,-27.34375,0.0
1676927048.094192,-7.8125,-35.64453125,-4.8828125,-40.0390625,0.0
1676927048.0966952,6.8359375,-33.69140625,0.9765625,-28.80859375,0.0
1676927048.099198,1.46484375,-37.109375,-0.48828125,2.9296875,0.0
1676927048.101701,-6.34765625,-38.57421875,0.48828125,17.578125,0.0
1676927048.104204,-23.92578125,-43.45703125,-2.9296875,-7.8125,0.0
1676927048.1067069,-10.25390625,-37.59765625,-1.46484375,-5.859375,0.0
1676927048.10921,-3.41796875,-34.1796875,7.32421875,2.9296875,0.0
1676927048.111713,-24.90234375,-40.0390625,4.8828125,-19.53125,0.0
1676927048.1142159,-36.62109375,-41.015625,0.0,-41.50390625,0.0
1676927048.1167188,-16.11328125,-31.73828125,9.27734375,-27.34375,0.0
1676927048.1205387,-4.8828125,-31.25,10.25390625,-17.578125,0.0
1676927048.124359,-14.16015625,-37.59765625,2.44140625,-33.69140625,0.0
1676927048.128179,-28.80859375,-36.62109375,14.16015625,-34.1796875,0.0
1676927048.131999,-34.1796875,-39.55078125,19.53125,-35.64453125,0.0
1676927048.135819,-25.87890625,-35.64453125,16.6015625,-39.0625,0.0
1676927048.1396391,-8.30078125,-30.2734375,13.671875,-14.16015625,0.0
1676927048.1434593,-3.41796875,-30.76171875,12.6953125,-34.1796875,0.0
1676927048.1472793,-16.11328125,-33.203125,16.11328125,-54.6875,0.0
1676927048.1510992,-31.25,-39.55078125,8.7890625,-32.71484375,0.0
1676927048.1549194,-14.6484375,-41.50390625,13.18359375,-17.578125,0.0
1676927048.1587396,-18.06640625,-38.57421875,19.53125,-17.578125,0.0
1676927048.1625595,-45.41015625,-37.59765625,17.578125,-33.203125,0.0
1676927048.1663332,-33.69140625,-38.0859375,13.671875,-19.53125,0.0
1676927048.1701071,-11.71875,-29.78515625,13.18359375,-9.27734375,0.0
1676927048.173881,-21.484375,-21.97265625,23.92578125,-8.30078125,0.0
1676927048.1776547,-20.99609375,-22.4609375,29.296875,-6.8359375,0.0
1676927048.1814284,1.953125,-21.97265625,23.92578125,-22.4609375,0.0
1676927048.1852024,18.5546875,-20.5078125,29.296875,9.765625,0.0
1676927048.1889763,6.8359375,-19.53125,38.57421875,23.4375,0.0
1676927048.19275,-51.7578125,-26.85546875,30.2734375,-28.3203125,0.0
1676927048.1965237,-67.3828125,-35.64453125,19.04296875,-53.7109375,0.0
1676927048.2002976,-29.296875,-28.80859375,21.97265625,-42.96875,0.0
1676927048.2040715,-27.34375,-32.71484375,25.390625,-17.08984375,0.0
1676927048.2078452,-54.19921875,-36.62109375,29.296875,-61.5234375,0.0
1676927048.2114859,-40.0390625,-27.83203125,24.90234375,-97.65625,0.0
1676927048.2151265,-32.71484375,-24.90234375,20.01953125,-63.96484375,0.0
1676927048.2187672,-35.64453125,-27.83203125,19.04296875,-41.9921875,0.0
1676927048.2224078,-28.3203125,-30.2734375,12.20703125,-54.19921875,0.0
1676927048.2260485,-54.6875,-30.76171875,13.18359375,-72.265625,0.0
1676927048.2296891,-62.5,-30.2734375,14.16015625,-61.5234375,0.0
1676927048.2333298,-40.0390625,-25.390625,13.671875,-30.2734375,0.0
1676927048.2369704,-42.48046875,-28.80859375,10.7421875,-35.64453125,0.0
1676927048.240611,-59.08203125,-33.69140625,4.8828125,-83.984375,0.0
1676927048.2442517,-36.62109375,-27.83203125,9.765625,-88.8671875,0.0
1676927048.2478924,-6.8359375,-26.85546875,15.13671875,-66.89453125,0.0
1676927048.251533,-8.7890625,-33.203125,21.484375,-53.7109375,0.0
1676927048.2565534,-40.52734375,-42.48046875,19.04296875,-61.5234375,0.0
1676927048.2615738,-39.0625,-34.66796875,22.94921875,-59.08203125,0.0
1676927048.2665944,-18.5546875,-29.296875,19.04296875,-41.015625,0.0
1676927048.2716148,-15.625,-36.1328125,7.32421875,-57.12890625,0.0
1676927048.2766352,-12.6953125,-37.109375,15.13671875,-58.10546875,0.0
1676927048.2816558,-20.99609375,-28.80859375,31.25,-44.43359375,0.0
1676927048.2866762,-13.18359375,-32.2265625,32.2265625,-55.17578125,0.0
1676927048.2916965,-13.18359375,-43.45703125,26.3671875,-49.8046875,0.0
1676927048.296717,-33.69140625,-45.41015625,21.97265625,-42.96875,0.0
1676927048.3017373,-30.2734375,-36.1328125,21.484375,-34.66796875,0.0
1676927048.306758,-11.23046875,-41.015625,16.6015625,-35.15625,0.0
1676927048.3117783,-7.32421875,-47.36328125,7.32421875,-38.57421875,0.0
1676927048.3155234,-31.73828125,-38.0859375,12.20703125,-20.99609375,0.0
1676927048.3192685,-50.29296875,-44.43359375,19.04296875,-33.69140625,0.0
1676927048.3230135,-41.9921875,-41.9921875,16.6015625,-61.03515625,0.0
1676927048.3267586,-25.390625,-33.69140625,3.90625,-72.75390625,0.0
1676927048.3305037,-22.94921875,-33.203125,11.23046875,-46.875,0.0
1676927048.3342488,-38.0859375,-37.59765625,16.6015625,-34.1796875,0.0
1676927048.3379939,-41.50390625,-40.0390625,11.23046875,-62.01171875,0.0
1676927048.341739,-38.0859375,-38.0859375,15.13671875,-77.1484375,0.0
1676927048.345484,-18.06640625,-38.0859375,22.94921875,-42.48046875,0.0
1676927048.349229,-23.92578125,-35.15625,31.25,-21.484375,0.0
1676927048.3529742,-37.59765625,-42.48046875,29.296875,-43.9453125,0.0
1676927048.3567193,-15.13671875,-47.8515625,24.4140625,-54.6875,0.0
1676927048.3604228,-11.71875,-41.50390625,23.92578125,-38.57421875,0.0
1676927048.3641264,-25.390625,-43.45703125,19.53125,-33.69140625,0.0
1676927048.36783,-32.2265625,-47.8515625,18.5546875,-63.4765625,0.0
1676927048.3715336,-21.97265625,-43.9453125,21.484375,-60.546875,0.0
1676927048.3752372,-25.87890625,-41.015625,27.83203125,-32.71484375,0.0
1676927048.3789406,-30.76171875,-41.015625,25.390625,-24.4140625,0.0
1676927048.3826442,-28.80859375,-39.0625,17.08984375,-43.9453125,0.0
1676927048.3863478,-26.3671875,-40.52734375,17.08984375,-59.08203125,0.0
1676927048.3900514,-11.71875,-38.0859375,30.2734375,-39.0625,0.0
1676927048.393755,-7.8125,-36.1328125,30.76171875,-18.5546875,0.0
1676927048.3974586,10.25390625,-40.0390625,15.13671875,-50.78125,0.0
1676927048.4011621,-6.34765625,-34.66796875,19.04296875,-56.15234375,0.0
1676927048.4049115,-34.1796875,-31.25,22.4609375,-41.015625,0.0
1676927048.408661,-26.85546875,-40.52734375,12.6953125,-47.36328125,0.0
1676927048.41241,-45.8984375,-41.9921875,13.671875,-50.29296875,0.0
1676927048.4161594,-53.22265625,-38.0859375,13.18359375,-52.734375,0.0
1676927048.4199088,-23.92578125,-38.57421875,13.671875,-38.0859375,0.0
1676927048.423658,-18.5546875,-41.50390625,21.97265625,-33.69140625,0.0
1676927048.4274073,-41.50390625,-45.8984375,19.04296875,-37.59765625,0.0
1676927048.4311566,-43.9453125,-40.52734375,21.97265625,-62.5,0.0
1676927048.434906,-40.0390625,-36.1328125,27.83203125,-62.5,0.0
1676927048.4386554,-22.4609375,-42.48046875,14.6484375,-42.96875,0.0
1676927048.4424045,-32.2265625,-46.38671875,12.6953125,-35.64453125,0.0
1676927048.4461539,-79.1015625,-46.875,20.01953125,-49.31640625,0.0
1676927048.4511564,-62.5,-46.875,19.04296875,-61.03515625,0.0
1676927048.456159,-43.9453125,-47.36328125,18.5546875,-58.10546875,0.0
1676927048.4611616,-31.25,-40.0390625,23.92578125,-35.15625,0.0
1676927048.4661644,-19.04296875,-34.1796875,27.83203125,-31.25,0.0
1676927048.4711668,-28.80859375,-40.0390625,34.66796875,-41.50390625,0.0
1676927048.4761696,-24.90234375,-38.57421875,36.62109375,-39.55078125,0.0
1676927048.481172,-33.203125,-39.55078125,31.25,-36.62109375,0.0
1676927048.4861746,-21.97265625,-38.0859375,36.1328125,-19.53125,0.0
1676927048.4911773,-33.69140625,-41.9921875,35.64453125,-26.3671875,0.0
1676927048.4961798,-40.52734375,-47.8515625,22.4609375,-50.29296875,0.0
1676927048.5011826,-20.99609375,-44.43359375,29.78515625,-39.55078125,0.0
1676927048.506185,-31.25,-45.8984375,41.9921875,-33.69140625,0.0
1676927048.509934,-55.17578125,-48.33984375,45.8984375,-56.15234375,0.0
1676927048.513683,-20.99609375,-44.921875,51.26953125,-57.12890625,0.0
1676927048.517432,7.8125,-39.55078125,56.15234375,-46.875,0.0
1676927048.5211809,-16.6015625,-40.0390625,54.6875,-36.1328125,0.0
1676927048.52493,-29.296875,-40.0390625,53.7109375,-25.390625,0.0
1676927048.528679,-25.390625,-41.50390625,62.5,-20.01953125,0.0
1676927048.5324278,-4.8828125,-37.59765625,64.453125,-19.04296875,0.0
1676927048.536177,0.48828125,-35.64453125,60.05859375,-17.578125,0.0
1676927048.5399258,-13.18359375,-41.015625,55.17578125,-34.66796875,0.0
1676927048.5436747,-24.4140625,-41.9921875,53.22265625,-39.55078125,0.0
1676927048.5474238,-5.859375,-38.0859375,55.17578125,-33.203125,0.0
1676927048.5511727,-1.953125,-32.2265625,64.453125,-20.99609375,1.0
1676927048.553768,-22.94921875,-43.9453125,49.31640625,-27.83203125,0.0
1676927048.5563629,-20.5078125,-41.50390625,29.78515625,-46.875,0.0
1676927048.558958,2.44140625,-28.3203125,43.45703125,-47.36328125,0.0
1676927048.561553,-0.48828125,-33.203125,52.24609375,-43.45703125,0.0
1676927048.5641482,-20.5078125,-34.66796875,53.7109375,-22.4609375,0.0
1676927048.5667434,-16.6015625,-32.71484375,64.94140625,-20.01953125,0.0
1676927048.5693383,-3.90625,-32.71484375,70.80078125,-29.296875,0.0
1676927048.5719335,-17.08984375,-36.1328125,61.5234375,-31.73828125,0.0
1676927048.5745285,-14.6484375,-39.55078125,95.21484375,-30.2734375,0.0
1676927048.5771236,-9.765625,-38.0859375,128.41796875,-17.08984375,0.0
1676927048.5797186,-16.11328125,-31.73828125,118.1640625,-27.83203125,0.0
1676927048.5823138,-17.08984375,-30.2734375,112.3046875,-51.7578125,0.0
1676927048.5860124,-16.6015625,-38.57421875,96.19140625,-50.78125,0.0
1676927048.5897107,-18.5546875,-41.015625,93.26171875,-28.80859375,0.0
1676927048.593409,-7.8125,-39.0625,87.890625,-27.34375,0.0
1676927048.5971076,-4.8828125,-41.9921875,79.58984375,-41.50390625,0.0
1676927048.6008062,-9.27734375,-45.8984375,77.63671875,-34.66796875,0.0
1676927048.6045046,-20.01953125,-39.0625,79.1015625,-13.671875,0.0
1676927048.608203,-49.8046875,-38.0859375,83.0078125,-20.5078125,0.0
1676927048.6119015,-33.203125,-44.921875,77.63671875,-55.17578125,0.0
1676927048.6156,-25.390625,-49.31640625,72.75390625,-39.55078125,0.0
1676927048.6192985,-37.109375,-51.26953125,76.171875,-32.2265625,0.0
1676927048.6229968,-46.38671875,-45.41015625,79.1015625,-46.875,0.0
1676927048.6266954,-34.1796875,-38.0859375,84.9609375,-51.26953125,0.0
1676927048.6305697,-29.78515625,-36.62109375,82.03125,-72.75390625,0.0
1676927048.6344442,-58.59375,-30.2734375,85.44921875,-51.26953125,0.0
1676927048.6383185,-58.10546875,-30.76171875,90.33203125,-37.59765625,0.0
1676927048.6421928,-65.4296875,-38.57421875,92.28515625,-57.12890625,0.0
1676927048.6460674,-53.7109375,-35.15625,104.98046875,-57.12890625,0.0
1676927048.6499417,-35.15625,-35.64453125,124.0234375,-50.78125,0.0
1676927048.653816,-55.6640625,-34.1796875,118.1640625,-42.96875,0.0
1676927048.6576905,-66.89453125,-42.48046875,94.23828125,-67.87109375,0.0
1676927048.6615648,-37.109375,-41.9921875,102.05078125,-70.80078125,0.0
1676927048.6654391,-38.0859375,-39.0625,111.81640625,-55.17578125,0.0
1676927048.6693137,-52.734375,-37.109375,104.00390625,-46.875,0.0
1676927048.673188,-48.33984375,-33.69140625,98.6328125,-73.2421875,0.0
1676927048.6780188,-53.7109375,-33.203125,104.98046875,-84.9609375,0.0
1676927048.68285,-39.55078125,-37.59765625,111.81640625,-45.41015625,0.0
1676927048.6876807,-35.15625,-39.0625,107.91015625,-45.8984375,0.0
1676927048.6925118,-53.7109375,-36.62109375,96.6796875,-78.125,0.0
1676927048.6973426,-45.41015625,-39.0625,86.42578125,-91.796875,0.0
1676927048.7021737,-41.9921875,-32.2265625,93.75,-78.125,0.0
1676927048.7070045,-45.41015625,-38.0859375,79.58984375,-68.84765625,0.0
1676927048.7118354,-41.9921875,-45.41015625,62.01171875,-85.9375,0.0
1676927048.7166665,-36.1328125,-35.15625,67.87109375,-83.0078125,0.0
1676927048.7214973,-30.2734375,-35.15625,61.5234375,-70.80078125,0.0
1676927048.7263284,-27.34375,-38.57421875,56.640625,-77.63671875,0.0
1676927048.7311592,-42.96875,-37.109375,52.24609375,-78.125,0.0
1676927048.7349122,-39.55078125,-34.1796875,48.828125,-69.82421875,0.0
1676927048.7386653,-34.66796875,-35.64453125,52.734375,-72.265625,0.0
1676927048.7424183,-43.45703125,-37.59765625,45.41015625,-62.5,0.0
1676927048.7461712,-29.296875,-34.66796875,36.62109375,-52.734375,0.0
1676927048.7499244,-36.62109375,-35.64453125,46.38671875,-56.640625,0.0
1676927048.7536774,-29.78515625,-34.66796875,51.26953125,-50.29296875,0.0
1676927048.7574303,-11.71875,-35.15625,41.015625,-32.71484375,0.0
1676927048.7611835,-22.4609375,-35.15625,40.52734375,-13.18359375,0.0
1676927048.7649364,-31.25,-26.85546875,48.828125,-21.484375,0.0
1676927048.7686894,-44.921875,-27.83203125,44.921875,-36.1328125,0.0
1676927048.7724426,-45.41015625,-35.15625,33.203125,-40.52734375,0.0
1676927048.7761955,-22.94921875,-23.4375,39.55078125,-25.390625,0.0
1676927048.7799394,-27.83203125,-19.04296875,42.96875,-21.97265625,0.0
1676927048.7836833,-28.3203125,-30.2734375,42.48046875,-31.25,0.0
1676927048.7874274,-16.11328125,-31.73828125,37.59765625,-23.4375,0.0
1676927048.7911713,-3.41796875,-28.3203125,36.62109375,-19.53125,0.0
1676927048.7949152,-22.94921875,-32.71484375,44.921875,-25.87890625,0.0
1676927048.798659,-39.0625,-32.2265625,40.52734375,-29.78515625,0.0
1676927048.802403,-9.27734375,-34.1796875,30.2734375,-36.62109375,0.0
1676927048.8061469,-0.48828125,-27.83203125,35.15625,-21.484375,0.0
1676927048.8098907,-12.6953125,-23.4375,50.78125,-1.953125,0.0
1676927048.8136349,-23.4375,-36.1328125,40.0390625,-16.6015625,0.0
1676927048.8173788,-26.3671875,-33.69140625,25.390625,-32.2265625,0.0
1676927048.8211226,-6.34765625,-26.3671875,36.1328125,-28.80859375,0.0
1676927048.8248692,7.32421875,-29.296875,34.66796875,-25.390625,0.0
1676927048.828616,0.48828125,-28.3203125,22.94921875,-39.0625,0.0
1676927048.8323624,-0.9765625,-25.87890625,20.01953125,-51.7578125,0.0
1676927048.836109,0.9765625,-26.85546875,20.01953125,-46.38671875,0.0
1676927048.8398557,-0.9765625,-23.4375,15.625,-28.80859375,0.0
1676927048.8436022,-12.20703125,-22.4609375,12.6953125,-16.6015625,0.0
1676927048.8473487,-21.484375,-26.85546875,5.859375,-41.50390625,0.0
1676927048.8510954,-26.85546875,-30.76171875,3.90625,-29.296875,0.0
1676927048.854842,-12.20703125,-34.1796875,4.8828125,-6.34765625,0.0
1676927048.8585885,-6.8359375,-35.64453125,-0.9765625,-24.90234375,0.0
1676927048.8623352,-28.3203125,-31.73828125,-2.9296875,-40.0390625,0.0
1676927048.8660817,-42.48046875,-37.109375,0.0,-51.26953125,0.0
1676927048.8699315,-18.5546875,-38.57421875,-2.44140625,-43.9453125,0.0
1676927048.8737812,-17.08984375,-36.1328125,-7.8125,-34.66796875,0.0
1676927048.8776307,-28.80859375,-38.0859375,-1.46484375,-26.85546875,0.0
1676927048.8814805,0.0,-31.25,1.46484375,-22.94921875,0.0
1676927048.8853302,0.0,-30.76171875,0.48828125,-14.6484375,0.0
1676927048.88918,-12.20703125,-38.57421875,3.41796875,2.44140625,0.0
1676927048.8930297,-25.87890625,-34.1796875,1.46484375,-10.25390625,0.0
1676927048.8968794,-37.59765625,-26.85546875,4.8828125,-17.578125,0.0
1676927048.9007292,-18.5546875,-41.50390625,-4.8828125,-24.90234375,0.0
1676927048.9045787,-21.97265625,-46.38671875,-16.11328125,-33.69140625,0.0
1676927048.9084284,-43.9453125,-29.78515625,-11.23046875,-28.3203125,0.0
1676927048.9122782,-23.4375,-25.87890625,-7.32421875,-18.5546875,0.0
1676927048.9159784,-13.671875,-35.64453125,-12.20703125,-16.6015625,0.0
1676927048.9196787,-9.27734375,-32.2265625,-20.5078125,-21.484375,0.0
1676927048.9233787,-1.953125,-20.5078125,-11.71875,-7.32421875,0.0
1676927048.927079,-28.80859375,-26.3671875,-6.34765625,-23.4375,0.0
1676927048.9307792,-29.78515625,-32.2265625,-12.6953125,-43.9453125,0.0
1676927048.9344792,-7.8125,-34.66796875,-8.30078125,-29.296875,0.0
1676927048.9381795,-14.16015625,-28.3203125,-3.41796875,-3.41796875,0.0
1676927048.9418797,-30.2734375,-24.4140625,-4.8828125,-2.44140625,0.0
1676927048.94558,-31.25,-35.15625,-10.7421875,-32.2265625,0.0
1676927048.9492803,-26.85546875,-37.59765625,-13.18359375,-63.96484375,0.0
1676927048.9529803,-20.5078125,-32.71484375,-8.7890625,-40.52734375,0.0
1676927048.9566805,-37.59765625,-33.203125,-15.625,-30.76171875,0.0
1676927048.9604397,-48.828125,-37.59765625,-31.73828125,-61.03515625,0.0
1676927048.9641988,-18.5546875,-35.64453125,-25.87890625,-42.96875,0.0
1676927048.967958,-38.0859375,-39.55078125,-19.04296875,-23.92578125,0.0
1676927048.971717,-52.24609375,-39.55078125,-24.4140625,-32.2265625,0.0
1676927048.975476,-37.109375,-34.1796875,-19.53125,-44.921875,0.0
1676927048.9792352,-6.8359375,-25.87890625,-19.53125,-47.36328125,0.0
1676927048.9829943,-4.39453125,-21.97265625,-18.06640625,-19.04296875,0.0
1676927048.9867535,-30.2734375,-30.2734375,-24.4140625,-23.4375,0.0
1676927048.9905124,-46.875,-38.0859375,-34.66796875,-57.6171875,0.0
1676927048.9942715,-18.06640625,-29.296875,-25.390625,-54.6875,0.0
1676927048.9980307,1.46484375,-21.484375,-20.01953125,-31.25,0.0
1676927049.0017898,7.8125,-22.4609375,-18.06640625,6.8359375,0.0
1676927049.0055444,13.18359375,-23.4375,-14.6484375,-13.18359375,0.0
1676927049.0092993,-11.71875,-31.25,-14.16015625,-44.921875,0.0
1676927049.013054,-4.39453125,-32.71484375,-17.578125,-34.1796875,0.0
1676927049.0168087,6.8359375,-28.80859375,-25.87890625,-20.99609375,0.0
1676927049.0205634,-1.953125,-27.83203125,-27.34375,-13.671875,0.0
1676927049.0243182,-5.859375,-21.484375,-20.01953125,-11.71875,0.0
1676927049.0280728,-7.32421875,-25.390625,-14.6484375,-31.25,0.0
1676927049.0318274,-7.8125,-28.80859375,-8.30078125,-38.0859375,0.0
1676927049.0355823,-0.9765625,-22.4609375,4.39453125,-18.5546875,0.0
1676927049.039337,1.953125,-21.97265625,14.6484375,-14.6484375,0.0
1676927049.0430918,19.04296875,-19.04296875,20.99609375,-8.30078125,0.0
1676927049.0468464,5.859375,-22.4609375,11.71875,-5.37109375,0.0
1676927049.054318,-30.76171875,-25.390625,15.13671875,-2.44140625,0.0
1676927049.0617898,-23.4375,-21.97265625,12.20703125,-26.3671875,0.0
1676927049.0692613,-17.578125,-25.390625,-5.37109375,-39.0625,0.0
1676927049.0767329,-21.97265625,-24.90234375,-3.90625,-24.4140625,0.0
1676927049.0842047,9.765625,-20.01953125,3.90625,5.37109375,0.0
1676927049.0916762,-9.27734375,-20.01953125,6.8359375,0.0,0.0
1676927049.0991478,-35.64453125,-26.3671875,-2.9296875,-51.7578125,0.0
1676927049.1066196,-16.6015625,-25.390625,-11.71875,-50.78125,0.0
1676927049.1140912,-12.6953125,-20.01953125,-3.90625,-20.01953125,0.0
1676927049.1215627,-10.25390625,-21.97265625,-17.08984375,4.8828125,0.0
1676927049.1290345,-12.6953125,-25.87890625,-44.43359375,-7.32421875,0.0
1676927049.136506,-19.04296875,-28.3203125,-50.78125,-30.2734375,0.0
1676927049.136843,-22.4609375,-30.2734375,-61.03515625,-28.3203125,0.0
1676927049.13718,-39.55078125,-28.80859375,-74.70703125,-23.92578125,0.0
1676927049.137517,-38.0859375,-25.87890625,-82.03125,-38.0859375,0.0
1676927049.137854,-24.4140625,-23.4375,-90.8203125,-48.33984375,0.0
1676927049.138191,-18.06640625,-19.04296875,-104.4921875,-36.62109375,0.0
1676927049.1385279,-18.06640625,-17.08984375,-120.1171875,-11.71875,0.0
1676927049.138865,-33.203125,-25.87890625,-140.625,-22.4609375,0.0
1676927049.1392019,-37.109375,-30.76171875,-160.64453125,-56.640625,0.0
1676927049.139539,-2.9296875,-23.4375,-164.0625,-41.015625,0.0
1676927049.139876,6.8359375,-20.99609375,-165.52734375,-12.20703125,0.0
1676927049.140213,-34.1796875,-32.2265625,-173.33984375,-19.04296875,0.0
1676927049.14055,-43.45703125,-29.296875,-172.8515625,-20.01953125,0.0
1676927049.1452003,-21.97265625,-26.85546875,-174.31640625,-15.13671875,0.0
1676927049.1498506,-21.97265625,-38.57421875,-196.2890625,-19.53125,0.0
1676927049.154501,-25.390625,-35.64453125,-218.75,-29.78515625,0.0
1676927049.1591513,-40.0390625,-29.78515625,-232.91015625,-50.29296875,0.0
1676927049.1638017,-48.33984375,-27.83203125,-255.37109375,-46.38671875,0.0
1676927049.168452,-29.78515625,-31.25,-284.66796875,-19.53125,0.0
1676927049.1731024,-28.80859375,-45.41015625,-323.73046875,-28.80859375,0.0
1676927049.1777527,-37.59765625,-37.109375,-343.26171875,-38.0859375,0.0
1676927049.182403,-41.50390625,-35.64453125,-356.93359375,-34.66796875,0.0
1676927049.1870534,-33.69140625,-40.0390625,-380.37109375,-35.64453125,0.0
1676927049.1917038,-22.94921875,-34.66796875,-411.62109375,-29.78515625,0.0
1676927049.1963542,-28.3203125,-29.296875,-428.22265625,-28.3203125,0.0
1676927049.200204,-38.0859375,-30.76171875,-437.5,-44.43359375,0.0
1676927049.2040534,-21.484375,-37.59765625,-446.77734375,-50.78125,0.0
1676927049.207903,-25.390625,-37.59765625,-445.3125,-38.57421875,0.0
1676927049.2117527,-32.2265625,-31.25,-443.84765625,-24.90234375,0.0
1676927049.2156024,-37.109375,-24.90234375,-432.12890625,-32.71484375,0.0
1676927049.219452,-35.15625,-29.296875,-417.96875,-23.92578125,0.0
1676927049.2233014,-29.78515625,-36.62109375,-407.71484375,-5.37109375,0.0
1676927049.2271512,-39.55078125,-32.2265625,-387.20703125,-20.5078125,0.0
1676927049.231001,-48.33984375,-34.66796875,-373.046875,-35.15625,0.0
1676927049.2348504,-40.52734375,-43.9453125,-373.046875,-58.10546875,0.0
1676927049.2387,-36.62109375,-32.71484375,-358.3984375,-47.8515625,0.0
1676927049.2425497,-43.9453125,-30.2734375,-341.796875,-11.23046875,0.0
1676927049.2461982,-44.921875,-40.0390625,-334.47265625,-18.06640625,0.0
1676927049.2498467,-33.69140625,-44.43359375,-325.68359375,-43.9453125,0.0
1676927049.2534952,-18.06640625,-33.69140625,-311.5234375,-36.1328125,0.0
1676927049.2571437,-13.671875,-29.78515625,-298.33984375,-15.13671875,0.0
1676927049.2607923,-26.3671875,-28.80859375,-284.1796875,-20.5078125,0.0
1676927049.2644405,-40.0390625,-24.4140625,-268.06640625,-32.71484375,0.0
1676927049.268089,-23.4375,-31.25,-258.7890625,-47.8515625,0.0
1676927049.2717376,-18.06640625,-27.34375,-241.2109375,-7.32421875,0.0
1676927049.275386,-30.2734375,-20.01953125,-228.02734375,6.34765625,0.0
1676927049.2790346,-24.4140625,-24.4140625,-232.91015625,-37.59765625,0.0
1676927049.2826831,-27.34375,-27.83203125,-224.609375,-42.96875,0.0
1676927049.2863317,-15.13671875,-24.4140625,-212.40234375,-28.80859375,0.0
1676927049.2900758,-25.87890625,-26.3671875,-198.73046875,-12.6953125,0.0
1676927049.29382,-40.0390625,-29.296875,-175.78125,-30.2734375,0.0
1676927049.297564,-34.66796875,-23.92578125,-163.0859375,-26.3671875,0.0
1676927049.3013082,-25.390625,-27.34375,-157.71484375,-10.25390625,0.0
1676927049.3050523,-19.53125,-29.78515625,-155.76171875,-28.80859375,0.0
1676927049.3087964,-28.3203125,-24.90234375,-167.48046875,-34.66796875,0.0
1676927049.3125405,-24.90234375,-20.5078125,-180.17578125,-35.15625,0.0
1676927049.3162847,3.41796875,-27.34375,-188.96484375,-19.53125,0.0
1676927049.3200288,2.9296875,-41.015625,-206.54296875,-15.625,0.0
1676927049.323773,-5.859375,-39.55078125,-211.9140625,-31.25,0.0
1676927049.327517,8.30078125,-39.55078125,-210.9375,-24.4140625,0.0
1676927049.3312612,9.27734375,-41.9921875,-211.42578125,-1.46484375,0.0
1676927049.3351123,-10.25390625,-45.41015625,-214.84375,-3.41796875,0.0
1676927049.3389637,-12.6953125,-45.8984375,-209.47265625,-8.30078125,0.0
1676927049.342815,-4.39453125,-43.9453125,-200.68359375,-3.90625,0.0
1676927049.3466663,3.41796875,-45.8984375,-197.265625,-20.99609375,0.0
1676927049.3505175,-7.32421875,-45.8984375,-191.40625,-16.6015625,0.0
1676927049.3543687,-31.73828125,-44.43359375,-187.01171875,-3.90625,0.0
1676927049.35822,-41.015625,-41.50390625,-179.19921875,-17.578125,0.0
1676927049.3620713,-19.04296875,-36.62109375,-181.640625,-29.78515625,0.0
1676927049.3659227,0.48828125,-37.109375,-187.01171875,-21.97265625,0.0
1676927049.3697739,-7.32421875,-41.015625,-166.9921875,-11.71875,0.0
1676927049.3736253,-35.15625,-35.15625,-148.92578125,-37.59765625,0.0
1676927049.3774765,-58.10546875,-36.1328125,-142.578125,-62.01171875,2.0
1676927049.3811414,-51.7578125,-44.43359375,-135.7421875,-79.1015625,0.0
1676927049.3848066,-44.43359375,-40.52734375,-125.48828125,-62.01171875,0.0
1676927049.3884716,-56.640625,-31.25,-117.67578125,-56.15234375,0.0
1676927049.3921368,-63.96484375,-37.59765625,-120.1171875,-51.26953125,0.0
1676927049.3958018,-40.52734375,-39.55078125,-112.79296875,-38.57421875,0.0
1676927049.399467,-15.625,-31.25,-96.6796875,-32.71484375,0.0
1676927049.403132,-20.01953125,-33.203125,-84.47265625,-10.25390625,0.0
1676927049.406797,-49.31640625,-41.015625,-89.84375,-40.52734375,0.0
1676927049.4104621,-29.78515625,-33.203125,-90.8203125,-60.546875,0.0
1676927049.414127,-5.859375,-27.83203125,-78.61328125,-41.50390625,0.0
1676927049.4177923,-41.50390625,-38.0859375,-76.66015625,-36.1328125,0.0
1676927049.4214573,-46.875,-38.57421875,-79.1015625,-39.0625,0.0
1676927049.426458,-12.20703125,-28.80859375,-78.61328125,-31.25,0.0
1676927049.4314585,-6.8359375,-28.80859375,-74.70703125,-49.8046875,0.0
1676927049.436459,-21.97265625,-30.2734375,-77.63671875,-63.96484375,0.0
1676927049.44146,-18.06640625,-36.62109375,-83.984375,-71.2890625,0.0
1676927049.4464605,-10.25390625,-38.57421875,-81.54296875,-79.1015625,0.0
1676927049.451461,-22.4609375,-32.71484375,-73.73046875,-73.73046875,0.0
1676927049.4564617,-48.828125,-41.015625,-74.70703125,-58.10546875,0.0
1676927049.4614623,-41.015625,-41.9921875,-80.56640625,-56.640625,0.0
1676927049.466463,-32.71484375,-34.1796875,-72.75390625,-83.49609375,0.0
1676927049.4714637,-26.3671875,-30.76171875,-61.5234375,-81.0546875,0.0
1676927049.4764643,-27.34375,-31.73828125,-69.3359375,-66.89453125,0.0
1676927049.4814649,-41.015625,-29.296875,-73.2421875,-75.1953125,0.0
1676927049.4852014,-37.59765625,-27.83203125,-66.89453125,-70.3125,0.0
1676927049.4889379,-35.15625,-35.15625,-69.82421875,-59.5703125,0.0
1676927049.492674,-27.83203125,-36.1328125,-76.66015625,-60.546875,0.0
1676927049.4964106,5.37109375,-35.15625,-75.68359375,-53.22265625,0.0
1676927049.500147,-11.71875,-35.15625,-73.2421875,-55.17578125,0.0
1676927049.5038834,-44.43359375,-34.1796875,-72.265625,-57.6171875,0.0
1676927049.5076199,-24.90234375,-39.0625,-74.70703125,-57.6171875,0.0
1676927049.5113564,-17.578125,-42.96875,-85.9375,-47.8515625,0.0
1676927049.5150928,-18.06640625,-35.64453125,-84.47265625,-17.578125,0.0
1676927049.5188293,-18.06640625,-36.1328125,-82.51953125,-33.69140625,0.0
1676927049.5225656,-27.83203125,-45.41015625,-89.84375,-76.66015625,0.0
1676927049.526302,-33.203125,-37.59765625,-88.37890625,-63.96484375,0.0
1676927049.5300388,-41.015625,-33.203125,-84.9609375,-56.15234375,0.0
1676927049.5337758,-58.10546875,-41.015625,-87.890625,-67.3828125,0.0
1676927049.5375125,-43.45703125,-38.57421875,-94.23828125,-77.63671875,0.0
1676927049.5412493,-22.94921875,-33.203125,-87.40234375,-45.41015625,0.0
1676927049.5449862,-23.4375,-36.1328125,-82.03125,-23.92578125,0.0
1676927049.548723,-25.390625,-35.15625,-77.63671875,-40.0390625,0.0
1676927049.5524597,-14.6484375,-31.25,-73.2421875,-34.1796875,0.0
1676927049.5561967,-7.8125,-35.64453125,-72.75390625,-17.578125,0.0
1676927049.5599334,-34.1796875,-39.0625,-74.21875,-8.30078125,0.0
1676927049.5636702,-42.48046875,-40.0390625,-88.37890625,-26.3671875,0.0
1676927049.5674071,-28.3203125,-44.43359375,-98.14453125,-20.01953125,0.0
1676927049.5711439,-11.23046875,-40.52734375,-95.703125,7.32421875,0.0
1676927049.5748942,1.46484375,-39.55078125,-99.609375,-19.53125,0.0
1676927049.5786448,-25.390625,-44.43359375,-115.234375,-40.52734375,0.0
1676927049.582395,-34.1796875,-41.015625,-130.37109375,-50.29296875,0.0
1676927049.5861456,-15.13671875,-36.62109375,-129.8828125,-35.15625,0.0
